#isoforms=['ENSG00000186575.SE.4.A.up_ENSG00000186575.SE.4.A.SE1_ENSG00000186575.SE.4.A.dn','ENSG00000186575.SE.4.B.up_ENSG00000186575.SE.4.B.dn']	exon_lens=('ENSG00000186575.SE.4.A.up',128),('ENSG00000186575.SE.4.A.SE1',163),('ENSG00000186575.SE.4.A.dn',3847),('ENSG00000186575.SE.4.B.up',128),('ENSG00000186575.SE.4.B.dn',194)	iters=5000	burn_in=500	lag=10	percent_accept=92.44	proposal_type=drift	counts=(0,0):285,(0,1):2,(1,0):1118,(1,1):79	assigned_counts=0:1182,1:17	chrom=chr22	strand=+	mRNA_starts=29678196,29678196	mRNA_ends=29698598,29694945
sampled_psi	log_score
0.8293,0.1707	-9997.85
0.7880,0.2120	-9999.76
0.7589,0.2411	-10008.77
0.6750,0.3250	-10007.69
0.7617,0.2383	-9999.59
0.7941,0.2059	-9998.52
0.8063,0.1937	-9990.17
0.7881,0.2119	-10002.39
0.7503,0.2497	-10000.75
0.7148,0.2852	-10007.65
0.6972,0.3028	-10006.71
0.7712,0.2288	-9994.74
0.7891,0.2109	-9997.14
0.7769,0.2231	-9999.64
0.7689,0.2311	-10006.81
0.7635,0.2365	-10003.10
0.6536,0.3464	-10008.11
0.7567,0.2433	-10000.74
0.7890,0.2110	-10009.01
0.7669,0.2331	-10000.78
0.7860,0.2140	-10001.04
0.7397,0.2603	-10003.94
0.6383,0.3617	-10012.00
0.7498,0.2502	-10002.94
0.7895,0.2105	-9990.54
0.7800,0.2200	-9990.81
0.8048,0.1952	-9997.28
0.7668,0.2332	-9998.40
0.7063,0.2937	-10009.33
0.7785,0.2215	-10002.17
0.8101,0.1899	-9987.21
0.7300,0.2700	-10001.92
0.8382,0.1618	-9991.59
0.7371,0.2629	-10001.87
0.7392,0.2608	-10000.81
0.7840,0.2160	-9991.98
0.8034,0.1966	-9995.86
0.7259,0.2741	-10004.89
0.8331,0.1669	-9986.72
0.7120,0.2880	-10011.24
0.7194,0.2806	-10010.53
0.7925,0.2075	-10001.18
0.8235,0.1765	-9986.89
0.7409,0.2591	-10005.00
0.8179,0.1821	-9993.02
0.7241,0.2759	-10005.85
0.6981,0.3019	-10005.87
0.7926,0.2074	-9999.84
0.8487,0.1513	-9991.74
0.7236,0.2764	-10003.92
0.8058,0.1942	-9997.30
0.7116,0.2884	-10003.10
0.6953,0.3047	-10007.55
0.7884,0.2116	-9997.14
0.8647,0.1353	-9994.00
0.7432,0.2568	-10001.84
0.7942,0.2058	-9997.17
0.7317,0.2683	-10004.91
0.7104,0.2896	-10013.89
0.8105,0.1895	-10003.19
0.8547,0.1453	-9991.86
0.7484,0.2516	-10000.75
0.7997,0.2003	-10002.76
0.7306,0.2694	-10007.90
0.6892,0.3108	-10003.58
0.8249,0.1751	-9985.31
0.8522,0.1478	-9995.31
0.7733,0.2267	-9989.80
0.7964,0.2036	-9997.19
0.7175,0.2825	-9997.42
0.6579,0.3421	-10013.24
0.8187,0.1813	-10002.07
0.8824,0.1176	-9982.79
0.8322,0.1678	-9996.34
0.7892,0.2108	-10002.42
0.6975,0.3025	-10007.55
0.6540,0.3460	-10003.01
0.7873,0.2127	-9995.83
0.9035,0.0965	-9992.00
0.8261,0.1739	-9991.51
0.8099,0.1901	-10006.06
0.7054,0.2946	-10009.32
0.6936,0.3064	-10010.82
0.8197,0.1803	-10002.11
0.9040,0.0960	-9985.31
0.8183,0.1817	-9999.04
0.7953,0.2047	-10002.61
0.7036,0.2964	-10008.42
0.7378,0.2622	-10007.04
0.8397,0.1603	-9989.95
0.9108,0.0892	-9980.93
0.8326,0.1674	-9983.52
0.8415,0.1585	-9998.30
0.6716,0.3284	-10004.17
0.6938,0.3062	-10009.19
0.8488,0.1512	-9995.19
0.9129,0.0871	-9971.57
0.8118,0.1882	-9990.09
0.8609,0.1391	-9992.03
0.6822,0.3178	-10011.43
0.6475,0.3525	-10005.86
0.8665,0.1335	-9995.94
0.9098,0.0902	-9985.53
0.8028,0.1972	-10001.47
0.8883,0.1117	-9986.97
0.6584,0.3416	-10009.97
0.6680,0.3320	-10011.30
0.8219,0.1781	-10005.27
0.9168,0.0832	-9973.87
0.8235,0.1765	-9994.59
0.8862,0.1138	-9997.18
0.6844,0.3156	-10002.95
0.6751,0.3249	-10010.62
0.7891,0.2109	-9994.50
0.8967,0.1033	-9978.60
0.8023,0.1977	-9994.45
0.8877,0.1123	-9984.89
0.7035,0.2965	-10002.37
0.6747,0.3253	-10006.97
0.8056,0.1944	-10001.56
0.8969,0.1031	-9978.60
0.7812,0.2188	-10002.22
0.8860,0.1140	-9978.71
0.6681,0.3319	-10007.80
0.6770,0.3230	-10009.89
0.7614,0.2386	-9993.79
0.9028,0.0972	-9983.04
0.7551,0.2449	-10006.37
0.8857,0.1143	-9982.81
0.7237,0.2763	-10000.07
0.6862,0.3138	-10009.93
0.7580,0.2420	-9997.32
0.8936,0.1064	-9985.01
0.8004,0.1996	-9995.84
0.8717,0.1283	-9992.39
0.7579,0.2421	-9997.32
0.7106,0.2894	-10009.40
0.7150,0.2850	-10004.89
0.8906,0.1094	-9993.33
0.7928,0.2072	-10001.19
0.8670,0.1330	-9986.59
0.7467,0.2533	-9999.68
0.7469,0.2531	-10000.76
0.7669,0.2331	-9996.02
0.8838,0.1162	-9986.86
0.7971,0.2029	-9995.83
0.8360,0.1640	-9993.20
0.6981,0.3019	-10006.71
0.7480,0.2520	-9994.23
0.7667,0.2333	-9999.59
0.8816,0.1184	-9992.83
0.8133,0.1867	-10003.32
0.8613,0.1387	-9992.04
0.7111,0.2889	-10004.91
0.7319,0.2681	-10003.91
0.6995,0.3005	-10001.64
0.8777,0.1223	-9982.79
0.7832,0.2168	-9998.42
0.8679,0.1321	-9988.48
0.7179,0.2821	-9998.34
0.7194,0.2806	-9997.35
0.7057,0.2943	-10010.19
0.8925,0.1075	-9984.98
0.7507,0.2493	-9998.54
0.8549,0.1451	-9995.42
0.7217,0.2783	-9999.16
0.7457,0.2543	-9998.61
0.7180,0.2820	-10003.01
0.8863,0.1137	-9982.81
0.7554,0.2446	-9995.10
0.8415,0.1585	-9986.62
0.6811,0.3189	-10003.07
0.7715,0.2285	-10003.25
0.7390,0.2610	-10000.82
0.8883,0.1117	-9972.46
0.7514,0.2486	-9999.64
0.8258,0.1742	-9999.29
0.6516,0.3484	-10010.05
0.7684,0.2316	-9998.39
0.7781,0.2219	-10002.16
0.8666,0.1334	-9990.33
0.7524,0.2476	-10002.96
0.8301,0.1699	-9997.87
0.6024,0.3976	-10012.35
0.7563,0.2437	-10003.00
0.6929,0.3071	-10003.48
0.8679,0.1321	-9982.84
0.7523,0.2477	-9999.63
0.8275,0.1725	-9994.65
0.5892,0.4108	-10013.99
0.7520,0.2480	-10000.74
0.7379,0.2621	-9997.72
0.8648,0.1352	-9984.72
0.7546,0.2454	-9994.00
0.7824,0.2176	-9997.13
0.6325,0.3675	-10006.63
0.7541,0.2459	-10005.22
0.7638,0.2362	-9999.59
0.8594,0.1406	-9986.55
0.7494,0.2506	-9996.37
0.7718,0.2282	-9987.42
0.5987,0.4013	-10016.09
0.7844,0.2156	-9994.55
0.7949,0.2051	-9997.18
0.8821,0.1179	-9998.90
0.7468,0.2532	-9997.52
0.8028,0.1972	-9990.24
0.6222,0.3778	-10006.75
0.7611,0.2389	-10001.91
0.8125,0.1875	-9991.55
0.8803,0.1197	-9992.76
0.7053,0.2947	-10004.08
0.7565,0.2435	-10006.41
0.6263,0.3737	-10009.58
0.7412,0.2588	-9996.59
0.7977,0.2023	-10005.43
0.8629,0.1371	-9984.73
0.6882,0.3118	-10009.94
0.7890,0.2110	-10006.37
0.6488,0.3512	-10008.86
0.7415,0.2585	-9998.69
0.8032,0.1968	-9990.23
0.8489,0.1511	-9990.02
0.6291,0.3709	-10008.94
0.7950,0.2050	-9999.89
0.6792,0.3208	-10010.64
0.6951,0.3049	-10010.84
0.8034,0.1966	-10000.08
0.8449,0.1551	-9995.06
0.6287,0.3713	-10009.49
0.7630,0.2370	-10005.43
0.7113,0.2887	-10001.30
0.7094,0.2906	-10004.92
0.8223,0.1777	-9997.64
0.8489,0.1511	-9996.92
0.6133,0.3867	-10012.44
0.7508,0.2492	-10006.26
0.7489,0.2511	-9998.57
0.7107,0.2893	-10004.91
0.8091,0.1909	-9990.13
0.8669,0.1331	-9992.21
0.5780,0.4220	-10015.67
0.7665,0.2335	-9993.65
0.7492,0.2508	-9996.37
0.7036,0.2964	-10003.24
0.8086,0.1914	-9995.90
0.8603,0.1397	-9988.37
0.5896,0.4104	-10014.33
0.7365,0.2635	-10004.95
0.7278,0.2722	-10000.96
0.7354,0.2646	-10008.01
0.7400,0.2600	-9996.62
0.8574,0.1426	-9991.93
0.6003,0.3997	-10011.62
0.7303,0.2697	-9999.92
0.7456,0.2544	-9999.69
0.7451,0.2549	-10010.42
0.8057,0.1943	-9997.30
0.8107,0.1893	-10004.65
0.6089,0.3911	-10009.90
0.7245,0.2755	-10002.95
0.7819,0.2181	-9997.13
0.7614,0.2386	-9998.43
0.7790,0.2210	-10002.17
0.7847,0.2153	-9999.72
0.6692,0.3308	-10005.67
0.7443,0.2557	-10005.05
0.7553,0.2447	-10002.99
0.7474,0.2526	-10005.10
0.7488,0.2512	-10005.12
0.7740,0.2260	-10005.77
0.6492,0.3508	-10006.39
0.7395,0.2605	-10002.90
0.7256,0.2744	-10003.91
0.7497,0.2503	-9999.65
0.7249,0.2751	-10001.98
0.7598,0.2402	-9998.44
0.6266,0.3734	-10010.60
0.7454,0.2546	-10000.77
0.7283,0.2717	-10005.88
0.7599,0.2401	-10001.90
0.7248,0.2752	-10001.01
0.7338,0.2662	-10004.93
0.5911,0.4089	-10012.82
0.7597,0.2403	-10000.75
0.6974,0.3026	-10003.37
0.7517,0.2483	-10001.85
0.7091,0.2909	-10006.70
0.7396,0.2604	-10007.07
0.5688,0.4312	-10015.94
0.7707,0.2293	-9994.75
0.6978,0.3022	-10004.20
0.7660,0.2340	-10000.77
0.7101,0.2899	-10004.02
0.6810,0.3190	-10012.17
0.5906,0.4094	-10013.94
0.7768,0.2232	-9997.14
0.7056,0.2944	-10005.82
0.7564,0.2436	-10001.87
0.7456,0.2544	-9998.62
0.6675,0.3325	-10009.20
0.5716,0.4284	-10014.99
0.8110,0.1890	-10001.76
0.6775,0.3225	-10005.43
0.7932,0.2068	-10003.89
0.7523,0.2477	-9998.52
0.6664,0.3336	-10004.37
0.6143,0.3857	-10009.62
0.8151,0.1849	-9991.53
0.6781,0.3219	-10007.65
0.7836,0.2164	-9998.42
0.7559,0.2441	-9997.35
0.6894,0.3106	-10009.16
0.6312,0.3688	-10010.47
0.8023,0.1977	-9995.85
0.6530,0.3470	-10007.50
0.7938,0.2062	-9990.43
0.7404,0.2596	-10005.00
0.7066,0.2934	-10005.82
0.5928,0.4072	-10013.12
0.7733,0.2267	-10003.29
0.7020,0.2980	-10006.70
0.7618,0.2382	-10007.73
0.7909,0.2091	-10001.14
0.6933,0.3067	-10005.10
0.5933,0.4067	-10011.21
0.8176,0.1824	-9993.02
0.7017,0.2983	-10016.96
0.7616,0.2384	-10006.56
0.8288,0.1712	-9996.25
0.7116,0.2884	-10005.81
0.5908,0.4092	-10014.67
0.7989,0.2011	-9995.83
0.6910,0.3090	-10009.97
0.7339,0.2661	-9999.86
0.8535,0.1465	-9990.07
0.7136,0.2864	-10008.55
0.5497,0.4503	-10016.30
0.8045,0.1955	-9998.69
0.6632,0.3368	-10007.21
0.6705,0.3295	-10007.76
0.8132,0.1868	-9994.48
0.7055,0.2945	-10010.19
0.5355,0.4645	-10018.16
0.7986,0.2014	-10001.34
0.6737,0.3263	-10009.89
0.6623,0.3377	-10013.97
0.8202,0.1798	-9990.00
0.6678,0.3322	-10007.11
0.5871,0.4129	-10014.06
0.7831,0.2169	-9988.14
0.6218,0.3782	-10008.76
0.7004,0.2996	-10006.70
0.8260,0.1740	-9993.07
0.6431,0.3569	-10002.54
0.6229,0.3771	-10008.71
0.7945,0.2055	-9991.76
0.6473,0.3527	-10007.08
0.6785,0.3215	-10006.16
0.8302,0.1698	-9994.70
0.7063,0.2937	-10004.94
0.6060,0.3940	-10011.79
0.7905,0.2095	-10001.13
0.6759,0.3241	-10007.68
0.6842,0.3158	-10006.82
0.8394,0.1606	-9994.91
0.7034,0.2966	-10007.56
0.6106,0.3894	-10012.51
0.7376,0.2624	-10006.00
0.6615,0.3385	-10003.24
0.6473,0.3527	-10013.76
0.8378,0.1622	-9996.51
0.7072,0.2928	-10007.58
0.6212,0.3788	-10011.27
0.7120,0.2880	-10003.09
0.7107,0.2893	-10004.01
0.6718,0.3282	-10007.02
0.8343,0.1657	-10002.87
0.6904,0.3096	-10002.75
0.5932,0.4068	-10011.97
0.7883,0.2117	-10005.03
0.7216,0.2784	-10002.02
0.6463,0.3537	-10006.51
0.8161,0.1839	-9998.98
0.7066,0.2934	-10005.82
0.6011,0.3989	-10011.99
0.7620,0.2380	-9997.26
0.7168,0.2832	-10004.88
0.6234,0.3766	-10012.72
0.8150,0.1850	-9991.53
0.7183,0.2817	-10007.69
0.6045,0.3955	-10013.12
0.7665,0.2335	-9998.40
0.7368,0.2632	-10000.84
0.6179,0.3821	-10008.00
0.8345,0.1655	-9996.41
0.7773,0.2227	-10007.14
0.6125,0.3875	-10011.55
0.7367,0.2633	-10001.87
0.7453,0.2547	-10001.84
0.6370,0.3630	-10013.14
0.8176,0.1824	-9991.52
0.8076,0.1924	-10000.20
0.5779,0.4221	-10014.10
0.7455,0.2545	-9996.47
0.7672,0.2328	-9992.44
0.6777,0.3223	-10007.66
0.8394,0.1606	-9984.99
0.7833,0.2167	-9995.85
0.6123,0.3877	-10010.64
0.7924,0.2076	-9993.14
0.7610,0.2390	-10005.38
0.7112,0.2888	-10008.51
0.8419,0.1581	-9998.32
0.8044,0.1956	-9994.45
0.5612,0.4388	-10016.21
0.8251,0.1749	-10000.82
0.7505,0.2495	-10005.15
0.7068,0.2932	-10006.70
0.8400,0.1600	-9993.27
0.8394,0.1606	-9988.29
0.6216,0.3784	-10004.30
0.7786,0.2214	-10002.17
0.7688,0.2312	-10004.40
0.6915,0.3085	-10005.13
0.8397,0.1603	-9994.92
0.8389,0.1611	-10001.50
0.6274,0.3726	-10010.58
0.7602,0.2398	-9999.59
0.7504,0.2496	-10002.95
0.6889,0.3111	-10006.77
0.8571,0.1429	-9979.38
0.8200,0.1800	-9999.10
0.6500,0.3500	-10005.12
0.8016,0.1984	-10004.22
0.7658,0.2342	-9997.22
0.6789,0.3211	-10003.90
0.8680,0.1320	-9986.60
0.8150,0.1850	-10001.91
0.6109,0.3891	-10012.51
0.8375,0.1625	-9991.58
0.7494,0.2506	-10002.94
0.6967,0.3033	-10003.39
0.8429,0.1571	-9991.65
0.8370,0.1630	-9993.21
0.6831,0.3169	-10009.14
0.8492,0.1508	-9991.75
0.7425,0.2575	-10000.79
0.6874,0.3126	-10005.21
0.8432,0.1568	-9995.01
0.8352,0.1648	-9996.43
0.6842,0.3158	-10002.96
0.8670,0.1330	-9988.47
0.7237,0.2763	-10005.84
0.6386,0.3614	-10007.44
0.8184,0.1816	-9990.01
0.8509,0.1491	-9984.81
0.6686,0.3314	-10014.11
0.8138,0.1862	-9988.59
0.7060,0.2940	-10011.08
0.6691,0.3309	-10007.08
0.8176,0.1824	-9997.52
0.8220,0.1780	-9994.57
0.6513,0.3487	-10011.30
0.7939,0.2061	-9994.47
0.7036,0.2964	-10006.70
0.6905,0.3095	-10003.55
0.7764,0.2236	-9995.90
0.8196,0.1804	-9997.57
0.6037,0.3963	-10011.04
0.8074,0.1926	-9990.16
0.7451,0.2549	-10003.99
0.7038,0.2962	-10013.62
0.7949,0.2051	-9997.18
0.7999,0.2001	-9999.99
0.5936,0.4064	-10010.81
0.7739,0.2261	-9999.62
0.7592,0.2408	-10000.74
0.7116,0.2884	-10006.71
0.7816,0.2184	-9995.86
0.8237,0.1763	-10002.30
0.6156,0.3844	-10013.80
0.7570,0.2430	-10001.88
0.7592,0.2408	-10007.63
0.7024,0.2976	-10006.70
0.7514,0.2486	-10007.38
0.7832,0.2168	-10000.98
0.6258,0.3742	-10007.03
0.7882,0.2118	-9997.14
0.7457,0.2543	-10003.99
0.7365,0.2635	-10008.04
0.7775,0.2225	-9995.89
0.7710,0.2290	-10008.10
0.6532,0.3468	-10012.56
0.7776,0.2224	-9998.39
0.6998,0.3002	-10005.86
0.7562,0.2438	-9991.69
0.7472,0.2528	-10008.34
0.8116,0.1884	-9994.47
0.6998,0.3002	-10004.16
0.7651,0.2349	-9993.68
0.6962,0.3038	-10006.72
0.7396,0.2604	-9998.72
0.8040,0.1960	-10000.10
0.7641,0.2359	-10001.94
0.7097,0.2903	-10002.23
0.7624,0.2376	-9992.59
0.7018,0.2982	-10000.71
0.7841,0.2159	-9994.55
0.8033,0.1967	-10000.08
0.7587,0.2413	-10004.18
0.6670,0.3330	-10007.12
0.7265,0.2735	-10004.89
0.7160,0.2840	-10002.11
0.8219,0.1781	-9993.04
0.8010,0.1990	-9990.27
0.7143,0.2857	-10008.56
0.7002,0.2998	-10004.16
0.7373,0.2627	-10008.06
0.7381,0.2619	-10006.01
0.7954,0.2046	-10008.04
0.7883,0.2117	-10001.08
0.7303,0.2697	-10004.91
0.6994,0.3006	-10009.24
0.7180,0.2820	-10009.55
0.7396,0.2604	-10002.90
0.8246,0.1754	-9994.61
0.8051,0.1949	-10000.12
0.7352,0.2648	-10009.03
0.6359,0.3641	-10009.79
0.6680,0.3320	-10006.40
0.7871,0.2129	-9997.14
0.8090,0.1910	-9985.80
0.8230,0.1770	-9996.12
0.6970,0.3030	-10002.55
0.6545,0.3455	-10006.81
0.7154,0.2846	-10004.89
0.7922,0.2078	-10002.51
0.7863,0.2137	-9995.83
0.8200,0.1800	-9986.97
0.6746,0.3254	-10008.43
0.6652,0.3348	-10010.60
0.7355,0.2645	-10003.92
0.7683,0.2317	-9998.39
0.8071,0.1929	-10000.18
0.8442,0.1558	-9998.42
0.6165,0.3835	-10009.99
0.6723,0.3277	-10009.17
0.7088,0.2912	-10005.81
0.7520,0.2480	-10001.85
0.7850,0.2150	-9995.84
0.8423,0.1577	-9994.99
0.6317,0.3683	-10010.46
0.6500,0.3500	-10009.45
0.6700,0.3300	-10010.60
0.7720,0.2280	-10009.36
0.7729,0.2271	-10006.96
0.8058,0.1942	-9990.18
0.6782,0.3218	-10012.13
0.6209,0.3791	-10012.26
0.7120,0.2880	-9997.66
0.7333,0.2667	-10006.95
0.7729,0.2271	-9997.16
0.7856,0.2144	-10002.33
0.6904,0.3096	-10007.56
0.6348,0.3652	-10013.14
0.6944,0.3056	-10006.73
0.7034,0.2966	-10009.29
0.7659,0.2341	-9998.40
0.7645,0.2355	-10000.77
0.6759,0.3241	-10009.89
0.6234,0.3766	-10013.22
0.7510,0.2490	-10005.16
0.7075,0.2925	-10004.05
0.7473,0.2527	-10001.84
0.7520,0.2480	-10002.96
0.6606,0.3394	-10011.94
0.5953,0.4047	-10010.71
0.7697,0.2303	-9999.60
0.7209,0.2791	-10009.62
0.7305,0.2695	-10002.91
0.7936,0.2064	-9994.47
0.6555,0.3445	-10010.00
0.5939,0.4061	-10010.41
0.7572,0.2428	-9998.47
0.7557,0.2443	-9993.96
0.7250,0.2750	-10006.82
0.8078,0.1922	-9988.71
0.6326,0.3674	-10009.35
0.6370,0.3630	-10011.45
0.7239,0.2761	-10008.74
0.7133,0.2867	-10005.81
0.6904,0.3096	-10009.97
0.7943,0.2057	-9995.82
0.6296,0.3704	-10009.98
0.6692,0.3308	-10007.78
0.7530,0.2470	-10005.20
0.7376,0.2624	-10006.00
0.6690,0.3310	-10014.82
0.8384,0.1616	-9986.65
0.7169,0.2831	-10008.60
0.6391,0.3609	-10010.85
0.7313,0.2687	-10000.91
0.7522,0.2478	-10006.29
0.7115,0.2885	-10012.13
0.8186,0.1814	-9996.04
0.7381,0.2619	-10001.86
0.6664,0.3336	-10008.52
0.7326,0.2674	-10003.91
0.7478,0.2522	-9998.58
0.6933,0.3067	-10003.47
0.8204,0.1796	-9994.55
0.7711,0.2289	-10008.10
0.6887,0.3113	-10000.42
0.7391,0.2609	-10003.94
0.7641,0.2359	-9997.24
0.6678,0.3322	-10010.60
0.8392,0.1608	-9988.29
0.7498,0.2502	-10002.94
0.7080,0.2920	-10013.79
0.7353,0.2647	-10000.86
0.7403,0.2597	-10001.85
0.7064,0.2936	-10002.31
0.8386,0.1614	-9999.83
0.7696,0.2304	-10003.22
0.6956,0.3044	-10005.89
0.7238,0.2762	-10003.92
0.7708,0.2292	-9993.54
0.7041,0.2959	-10004.10
0.8052,0.1948	-9987.36
0.7430,0.2570	-9999.72
0.7338,0.2662	-10005.94
0.7135,0.2865	-10009.46
0.7736,0.2264	-9998.39
0.6535,0.3465	-10008.12
0.7884,0.2116	-9994.51
0.7862,0.2138	-9991.93
0.7087,0.2913	-10005.81
0.7095,0.2905	-10005.81
0.7592,0.2408	-10001.89
0.6886,0.3114	-10006.77
0.7404,0.2596	-10008.14
0.8021,0.1979	-10001.44
0.6799,0.3201	-10009.14
0.7518,0.2482	-9996.31
0.7324,0.2676	-10007.94
0.7493,0.2507	-10006.22
0.7874,0.2126	-9997.14
0.7986,0.2014	-9995.83
0.6806,0.3194	-10006.11
0.6854,0.3146	-10006.03
0.7776,0.2224	-10000.89
0.7647,0.2353	-9994.87
0.8017,0.1983	-9991.65
0.7873,0.2127	-9994.52
0.6606,0.3394	-10007.28
0.6661,0.3339	-10012.67
0.8254,0.1746	-9991.51
0.7627,0.2373	-10003.09
0.7999,0.2001	-9983.37
0.8001,0.1999	-9998.61
0.6606,0.3394	-10009.94
0.6339,0.3661	-10007.10
0.8186,0.1814	-9991.52
0.7327,0.2673	-10005.93
0.7683,0.2317	-10005.59
0.7611,0.2389	-10004.23
0.6729,0.3271	-10009.89
0.6086,0.3914	-10008.16
0.7503,0.2497	-9999.65
0.7182,0.2818	-10005.82
0.7404,0.2596	-10002.90
0.7503,0.2497	-9998.55
0.6526,0.3474	-10011.29
0.6523,0.3477	-10010.04
0.7492,0.2508	-10002.94
0.7007,0.2993	-10004.15
0.7278,0.2722	-10002.93
0.7333,0.2667	-10001.89
0.6836,0.3164	-10004.52
0.6763,0.3237	-10007.68
0.7168,0.2832	-10001.17
0.7082,0.2918	-10008.47
0.7062,0.2938	-10005.82
0.7524,0.2476	-9998.52
0.6868,0.3132	-10005.22
0.6458,0.3542	-10007.14
0.7486,0.2514	-10002.93
0.7491,0.2509	-10002.94
0.6991,0.3009	-10005.86
0.7365,0.2635	-10004.95
0.7493,0.2507	-10004.03
0.6294,0.3706	-10010.52
0.7739,0.2261	-9999.62
0.7631,0.2369	-9998.42
0.7288,0.2712	-9999.96
0.7541,0.2459	-9996.26
0.7307,0.2693	-10006.90
0.6233,0.3767	-10010.70
0.8169,0.1831	-9999.00
0.7221,0.2779	-10001.06
0.7353,0.2647	-9999.83
0.7639,0.2361	-10001.94
0.7142,0.2858	-10003.98
0.6241,0.3759	-10007.64
0.8244,0.1756	-9991.51
0.6960,0.3040	-10006.72
0.7300,0.2700	-9996.95
0.7358,0.2642	-10005.97
0.7614,0.2386	-10000.75
0.6787,0.3213	-10006.15
0.8224,0.1776	-9996.11
0.7017,0.2983	-10010.98
0.7701,0.2299	-9991.14
0.7656,0.2344	-9998.41
0.7681,0.2319	-9998.40
0.7134,0.2866	-10001.25
0.8055,0.1945	-9994.45
0.7273,0.2727	-9998.02
0.7499,0.2501	-10000.75
0.8025,0.1975	-9993.05
0.7700,0.2300	-10003.22
0.7342,0.2658	-10006.97
0.8246,0.1754	-9986.87
0.7206,0.2794	-10002.04
0.7100,0.2900	-10004.02
0.8004,0.1996	-9990.28
0.7884,0.2116	-10001.09
0.7500,0.2500	-10010.63
0.8280,0.1720	-9994.66
0.7067,0.2933	-9999.66
0.6964,0.3036	-10008.38
0.7962,0.2038	-9999.91
0.8152,0.1848	-9997.47
0.6972,0.3028	-10000.87
0.7722,0.2278	-10000.83
0.7173,0.2827	-9997.43
0.6793,0.3207	-10006.14
0.7928,0.2072	-10007.90
0.8487,0.1513	-9995.19
0.6720,0.3280	-10007.73
0.7771,0.2229	-9990.90
0.6629,0.3371	-10003.84
0.7166,0.2834	-10007.67
0.7948,0.2052	-10003.95
0.8251,0.1749	-9991.51
0.6832,0.3168	-10007.60
0.7346,0.2654	-10000.86
0.7074,0.2926	-9999.64
0.7447,0.2553	-10002.91
0.7926,0.2074	-9985.09
0.8558,0.1442	-9990.11
0.6783,0.3217	-10003.92
0.7251,0.2749	-9994.21
0.6990,0.3010	-10004.18
0.7211,0.2789	-10002.03
0.7800,0.2200	-9995.87
0.8691,0.1309	-9980.93
0.6819,0.3181	-10006.09
0.7304,0.2696	-10000.92
0.7055,0.2945	-10005.82
0.7362,0.2638	-10004.95
0.7537,0.2463	-9995.15
0.8578,0.1422	-9984.75
0.6785,0.3215	-10006.90
0.6824,0.3176	-10008.38
0.7117,0.2883	-10005.81
0.7344,0.2656	-10003.92
0.7620,0.2380	-9990.28
0.8542,0.1458	-9988.32
0.6971,0.3029	-10002.55
0.6818,0.3182	-10003.80
0.6734,0.3266	-10006.99
0.7270,0.2730	-10004.89
0.7036,0.2964	-10005.83
0.8104,0.1896	-9993.02
0.6760,0.3240	-10006.94
0.6857,0.3143	-10006.80
0.7238,0.2762	-10004.88
0.7445,0.2555	-10001.84
0.7190,0.2810	-10008.64
0.7778,0.2222	-10003.40
0.6467,0.3533	-10010.73
0.6693,0.3307	-10012.01
0.6912,0.3088	-10003.53
0.7381,0.2619	-9996.68
0.7200,0.2800	-9997.32
0.7693,0.2307	-9991.17
0.6825,0.3175	-10006.08
0.6728,0.3272	-10009.89
0.6949,0.3051	-10003.43
0.7306,0.2694	-10006.90
0.7429,0.2571	-10001.84
0.7483,0.2517	-10000.75
0.6668,0.3332	-10009.21
0.6711,0.3289	-10011.31
0.6870,0.3130	-10006.00
0.7512,0.2488	-10002.95
0.7217,0.2783	-10004.88
0.7078,0.2922	-10007.58
0.6630,0.3370	-10006.54
0.6854,0.3146	-10006.03
0.6796,0.3204	-10006.13
0.7621,0.2379	-9994.93
0.7461,0.2539	-9999.69
0.6373,0.3627	-10004.68
0.6647,0.3353	-10010.60
0.7103,0.2897	-10007.60
0.6961,0.3039	-10004.23
0.7408,0.2592	-9996.60
0.7040,0.2960	-10005.83
0.6122,0.3878	-10013.38
0.6574,0.3426	-10010.63
0.6981,0.3019	-10005.03
0.6470,0.3530	-10007.70
0.7116,0.2884	-10004.90
0.7089,0.2911	-10004.03
0.6678,0.3322	-10008.50
0.6072,0.3928	-10013.92
0.6774,0.3226	-10006.18
0.6623,0.3377	-10007.24
0.7707,0.2293	-9994.75
0.7126,0.2874	-9998.54
0.6814,0.3186	-10011.42
0.5882,0.4118	-10014.73
0.7110,0.2890	-10007.61
0.6695,0.3305	-10006.36
0.7506,0.2494	-10007.36
0.6899,0.3101	-10004.36
0.7063,0.2937	-10003.19
0.6120,0.3880	-10012.93
0.7198,0.2802	-10005.82
0.6678,0.3322	-10007.11
0.7776,0.2224	-10002.15
0.6636,0.3364	-10007.20
0.7179,0.2821	-10000.21
0.6136,0.3864	-10011.51
0.7335,0.2665	-10004.93
0.6934,0.3066	-10012.45
0.7891,0.2109	-9994.50
0.6798,0.3202	-10005.38
0.7383,0.2617	-9995.64
0.6183,0.3817	-10012.80
0.6897,0.3103	-10005.97
0.7101,0.2899	-10012.08
0.8128,0.1872	-9998.89
0.6781,0.3219	-10009.89
0.7597,0.2403	-10003.05
0.6292,0.3708	-10013.17
0.6831,0.3169	-10004.53
0.7259,0.2741	-10005.86
0.8182,0.1818	-9996.03
0.6537,0.3463	-10008.11
0.7853,0.2147	-10002.32
0.6538,0.3462	-10008.75
0.7220,0.2780	-9998.20
0.7243,0.2757	-10003.92
0.8386,0.1614	-9980.06
0.6966,0.3034	-10004.22
0.8361,0.1639	-9986.68
0.6478,0.3522	-10010.72
0.7292,0.2708	-9998.96
0.7157,0.2843	-10013.19
0.8454,0.1546	-9993.38
0.7122,0.2878	-10007.62
0.8574,0.1426	-10002.69
0.6474,0.3526	-10010.72
0.7977,0.2023	-10004.06
0.7468,0.2532	-10001.84
0.8261,0.1739	-9994.63
0.6972,0.3028	-10000.87
0.8482,0.1518	-9995.17
0.6543,0.3457	-10007.46
0.7806,0.2194	-10002.21
0.7293,0.2707	-10000.94
0.8449,0.1551	-9991.67
0.6890,0.3110	-10009.16
0.8434,0.1566	-9991.65
0.7174,0.2826	-10009.54
0.7982,0.2018	-9997.20
0.7682,0.2318	-9998.40
0.8546,0.1454	-9995.40
0.6567,0.3433	-10008.04
0.8274,0.1726	-9989.95
0.7192,0.2808	-10000.18
0.7578,0.2422	-10003.02
0.7403,0.2597	-10006.04
0.8623,0.1377	-9992.07
0.6801,0.3199	-10005.37
0.8235,0.1765	-9994.59
0.7212,0.2788	-9999.18
0.7514,0.2486	-10004.06
0.7524,0.2476	-10008.52
0.8618,0.1382	-9997.54
0.7167,0.2833	-10012.31
0.7894,0.2106	-9998.47
0.7341,0.2659	-9999.86
0.8043,0.1957	-9993.04
0.7791,0.2209	-10003.44
0.8513,0.1487	-9995.28
0.6513,0.3487	-10005.05
0.7907,0.2093	-9989.17
0.7780,0.2220	-9993.38
0.7801,0.2199	-9994.60
0.7663,0.2337	-9998.40
0.8744,0.1256	-9996.38
0.7100,0.2900	-10008.49
0.7679,0.2321	-9999.59
0.7541,0.2459	-10007.46
0.7942,0.2058	-10001.22
0.7550,0.2450	-10008.62
0.8640,0.1360	-9992.12
0.7157,0.2843	-10008.58
0.7444,0.2556	-10001.84
0.7199,0.2801	-10004.88
0.7852,0.2148	-10010.09
0.7658,0.2342	-9999.59
0.8662,0.1338	-10005.27
0.7028,0.2972	-10005.84
0.7592,0.2408	-10001.89
0.7181,0.2819	-10007.69
0.7540,0.2460	-10000.74
0.7725,0.2275	-10005.72
0.8589,0.1411	-9995.58
0.7008,0.2992	-10005.00
0.7332,0.2668	-10010.99
0.7074,0.2926	-10011.99
0.7459,0.2541	-10000.76
0.7476,0.2524	-9998.58
0.8322,0.1678	-9997.95
0.7113,0.2887	-10004.00
0.7483,0.2517	-9996.39
0.7103,0.2897	-10001.32
0.7645,0.2355	-9997.23
0.7165,0.2835	-10003.96
0.8517,0.1483	-10002.29
0.7201,0.2799	-10007.71
0.7684,0.2316	-9998.39
0.7606,0.2394	-9997.28
0.7506,0.2494	-10004.05
0.7033,0.2967	-10002.38
0.8388,0.1612	-9983.35
0.6992,0.3008	-10005.86
0.8055,0.1945	-9998.71
0.8047,0.1953	-9995.87
0.7654,0.2346	-9999.59
0.7498,0.2502	-9999.65
0.8632,0.1368	-9992.09
0.7164,0.2836	-10001.18
0.8175,0.1825	-10002.02
0.8016,0.1984	-9998.64
0.7292,0.2708	-9998.96
0.6595,0.3405	-10009.96
0.8526,0.1474	-9998.84
0.7789,0.2211	-9994.62
0.8048,0.1952	-10000.12
0.7937,0.2063	-10001.21
0.6898,0.3102	-10009.16
0.6129,0.3871	-10010.15
0.8283,0.1717	-9999.39
0.8222,0.1778	-9999.17
0.7955,0.2045	-9998.54
0.7554,0.2446	-10005.25
0.7063,0.2937	-9998.80
0.6531,0.3469	-10010.03
0.7968,0.2032	-10002.66
0.8031,0.1969	-9995.85
0.8081,0.1919	-9993.02
0.7592,0.2408	-9998.45
0.7493,0.2507	-9999.65
0.6025,0.3975	-10014.01
0.7665,0.2335	-10001.97
0.7719,0.2281	-10003.26
0.8008,0.1992	-9995.84
0.7285,0.2715	-10004.90
0.7633,0.2367	-9992.56
0.5740,0.4260	-10014.88
0.8072,0.1928	-9994.45
0.7859,0.2141	-9997.13
0.8219,0.1781	-9993.04
0.7856,0.2144	-9999.73
0.7440,0.2560	-10003.98
0.5282,0.4718	-10018.58
0.7997,0.2003	-9994.45
0.7470,0.2530	-10004.01
0.8216,0.1784	-9991.51
0.7352,0.2648	-9999.84
0.7543,0.2457	-9999.62
0.6020,0.3980	-10016.92
0.8150,0.1850	-9993.02
0.7728,0.2272	-10002.06
0.8237,0.1763	-9988.43
0.7198,0.2802	-10002.05
0.7588,0.2412	-9996.16
0.5934,0.4066	-10013.09
0.7862,0.2138	-9997.13
0.7499,0.2501	-10000.75
0.8230,0.1770	-9997.66
0.6956,0.3044	-10012.50
0.7357,0.2643	-9993.69
0.6340,0.3660	-10010.40
0.7792,0.2208	-9997.14
0.7354,0.2646	-10008.01
0.8242,0.1758	-9989.97
0.7253,0.2747	-9999.06
0.7510,0.2490	-10000.74
0.6524,0.3476	-10008.15
0.7501,0.2499	-9998.55
0.7497,0.2503	-10002.94
0.8061,0.1939	-9998.73
0.7020,0.2980	-10001.56
0.7590,0.2410	-10003.04
0.7011,0.2989	-10007.55
0.7183,0.2817	-10003.01
0.7590,0.2410	-10000.74
0.7789,0.2211	-10002.17
0.7186,0.2814	-10005.82
0.7953,0.2047	-9990.39
0.8035,0.1965	-10004.31
0.6697,0.3303	-10009.89
0.7465,0.2535	-10000.76
0.7800,0.2200	-10005.99
0.7305,0.2695	-9999.92
0.7679,0.2321	-9996.00
0.8076,0.1924	-9997.33
0.6267,0.3733	-10009.04
0.7426,0.2574	-10003.96
0.7781,0.2219	-9995.88
0.7479,0.2521	-9999.67
0.7769,0.2231	-10003.38
0.7634,0.2366	-9996.07
0.6037,0.3963	-10013.56
0.7412,0.2588	-10005.01
0.7616,0.2384	-9996.11
0.7040,0.2960	-10006.70
0.8122,0.1878	-9991.55
0.7871,0.2129	-9999.75
0.5817,0.4183	-10014.92
0.7719,0.2281	-10004.48
0.7679,0.2321	-9998.40
0.6496,0.3504	-10012.55
0.8302,0.1698	-9989.94
0.8153,0.1847	-9990.05
0.6242,0.3758	-10014.23
0.7131,0.2869	-10003.08
0.7359,0.2641	-9999.82
0.6388,0.3612	-10006.29
0.8273,0.1727	-9985.25
0.7690,0.2310	-10002.00
0.6203,0.3797	-10010.81
0.7436,0.2564	-10001.84
0.7341,0.2659	-9999.85
0.6403,0.3597	-10007.94
0.7981,0.2019	-10004.08
0.8044,0.1956	-9995.86
0.6222,0.3778	-10010.74
0.7625,0.2375	-10003.09
0.7707,0.2293	-9999.60
0.6285,0.3715	-10010.55
0.7875,0.2125	-10003.69
0.7933,0.2067	-9987.75
0.6483,0.3517	-10008.26
0.7608,0.2392	-10000.75
0.7566,0.2434	-10006.41
0.6427,0.3573	-10010.20
0.7825,0.2175	-9993.29
0.7998,0.2002	-9997.22
0.6563,0.3437	-10009.99
0.7755,0.2245	-10002.11
0.7880,0.2120	-9994.51
0.6210,0.3790	-10013.25
0.7743,0.2257	-9993.46
0.8079,0.1921	-10000.20
0.6273,0.3727	-10011.62
0.7738,0.2262	-9993.47
0.8151,0.1849	-9991.53
0.5933,0.4067	-10013.47
0.7790,0.2210	-10005.96
0.8450,0.1550	-9991.68
0.6538,0.3462	-10010.02
0.7493,0.2507	-9999.65
0.8327,0.1673	-9994.75
0.6284,0.3716	-10012.12
0.7881,0.2119	-9994.51
0.8309,0.1691	-9996.31
0.6265,0.3735	-10010.09
0.7553,0.2447	-9997.36
0.8253,0.1747	-9989.96
0.6883,0.3117	-10008.36
0.7483,0.2517	-10002.93
0.8231,0.1769	-9999.20
0.6394,0.3606	-10007.40
0.7075,0.2925	-10012.88
0.8148,0.1852	-9987.09
0.7093,0.2907	-10004.92
0.7199,0.2801	-10003.93
0.8206,0.1794	-10003.68
0.6577,0.3423	-10008.67
0.7414,0.2586	-10000.80
0.8208,0.1792	-9989.99
0.6916,0.3084	-10007.56
0.7671,0.2329	-10003.17
0.7850,0.2150	-10001.02
0.6429,0.3571	-10009.02
0.7598,0.2402	-9996.14
0.7981,0.2019	-9990.33
0.6869,0.3131	-10001.29
0.7641,0.2359	-10000.76
0.8284,0.1716	-10000.97
0.6235,0.3765	-10012.21
0.7199,0.2801	-10002.05
0.8075,0.1925	-10001.63
0.7181,0.2819	-10003.95
0.7402,0.2598	-9999.76
0.7964,0.2036	-10001.28
0.6215,0.3785	-10008.78
0.7363,0.2637	-10003.92
0.7674,0.2326	-9997.20
0.7277,0.2723	-10002.93
0.7254,0.2746	-10000.03
0.8149,0.1851	-9991.53
0.6547,0.3453	-10008.09
0.7484,0.2516	-10000.75
0.7468,0.2532	-10000.76
0.7213,0.2787	-10002.03
0.7728,0.2272	-10005.73
0.8409,0.1591	-10001.61
0.7115,0.2885	-10007.61
0.7651,0.2349	-10003.13
0.7317,0.2683	-9994.88
0.6897,0.3103	-10009.96
0.7311,0.2689	-10002.91
0.8418,0.1582	-9999.99
0.7169,0.2831	-10010.46
0.7693,0.2307	-9992.37
0.7143,0.2857	-10004.89
0.7146,0.2854	-10003.05
0.7402,0.2598	-10009.18
0.8506,0.1494	-9995.25
0.7099,0.2901	-10004.91
0.7756,0.2244	-10005.83
0.7100,0.2900	-10006.70
0.7106,0.2894	-10006.71
0.7241,0.2759	-10006.81
0.8599,0.1401	-9982.92
0.7326,0.2674	-9996.86
0.7634,0.2366	-10001.93
0.6967,0.3033	-10006.72
0.7589,0.2411	-10003.04
0.7149,0.2851	-10003.97
0.8534,0.1466	-9990.07
0.7275,0.2725	-10001.95
0.8004,0.1996	-9997.23
0.7121,0.2879	-10003.09
0.7693,0.2307	-10002.00
0.7202,0.2798	-10010.55
0.8647,0.1353	-9990.29
0.7395,0.2605	-9998.72
0.7852,0.2148	-10003.61
0.6951,0.3049	-10005.90
0.7818,0.2182	-10004.79
0.6793,0.3207	-10003.14
0.8156,0.1844	-9995.99
0.7196,0.2804	-10006.76
0.7960,0.2040	-9997.18
0.7037,0.2963	-10004.97
0.7624,0.2376	-9999.59
0.7155,0.2845	-10005.81
0.7696,0.2304	-9997.19
0.7203,0.2797	-10010.55
0.7711,0.2289	-9999.60
0.6762,0.3238	-10012.83
0.7621,0.2379	-10007.74
0.7590,0.2410	-10005.33
0.7340,0.2660	-9999.86
0.7806,0.2194	-9992.06
0.7517,0.2483	-10000.74
0.7184,0.2816	-10004.88
0.7518,0.2482	-10002.96
0.7601,0.2399	-9999.59
0.7441,0.2559	-10003.98
0.7667,0.2333	-9993.64
0.7233,0.2767	-10006.80
0.6905,0.3095	-10005.95
0.7538,0.2462	-10005.22
0.7735,0.2265	-10002.07
0.7414,0.2586	-9994.47
0.7933,0.2067	-9997.16
0.6881,0.3119	-10007.57
0.7280,0.2720	-10008.83
0.7893,0.2107	-9994.50
0.7893,0.2107	-9998.46
0.7607,0.2393	-10000.75
0.7631,0.2369	-10004.27
0.6648,0.3352	-10003.75
0.7301,0.2699	-10007.89
0.8175,0.1825	-9997.52
0.8059,0.1941	-9997.30
0.7339,0.2661	-10015.08
0.7718,0.2282	-10008.13
0.6631,0.3369	-10005.19
0.7418,0.2582	-9998.68
0.8199,0.1801	-9988.48
0.7962,0.2038	-9991.74
0.7423,0.2577	-10006.08
0.7239,0.2761	-10006.81
0.6779,0.3221	-10011.38
0.7644,0.2356	-10004.30
0.8236,0.1764	-9997.68
0.7672,0.2328	-10001.98
0.7440,0.2560	-10002.91
0.7485,0.2515	-9998.57
0.6605,0.3395	-10007.95
0.7632,0.2368	-9998.42
0.8298,0.1702	-9988.36
0.7789,0.2211	-9994.62
0.7767,0.2233	-9994.65
0.7470,0.2530	-10001.84
0.6460,0.3540	-10004.12
0.7169,0.2831	-10010.46
0.8198,0.1802	-9990.00
0.7478,0.2522	-10005.10
0.7394,0.2606	-10009.16
0.7420,0.2580	-9999.73
0.6732,0.3268	-10002.66
0.7059,0.2941	-10006.70
0.8617,0.1383	-9992.05
0.7513,0.2487	-9999.64
0.7299,0.2701	-10002.92
0.7619,0.2381	-10006.57
0.6893,0.3107	-10008.36
0.7423,0.2577	-9993.38
0.8666,0.1334	-9999.69
0.7407,0.2593	-10005.00
0.7396,0.2604	-10003.94
0.6891,0.3109	-10006.77
0.7158,0.2842	-10001.19
0.7346,0.2654	-10003.92
0.8234,0.1766	-9997.67
0.7336,0.2664	-10003.92
0.7297,0.2703	-9996.96
0.6571,0.3429	-10005.43
0.6805,0.3195	-10003.09
0.7291,0.2709	-10003.91
0.8418,0.1582	-9998.32
0.7617,0.2383	-9999.59
0.7814,0.2186	-10000.95
0.7009,0.2991	-10008.40
0.7073,0.2927	-10005.82
0.6868,0.3132	-10005.22
0.8484,0.1516	-9993.45
0.7492,0.2508	-9999.66
0.7893,0.2107	-9995.82
0.7337,0.2663	-9995.81
0.7285,0.2715	-9999.96
0.6189,0.3811	-10016.67
0.8723,0.1277	-9990.49
0.7531,0.2469	-9999.62
0.7783,0.2217	-9999.65
0.7481,0.2519	-9995.31
0.6974,0.3026	-10005.04
0.6127,0.3873	-10012.00
0.8457,0.1543	-9991.69
0.7677,0.2323	-10000.79
0.7651,0.2349	-10003.13
0.7129,0.2871	-10005.81
0.6873,0.3127	-10010.73
0.6332,0.3668	-10011.51
0.8511,0.1489	-9993.53
0.7830,0.2170	-9992.00
0.7640,0.2360	-9993.71
0.7482,0.2518	-10004.02
0.7049,0.2951	-10000.60
0.6072,0.3928	-10011.31
0.8567,0.1433	-9991.91
0.7750,0.2250	-9999.62
0.7684,0.2316	-9999.59
0.7426,0.2574	-10006.08
0.6819,0.3181	-10003.04
0.6036,0.3964	-10012.73
0.8232,0.1768	-9989.97
0.7340,0.2660	-10000.87
0.7599,0.2401	-9993.83
0.8094,0.1906	-9997.35
0.7216,0.2784	-10006.78
0.5970,0.4030	-10013.74
0.8545,0.1455	-9986.55
0.7519,0.2481	-9997.42
0.7735,0.2265	-9999.61
0.7942,0.2058	-9997.17
0.7608,0.2392	-10004.22
0.5839,0.4161	-10014.18
0.8487,0.1513	-9990.01
0.8007,0.1993	-9997.23
0.7426,0.2574	-10002.91
0.8042,0.1958	-9995.86
0.7871,0.2129	-9997.14
0.6284,0.3716	-10010.02
0.8159,0.1841	-9993.02
0.7874,0.2126	-10001.07
0.7223,0.2777	-10002.97
0.8355,0.1645	-9998.06
0.7642,0.2358	-9997.24
0.6789,0.3211	-10003.90
0.8535,0.1465	-9993.60
0.7897,0.2103	-9995.82
0.6666,0.3334	-10009.21
0.8021,0.1979	-10001.44
0.7486,0.2514	-10000.75
0.6862,0.3138	-10004.45
0.8539,0.1461	-9990.08
0.8058,0.1942	-9987.34
0.6472,0.3528	-10008.90
0.7985,0.2015	-9997.21
0.7332,0.2668	-9997.85
0.6575,0.3425	-10012.58
0.8826,0.1174	-9984.81
0.8212,0.1788	-9994.56
0.6630,0.3370	-10011.28
0.7823,0.2177	-10004.81
0.7207,0.2793	-10002.03
0.6905,0.3095	-10009.97
0.8773,0.1227	-9990.66
0.8186,0.1814	-9993.02
0.6718,0.3282	-10009.89
0.7999,0.2001	-10001.38
0.6980,0.3020	-10009.22
0.7375,0.2625	-10010.13
0.8832,0.1168	-9990.89
0.8220,0.1780	-9994.57
0.6784,0.3216	-10013.62
0.7703,0.2297	-9992.34
0.7234,0.2766	-10008.73
0.7602,0.2398	-9997.29
0.8941,0.1059	-9978.62
0.8293,0.1707	-9994.69
0.6560,0.3440	-10011.93
0.7681,0.2319	-10005.58
0.7173,0.2827	-10003.95
0.7345,0.2655	-10001.88
0.8689,0.1311	-9992.28
0.8620,0.1380	-9988.39
0.6692,0.3308	-10006.37
0.7714,0.2286	-10000.82
0.7595,0.2405	-9998.44
0.7633,0.2367	-10000.76
0.8832,0.1168	-9992.91
0.8560,0.1440	-9990.11
0.6484,0.3516	-10007.65
0.7401,0.2599	-10001.85
0.7264,0.2736	-10002.93
0.7665,0.2335	-10005.53
0.8760,0.1240	-9982.79
0.8713,0.1287	-10001.94
0.6673,0.3327	-10013.38
0.7204,0.2796	-10002.04
0.7090,0.2910	-10005.81
0.7156,0.2844	-10003.04
0.8713,0.1287	-9984.72
0.8637,0.1363	-9986.57
0.6489,0.3511	-10011.32
0.7277,0.2723	-10003.91
0.7180,0.2820	-10000.21
0.7557,0.2443	-10005.26
0.8550,0.1450	-9990.10
0.8719,0.1281	-9982.81
0.6402,0.3598	-10011.40
0.7200,0.2800	-10009.60
0.6739,0.3261	-10005.53
0.6847,0.3153	-10013.02
0.8515,0.1485	-9995.29
0.8581,0.1419	-9990.15
0.6602,0.3398	-10009.95
0.7212,0.2788	-10010.58
0.6740,0.3260	-10006.98
0.6806,0.3194	-10003.09
0.8691,0.1309	-9994.18
0.8980,0.1020	-9985.12
0.6686,0.3314	-10004.28
0.6715,0.3285	-10002.74
0.6910,0.3090	-10006.75
0.7519,0.2481	-9996.31
0.8720,0.1280	-9992.40
0.8970,0.1030	-9985.09
0.7267,0.2733	-10008.80
0.6201,0.3799	-10015.71
0.6347,0.3653	-10013.14
0.7755,0.2245	-10003.35
0.8859,0.1141	-9982.81
0.9242,0.0758	-9981.30
0.7080,0.2920	-10010.24
0.6487,0.3513	-10007.64
0.6191,0.3809	-10014.73
0.8067,0.1933	-9997.31
0.8603,0.1397	-9995.64
0.9276,0.0724	-9978.89
0.6859,0.3141	-10009.15
0.6776,0.3224	-10002.46
0.6317,0.3683	-10008.30
0.7690,0.2310	-9992.38
0.8551,0.1449	-9986.55
0.9159,0.0841	-9985.82
0.6962,0.3038	-10008.38
0.6982,0.3018	-10005.87
0.5958,0.4042	-10014.94
0.7529,0.2471	-10004.08
0.8211,0.1789	-9989.99
0.8933,0.1067	-9976.50
0.7092,0.2908	-10008.48
0.7215,0.2785	-10001.07
0.6081,0.3919	-10016.54
0.7428,0.2572	-9999.72
0.8013,0.1987	-9995.84
0.8674,0.1326	-9986.60
0.6785,0.3215	-10006.16
0.7068,0.2932	-10001.42
0.6436,0.3564	-10010.77
0.7548,0.2452	-10002.99
0.8139,0.1861	-9993.01
0.8185,0.1815	-9994.53
0.6634,0.3366	-10009.24
0.7530,0.2470	-10000.74
0.6664,0.3336	-10012.67
0.7098,0.2902	-10006.70
0.8094,0.1906	-10007.48
0.8276,0.1724	-9988.38
0.6773,0.3227	-10002.47
0.7984,0.2016	-9994.45
0.6579,0.3421	-10015.86
0.7171,0.2829	-10004.88
0.8195,0.1805	-9997.57
0.8456,0.1544	-9991.69
0.6593,0.3407	-10010.62
0.7868,0.2132	-9994.52
0.6897,0.3103	-10001.17
0.6823,0.3177	-10006.08
0.8039,0.1961	-9990.22
0.8259,0.1741	-9993.07
0.7280,0.2720	-10005.88
0.7778,0.2222	-9999.65
0.6978,0.3022	-10009.22
0.6773,0.3227	-10004.70
0.8000,0.2000	-9998.61
0.7793,0.2207	-9998.40
0.7525,0.2475	-10001.85
0.8103,0.1897	-10004.63
0.7251,0.2749	-10009.73
0.6343,0.3657	-10013.14
0.7788,0.2212	-9993.36
0.7672,0.2328	-10003.17
0.7152,0.2848	-9997.52
0.8410,0.1590	-10009.95
0.7388,0.2612	-10011.22
0.6066,0.3934	-10011.33
0.7738,0.2262	-9999.62
0.7624,0.2376	-9997.26
0.7073,0.2927	-10006.70
0.8763,0.1237	-9990.62
0.7111,0.2889	-10001.30
0.5784,0.4216	-10014.40
0.7988,0.2012	-10004.10
0.7746,0.2254	-9997.15
0.7202,0.2798	-10005.82
0.8634,0.1366	-9984.72
0.7021,0.2979	-10009.27
0.6560,0.3440	-10009.35
0.8334,0.1666	-9994.77
0.8076,0.1924	-9998.76
0.7256,0.2744	-9996.13
0.8839,0.1161	-9992.95
0.6907,0.3093	-10005.95
0.6204,0.3796	-10012.77
0.8334,0.1666	-10002.82
0.7846,0.2154	-9993.25
0.7331,0.2669	-10000.88
0.8718,0.1282	-9990.48
0.6542,0.3458	-10008.74
0.6626,0.3374	-10010.60
0.8313,0.1687	-9989.94
0.7187,0.2813	-10003.94
0.6899,0.3101	-10010.76
0.8376,0.1624	-9999.79
0.6924,0.3076	-10007.55
0.6609,0.3391	-10003.27
0.7484,0.2516	-10004.02
0.7304,0.2696	-10003.91
0.7013,0.2987	-10008.41
0.8419,0.1581	-9994.98
0.6602,0.3398	-10008.62
0.6404,0.3596	-10009.09
0.7446,0.2554	-10000.77
0.6724,0.3276	-10011.32
0.6541,0.3459	-10010.01
0.8488,0.1512	-9993.47
0.6104,0.3896	-10015.66
0.6724,0.3276	-10001.26
0.7164,0.2836	-10007.66
0.6885,0.3115	-10004.40
0.6943,0.3057	-10003.45
0.8251,0.1749	-9994.61
0.6499,0.3501	-10002.03
0.7670,0.2330	-9998.40
0.7157,0.2843	-10001.19
0.6692,0.3308	-10003.55
0.7185,0.2815	-10006.75
0.8145,0.1855	-9984.14
0.6981,0.3019	-10008.39
0.7359,0.2641	-10001.87
0.6924,0.3076	-10003.50
0.7340,0.2660	-10003.92
0.7341,0.2659	-10003.92
0.8113,0.1887	-10000.31
0.7238,0.2762	-10001.99
0.7292,0.2708	-10002.92
0.6853,0.3147	-10005.25
0.7431,0.2569	-9995.47
0.6894,0.3106	-10006.77
0.7826,0.2174	-10008.66
0.6810,0.3190	-10002.32
0.7221,0.2779	-10001.06
0.6841,0.3159	-10005.28
0.7197,0.2803	-10002.99
0.7042,0.2958	-10009.30
0.7796,0.2204	-10002.19
0.6679,0.3321	-10010.60
0.6719,0.3281	-10009.17
0.6971,0.3029	-10000.88
0.7170,0.2830	-10003.95
0.7070,0.2930	-10006.70
0.7798,0.2202	-9995.87
0.6786,0.3214	-10007.65
0.7340,0.2660	-10008.99
0.6831,0.3169	-10002.23
0.7626,0.2374	-10003.09
0.6465,0.3535	-10012.54
0.7933,0.2067	-9994.47
0.6863,0.3137	-10010.71
0.7564,0.2436	-10001.87
0.6866,0.3134	-10003.66
0.7798,0.2202	-9997.13
0.6594,0.3406	-10010.62
0.7807,0.2193	-9995.86
0.7302,0.2698	-10008.89
0.7894,0.2106	-9997.14
0.6838,0.3162	-10004.51
0.7833,0.2167	-9993.28
0.6840,0.3160	-10009.14
0.7870,0.2130	-10001.06
0.7497,0.2503	-10001.84
0.7855,0.2145	-9994.54
0.6796,0.3204	-10010.65
0.8073,0.1927	-10007.35
0.7081,0.2919	-10006.70
0.7695,0.2305	-10002.01
0.7726,0.2274	-9995.94
0.7816,0.2184	-9998.41
0.6909,0.3091	-10009.97
0.8145,0.1855	-9990.06
0.6902,0.3098	-10010.77
0.7520,0.2480	-10010.73
0.7824,0.2176	-9990.73
0.7777,0.2223	-9998.39
0.7143,0.2857	-10001.23
0.8189,0.1811	-9991.52
0.6886,0.3114	-10007.57
0.7081,0.2919	-10008.47
0.7394,0.2606	-9993.51
0.7990,0.2010	-9997.21
0.7111,0.2889	-10013.01
0.8093,0.1907	-9987.24
0.7081,0.2919	-10004.04
0.6368,0.3632	-10008.08
0.7004,0.2996	-10010.10
0.8023,0.1977	-10004.25
0.7296,0.2704	-10007.88
0.8226,0.1774	-9994.58
0.7143,0.2857	-10004.89
0.6445,0.3555	-10010.76
0.7039,0.2961	-10003.23
0.8208,0.1792	-10000.64
0.6823,0.3177	-10006.08
0.8203,0.1797	-9999.11
0.7097,0.2903	-10000.45
0.6515,0.3485	-10006.92
0.6804,0.3196	-10008.39
0.8121,0.1879	-9998.87
0.7010,0.2990	-10007.55
0.8091,0.1909	-9988.68
0.7273,0.2727	-10003.91
0.6217,0.3783	-10009.27
0.7438,0.2562	-10001.84
0.8294,0.1706	-9989.94
0.7247,0.2753	-9999.08
0.8113,0.1887	-9995.93
0.7522,0.2478	-10005.18
0.5942,0.4058	-10010.39
0.7670,0.2330	-9996.02
0.8248,0.1752	-10005.45
0.6984,0.3016	-10005.03
0.8257,0.1743	-10003.96
0.7256,0.2744	-10001.97
0.6019,0.3981	-10009.47
0.7786,0.2214	-9997.14
0.7897,0.2103	-9997.15
0.6973,0.3027	-10005.04
0.7924,0.2076	-9999.84
0.7753,0.2247	-9998.39
0.5972,0.4028	-10014.13
0.7741,0.2259	-10004.54
0.7590,0.2410	-10005.33
0.6982,0.3018	-10009.22
0.8045,0.1955	-10004.35
0.7939,0.2061	-9997.17
0.5753,0.4247	-10015.14
0.7965,0.2035	-9990.37
0.7713,0.2287	-9994.74
0.7069,0.2931	-10010.22
0.7901,0.2099	-9989.19
0.7863,0.2137	-9994.53
0.5920,0.4080	-10013.52
0.7650,0.2350	-9998.41
0.7855,0.2145	-9991.94
0.7190,0.2810	-10008.64
0.7744,0.2256	-9999.62
0.8038,0.1962	-9997.27
0.6459,0.3541	-10006.53
0.7855,0.2145	-9994.54
0.7208,0.2792	-10001.08
0.6779,0.3221	-10000.96
0.7328,0.2672	-10004.92
0.7881,0.2119	-9993.20
0.6300,0.3700	-10008.37
0.8184,0.1816	-9991.52
0.7232,0.2768	-10002.96
0.6447,0.3553	-10010.16
0.7462,0.2538	-10004.00
0.7765,0.2235	-9995.90
0.6463,0.3537	-10006.52
0.8376,0.1624	-9989.94
0.7811,0.2189	-10006.04
0.6870,0.3130	-10002.86
0.7295,0.2705	-10000.93
0.7435,0.2565	-10007.16
0.6373,0.3627	-10006.94
0.8125,0.1875	-9995.95
0.7920,0.2080	-9993.15
0.6638,0.3362	-10007.20
0.7877,0.2123	-9997.14
0.7383,0.2617	-10001.86
0.6431,0.3569	-10009.02
0.7809,0.2191	-9995.86
0.7854,0.2146	-9993.24
0.6871,0.3129	-10011.51
0.8167,0.1833	-9988.54
0.7209,0.2791	-10004.88
0.6714,0.3286	-10009.17
0.7334,0.2666	-10007.96
0.7321,0.2679	-9998.89
0.6590,0.3410	-10007.33
0.8414,0.1586	-9996.63
0.7171,0.2829	-10007.67
0.6558,0.3442	-10010.64
0.7361,0.2639	-9999.82
0.7449,0.2551	-9997.56
0.6257,0.3743	-10009.09
0.8240,0.1760	-9991.51
0.7120,0.2880	-10008.52
0.6841,0.3159	-10008.37
0.7591,0.2409	-9998.45
0.7768,0.2232	-10000.88
0.6247,0.3753	-10012.70
0.8086,0.1914	-9994.46
0.7039,0.2961	-10005.83
0.6876,0.3124	-10010.73
0.7561,0.2439	-9998.48
0.7906,0.2094	-9993.16
0.6576,0.3424	-10006.71
0.7936,0.2064	-10002.55
0.6949,0.3051	-10006.72
0.6730,0.3270	-10006.28
0.7526,0.2474	-10001.85
0.7670,0.2330	-10005.55
0.6954,0.3046	-10009.20
0.7778,0.2222	-9998.39
0.6959,0.3041	-10004.24
0.6663,0.3337	-10005.76
0.7534,0.2466	-10000.74
0.7631,0.2369	-10003.10
0.6620,0.3380	-10003.21
0.7494,0.2506	-10005.13
0.6929,0.3071	-10007.55
0.6418,0.3582	-10010.80
0.7242,0.2758	-10001.99
0.7731,0.2269	-9995.93
0.6766,0.3234	-10004.72
0.7274,0.2726	-10007.84
0.6781,0.3219	-10004.67
0.6266,0.3734	-10009.05
0.7122,0.2878	-10005.81
0.8069,0.1931	-10001.60
0.7067,0.2933	-10007.58
0.7421,0.2579	-9995.50
0.6496,0.3504	-10007.61
0.6502,0.3498	-10015.03
0.7259,0.2741	-10005.86
0.8032,0.1968	-10001.48
0.7039,0.2961	-10003.23
0.7716,0.2284	-9999.61
0.7002,0.2998	-10009.25
0.6856,0.3144	-10006.81
0.6653,0.3347	-10007.16
0.8180,0.1820	-9990.02
0.7051,0.2949	-10009.31
0.7401,0.2599	-10002.90
0.6837,0.3163	-10009.91
0.7259,0.2741	-10006.83
0.6237,0.3763	-10008.67
0.8261,0.1739	-9997.75
0.7547,0.2453	-9997.37
0.7551,0.2449	-10001.86
0.6922,0.3078	-10005.12
0.7585,0.2415	-10001.89
0.6556,0.3444	-10006.13
0.8367,0.1633	-9993.21
0.7778,0.2222	-10000.90
0.7847,0.2153	-10002.31
0.6861,0.3139	-10003.67
0.7514,0.2486	-9993.00
0.6746,0.3254	-10006.97
0.8425,0.1575	-9989.96
0.7417,0.2583	-9997.63
0.7847,0.2153	-9993.25
0.7156,0.2844	-10000.27
0.6899,0.3101	-10007.56
0.7308,0.2692	-9998.92
0.8458,0.1542	-9998.50
0.7409,0.2591	-10003.95
0.7982,0.2018	-9986.20
0.7266,0.2734	-10004.89
0.6803,0.3197	-10007.63
0.7126,0.2874	-10003.99
0.8500,0.1500	-10000.44
0.7462,0.2538	-10004.00
0.7773,0.2227	-9999.64
0.6790,0.3210	-9999.40
0.6376,0.3624	-10008.61
0.7099,0.2901	-10012.07
0.8068,0.1932	-9990.17
0.7258,0.2742	-10002.94
0.7588,0.2412	-9998.45
0.6840,0.3160	-10006.83
0.6461,0.3539	-10011.34
0.6988,0.3012	-10005.86
0.7982,0.2018	-9998.58
0.7113,0.2887	-10000.40
0.7578,0.2422	-10001.88
0.7048,0.2952	-10008.44
0.6206,0.3794	-10012.76
0.6622,0.3378	-10015.99
0.7882,0.2118	-10006.34
0.6997,0.3003	-10002.47
0.7583,0.2417	-9995.02
0.6980,0.3020	-10005.87
0.6231,0.3769	-10014.23
0.7089,0.2911	-10002.25
0.7884,0.2116	-10002.40
0.6922,0.3078	-10009.98
0.6811,0.3189	-10007.62
0.7156,0.2844	-10006.73
0.5743,0.4257	-10012.48
0.6938,0.3062	-10005.10
0.7539,0.2461	-9992.90
0.7093,0.2907	-10012.94
0.6726,0.3274	-10007.01
0.7222,0.2778	-10003.92
0.6474,0.3526	-10008.29
0.6946,0.3054	-10002.62
0.7592,0.2408	-9996.15
0.7085,0.2915	-10005.81
0.6960,0.3040	-10008.38
0.7272,0.2728	-9999.99
0.6809,0.3191	-10005.35
0.7132,0.2868	-10004.90
0.7431,0.2569	-9999.72
0.6649,0.3351	-10011.28
0.7114,0.2886	-10001.30
0.7670,0.2330	-9999.59
0.6844,0.3156	-10009.14
0.7690,0.2310	-10004.41
0.7739,0.2261	-10004.54
0.6726,0.3274	-10007.73
0.6952,0.3048	-10009.20
0.7609,0.2391	-9990.33
0.6759,0.3241	-10011.36
0.7258,0.2742	-10002.94
0.7590,0.2410	-10005.33
0.7064,0.2936	-10007.57
0.6788,0.3212	-10008.40
0.7408,0.2592	-9999.75
0.7286,0.2714	-10005.88
0.7106,0.2894	-10013.00
0.7911,0.2089	-9999.82
0.7330,0.2670	-10007.95
0.7278,0.2722	-10002.93
0.7786,0.2214	-9994.62
0.7525,0.2475	-9998.52
0.7093,0.2907	-10009.38
0.8089,0.1911	-9990.13
0.6992,0.3008	-10002.49
0.7046,0.2954	-10000.61
0.7715,0.2285	-10006.91
0.7314,0.2686	-10003.91
0.7283,0.2717	-10006.87
0.8013,0.1987	-9993.05
0.7281,0.2719	-10007.85
0.6909,0.3091	-10010.77
0.7604,0.2396	-10001.90
0.7711,0.2289	-9998.39
0.7871,0.2129	-10002.37
0.8018,0.1982	-10001.44
0.7623,0.2377	-9997.26
0.7167,0.2833	-10002.10
0.7749,0.2251	-10002.09
0.7036,0.2964	-10004.97
0.8167,0.1833	-9991.52
0.7960,0.2040	-9993.10
0.7514,0.2486	-10000.74
0.6916,0.3084	-10008.36
0.7375,0.2625	-10001.86
0.6782,0.3218	-10006.91
0.8059,0.1941	-10001.57
0.8340,0.1660	-9991.55
0.7557,0.2443	-9995.09
0.7054,0.2946	-10001.46
0.6950,0.3050	-10002.61
0.6858,0.3142	-10006.80
0.7835,0.2165	-9990.70
0.7946,0.2054	-9995.82
0.7394,0.2606	-9999.77
0.6893,0.3107	-10012.34
0.6938,0.3062	-10008.37
0.7528,0.2472	-10000.74
0.7424,0.2576	-10012.43
0.7805,0.2195	-10000.94
0.7502,0.2498	-10007.35
0.6850,0.3150	-10002.15
0.6778,0.3222	-10006.17
0.7696,0.2304	-10003.21
0.7270,0.2730	-10005.87
0.8033,0.1967	-9995.86
0.7666,0.2334	-9998.40
0.6521,0.3479	-10012.55
0.6574,0.3426	-10012.58
0.7923,0.2077	-9994.48
0.7060,0.2940	-10013.71
0.7800,0.2200	-10004.73
0.7868,0.2132	-10006.28
0.6947,0.3053	-10006.73
0.6874,0.3126	-10005.21
0.7774,0.2226	-9998.39
0.6839,0.3161	-10007.60
0.7682,0.2318	-10011.57
0.7801,0.2199	-10006.00
0.6847,0.3153	-10006.82
0.7226,0.2774	-10007.75
0.7636,0.2364	-10006.62
0.7192,0.2808	-10015.22
0.7609,0.2391	-9999.59
0.8201,0.1799	-10002.13
0.7255,0.2745	-10001.97
0.7305,0.2695	-9994.94
0.7896,0.2104	-9995.82
0.7185,0.2815	-10003.94
0.7600,0.2400	-9998.44
0.7525,0.2475	-9997.41
0.8033,0.1967	-10001.49
0.7705,0.2295	-10000.81
0.8390,0.1610	-9986.64
0.7126,0.2874	-10008.53
0.7625,0.2375	-9994.92
0.7652,0.2348	-10003.13
0.7908,0.2092	-10006.46
0.7897,0.2103	-10005.09
0.8222,0.1778	-9993.04
0.7405,0.2595	-10005.00
0.7683,0.2317	-9999.59
0.7346,0.2654	-10004.94
0.7920,0.2080	-9995.82
0.7519,0.2481	-9994.09
0.7894,0.2106	-9994.50
0.7296,0.2704	-10000.93
0.7741,0.2259	-10005.78
0.6917,0.3083	-10002.71
0.8201,0.1799	-9988.48
0.7452,0.2548	-10006.13
0.7997,0.2003	-9997.22
0.7162,0.2838	-10008.59
0.7633,0.2367	-10000.76
0.7092,0.2908	-10003.14
0.8192,0.1808	-9990.01
0.7530,0.2470	-9996.28
0.7925,0.2075	-9991.80
0.7306,0.2694	-10011.89
0.7079,0.2921	-10012.01
0.7373,0.2627	-9992.58
0.7720,0.2280	-9993.51
0.7609,0.2391	-10011.17
0.7836,0.2164	-9998.42
0.7651,0.2349	-9999.59
0.7190,0.2810	-10008.64
0.7432,0.2568	-10007.16
0.7557,0.2443	-10000.74
0.7338,0.2662	-9998.85
0.7352,0.2648	-10001.88
0.7764,0.2236	-9997.14
0.6909,0.3091	-10010.78
0.7319,0.2681	-10003.91
0.7125,0.2875	-10002.18
0.7255,0.2745	-9999.05
0.7567,0.2433	-9993.93
0.8171,0.1829	-9985.54
0.6507,0.3493	-10011.31
0.7827,0.2173	-10000.98
0.7106,0.2894	-10002.21
0.7067,0.2933	-9997.02
0.7374,0.2626	-9998.77
0.8271,0.1729	-9991.52
0.5842,0.4158	-10011.10
0.8077,0.1923	-9995.89
0.7205,0.2795	-10010.56
0.7104,0.2896	-10008.50
0.7728,0.2272	-10010.63
0.8433,0.1567	-9993.33
0.6006,0.3994	-10009.56
0.8225,0.1775	-10003.78
0.7114,0.2886	-10002.20
0.7247,0.2753	-9998.11
0.7672,0.2328	-10005.55
0.8455,0.1545	-9988.28
0.6338,0.3662	-10008.21
0.8417,0.1583	-9998.31
0.7675,0.2325	-10004.37
0.7036,0.2964	-10015.34
0.7770,0.2230	-9994.65
0.8142,0.1858	-9997.45
0.6127,0.3873	-10008.79
0.8365,0.1635	-9991.57
0.7761,0.2239	-9993.42
0.6498,0.3502	-10001.42
0.8252,0.1748	-9991.51
0.7936,0.2064	-9997.17
0.6523,0.3477	-10008.15
0.8022,0.1978	-9995.85
0.7893,0.2107	-9998.46
0.6509,0.3491	-10013.17
0.8108,0.1892	-9995.93
0.7985,0.2015	-9999.96
0.6578,0.3422	-10005.40
0.8298,0.1702	-9993.11
0.7581,0.2419	-9999.60
0.6536,0.3464	-10007.48
0.8345,0.1655	-9996.41
0.8117,0.1883	-9995.94
0.6634,0.3366	-10008.57
0.7957,0.2043	-9984.94
0.7545,0.2455	-10000.74
0.7032,0.2968	-10002.38
0.8194,0.1806	-9999.08
0.7878,0.2122	-9994.51
0.6444,0.3556	-10008.38
0.7983,0.2017	-9995.83
0.7539,0.2461	-9999.62
0.7230,0.2770	-10007.76
0.8226,0.1774	-9996.11
0.7831,0.2169	-9994.56
0.6664,0.3336	-10005.06
0.7980,0.2020	-9998.58
0.7747,0.2253	-10004.56
0.7036,0.2964	-9998.05
0.8289,0.1711	-9991.52
0.7816,0.2184	-9994.58
0.6609,0.3391	-10009.94
0.7976,0.2024	-9999.94
0.7977,0.2023	-9999.94
0.6852,0.3148	-10002.14
0.8257,0.1743	-10005.51
0.7480,0.2520	-9999.67
0.6239,0.3761	-10017.26
0.7686,0.2314	-10008.00
0.8267,0.1733	-9985.27
0.6718,0.3282	-10008.46
0.8406,0.1594	-9989.95
0.7664,0.2336	-10000.78
0.6238,0.3762	-10013.72
0.7649,0.2351	-10006.67
0.8393,0.1607	-9984.99
0.7399,0.2601	-10002.90
0.8251,0.1749	-9988.41
0.7674,0.2326	-9999.59
0.6550,0.3450	-10011.93
0.7524,0.2476	-9999.63
0.8591,0.1409	-9988.36
0.6607,0.3393	-10010.61
0.7967,0.2033	-10008.12
0.7532,0.2468	-10005.20
0.6860,0.3140	-10011.49
0.7931,0.2069	-10001.19
0.8662,0.1338	-9984.72
0.6611,0.3389	-10005.26
0.7786,0.2214	-9997.14
0.7895,0.2105	-9994.50
0.6774,0.3226	-10002.47
0.7903,0.2097	-9991.84
0.8888,0.1112	-9984.91
0.7301,0.2699	-10002.91
0.7726,0.2274	-10000.83
0.7420,0.2580	-9997.62
0.7353,0.2647	-10004.94
0.8225,0.1775	-10000.71
0.8651,0.1349	-9981.00
0.7302,0.2698	-10001.92
0.8004,0.1996	-9991.67
0.6711,0.3289	-10006.32
0.6840,0.3160	-10004.51
0.8353,0.1647	-9996.43
0.8549,0.1451	-9993.64
0.7594,0.2406	-10000.74
0.8018,0.1982	-9998.64
0.7342,0.2658	-9998.84
0.6943,0.3057	-9999.35
0.8203,0.1797	-9999.10
0.8174,0.1826	-9993.02
0.7428,0.2572	-9997.60
0.7826,0.2174	-9992.01
0.7491,0.2509	-10007.31
0.6819,0.3181	-10003.04
0.7809,0.2191	-9994.59
0.8057,0.1943	-10000.14
0.7218,0.2782	-10004.88
0.8008,0.1992	-9997.23
0.7648,0.2352	-10001.95
0.6412,0.3588	-10010.23
0.7824,0.2176	-10000.97
0.8203,0.1797	-9990.00
0.7314,0.2686	-10000.91
0.7596,0.2404	-10000.75
0.7459,0.2541	-10007.22
0.6529,0.3471	-10012.56
0.7869,0.2131	-9999.75
0.8110,0.1890	-9995.93
0.7586,0.2414	-10005.32
0.7703,0.2297	-9998.39
0.7225,0.2775	-10007.75
0.6775,0.3225	-10010.63
0.7772,0.2228	-10003.39
0.7939,0.2061	-9998.52
0.7571,0.2429	-9998.47
0.7808,0.2192	-10009.84
0.7191,0.2809	-10008.64
0.7021,0.2979	-10002.41
0.7612,0.2388	-9991.48
0.7844,0.2156	-10008.76
0.7430,0.2570	-10011.40
0.7174,0.2826	-10003.02
0.7318,0.2682	-10004.91
0.6757,0.3243	-10002.54
0.7488,0.2512	-9999.66
0.7609,0.2391	-10005.38
0.7457,0.2543	-10002.92
0.6997,0.3003	-10008.39
0.7071,0.2929	-10006.70
0.6839,0.3161	-10002.97
0.7414,0.2586	-9995.53
0.7574,0.2426	-10003.02
0.7785,0.2215	-10002.17
0.7026,0.2974	-10003.26
0.7144,0.2856	-10001.22
0.6854,0.3146	-10008.37
0.7338,0.2662	-10006.96
0.7499,0.2501	-10001.85
0.7324,0.2676	-9995.86
0.7363,0.2637	-10010.09
0.6757,0.3243	-10004.75
0.6991,0.3009	-10010.08
0.7183,0.2817	-10005.82
0.7419,0.2581	-9999.73
0.7418,0.2582	-9998.68
0.7338,0.2662	-10004.93
0.7039,0.2961	-10007.56
0.6917,0.3083	-10004.32
0.7435,0.2565	-9995.46
0.8040,0.1960	-10001.50
0.6841,0.3159	-10007.60
0.7396,0.2604	-10002.90
0.6810,0.3190	-10009.90
0.6792,0.3208	-10010.64
0.7474,0.2526	-10001.84
0.8082,0.1918	-9994.46
0.6823,0.3177	-10006.08
0.6831,0.3169	-10003.77
0.6700,0.3300	-10007.77
0.6973,0.3027	-10007.55
0.7457,0.2543	-9995.39
0.7736,0.2264	-10003.30
0.6937,0.3063	-10002.65
0.6536,0.3464	-10017.64
0.6285,0.3715	-10009.50
0.7172,0.2828	-10003.02
0.7521,0.2479	-9996.30
0.7770,0.2230	-10004.63
0.6921,0.3079	-10004.31
0.6526,0.3474	-10004.99
0.6682,0.3318	-10010.60
0.7384,0.2616	-10008.09
0.7324,0.2676	-10009.95
0.7445,0.2555	-9996.50
0.6896,0.3104	-10006.76
0.6808,0.3192	-10006.11
0.6826,0.3174	-10009.91
0.7374,0.2626	-9999.80
0.7151,0.2849	-10003.97
0.6898,0.3102	-10009.96
0.6863,0.3137	-10006.02
0.7297,0.2703	-10003.91
0.6983,0.3017	-10005.87
0.7726,0.2274	-10002.06
0.7280,0.2720	-10001.94
0.7222,0.2778	-10000.10
0.6385,0.3615	-10008.01
0.7098,0.2902	-10003.13
0.7166,0.2834	-10010.45
0.7479,0.2521	-10009.46
0.7372,0.2628	-10005.99
0.7433,0.2567	-10003.97
0.6614,0.3386	-10009.94
0.7002,0.2998	-10009.25
0.7428,0.2572	-9999.72
0.7035,0.2965	-10007.56
0.7404,0.2596	-10006.04
0.7516,0.2484	-10001.85
0.7023,0.2977	-10001.55
0.7056,0.2944	-9999.70
0.7474,0.2526	-10002.93
0.7245,0.2755	-10004.88
0.7219,0.2781	-10006.79
0.7617,0.2383	-10000.75
0.7673,0.2327	-9998.40
0.6922,0.3078	-10006.74
0.7601,0.2399	-9996.13
0.7301,0.2699	-10001.92
0.7601,0.2399	-10003.05
0.7541,0.2459	-10001.86
0.7525,0.2475	-10010.75
0.6538,0.3462	-10010.65
0.7511,0.2489	-10004.06
0.6871,0.3129	-10009.94
0.8130,0.1870	-9997.42
0.7671,0.2329	-10003.17
0.7551,0.2449	-9996.24
0.7307,0.2693	-10000.91
0.7415,0.2585	-10001.85
0.7353,0.2647	-10004.94
0.8251,0.1749	-9989.96
0.7604,0.2396	-9999.59
0.8003,0.1997	-9994.45
0.7303,0.2697	-10017.86
0.7434,0.2566	-9999.72
0.6952,0.3048	-10010.85
0.8281,0.1719	-10007.24
0.7542,0.2458	-10005.22
0.7946,0.2054	-9998.53
0.7240,0.2760	-10006.81
0.7946,0.2054	-9999.88
0.7075,0.2925	-10003.16
0.8438,0.1562	-9993.34
0.7475,0.2525	-10006.18
0.7960,0.2040	-9994.46
0.7177,0.2823	-10002.08
0.8106,0.1894	-10000.29
0.7318,0.2682	-10011.94
0.8191,0.1809	-9986.99
0.7580,0.2420	-9997.32
0.8300,0.1700	-9989.94
0.7433,0.2567	-10005.03
0.7952,0.2048	-9997.18
0.7796,0.2204	-9998.40
0.8137,0.1863	-10001.86
0.7941,0.2059	-9994.47
0.8411,0.1589	-9989.95
0.7647,0.2353	-9994.87
0.8109,0.1891	-10006.12
0.7633,0.2367	-9997.25
0.7961,0.2039	-10001.27
0.7968,0.2032	-9998.56
0.8438,0.1562	-9989.97
0.7398,0.2602	-10002.90
0.8210,0.1790	-9993.04
0.7727,0.2273	-9995.94
0.7943,0.2057	-9999.87
0.8264,0.1736	-9996.20
0.7713,0.2287	-9994.74
0.7551,0.2449	-9998.49
0.8024,0.1976	-9993.05
0.7418,0.2582	-10000.79
0.8085,0.1915	-10000.22
0.8153,0.1847	-9991.53
0.7175,0.2825	-10003.95
0.7835,0.2165	-9999.70
0.7631,0.2369	-10005.44
0.7634,0.2366	-10001.93
0.7732,0.2268	-9998.39
0.8305,0.1695	-9988.35
0.6703,0.3297	-10007.05
0.8066,0.1934	-9994.45
0.7837,0.2163	-9994.56
0.7042,0.2958	-10004.09
0.7940,0.2060	-9993.12
0.8208,0.1792	-9996.08
0.6951,0.3049	-10003.43
0.8156,0.1844	-10000.45
0.8015,0.1985	-9995.84
0.7162,0.2838	-10000.26
0.8240,0.1760	-9988.42
0.8562,0.1438	-9999.04
0.6904,0.3096	-10005.15
0.8231,0.1769	-9999.20
0.8355,0.1645	-9993.19
0.6861,0.3139	-10010.71
0.8017,0.1983	-9991.65
0.8532,0.1468	-9991.83
0.6662,0.3338	-10009.22
0.7936,0.2064	-9997.17
0.8414,0.1586	-9998.30
0.6660,0.3340	-10011.29
0.8338,0.1662	-9988.32
0.8450,0.1550	-9991.68
0.7344,0.2656	-10004.93
0.7982,0.2018	-9993.08
0.8294,0.1706	-9986.78
0.6592,0.3408	-10006.66
0.8350,0.1650	-10001.29
0.8532,0.1468	-9991.83
0.7222,0.2778	-10009.66
0.8350,0.1650	-9999.67
0.8491,0.1509	-9983.11
0.6891,0.3109	-10008.36
0.7923,0.2077	-10006.53
0.8008,0.1992	-10005.58
0.6976,0.3024	-10007.55
0.8302,0.1698	-9989.94
0.8521,0.1479	-9986.55
0.7243,0.2757	-10005.85
0.8037,0.1963	-9998.68
0.7987,0.2013	-9994.45
0.6451,0.3549	-10009.56
0.8536,0.1464	-9988.31
0.8683,0.1317	-9986.60
0.7950,0.2050	-9995.82
0.7854,0.2146	-9997.13
0.8018,0.1982	-9998.64
0.6436,0.3564	-10009.59
0.8123,0.1877	-9995.94
0.8418,0.1582	-9984.94
0.7913,0.2087	-10002.48
0.8013,0.1987	-9987.48
0.8066,0.1934	-9990.17
0.6684,0.3316	-10011.30
0.7833,0.2167	-9999.70
0.8525,0.1475	-9997.08
0.7968,0.2032	-9984.89
0.8010,0.1990	-9995.84
0.7867,0.2133	-10003.66
0.6602,0.3398	-10006.63
0.7698,0.2302	-10000.80
0.8521,0.1479	-9983.05
0.7517,0.2483	-9997.42
0.7590,0.2410	-10000.74
0.8061,0.1939	-9994.45
0.6246,0.3754	-10012.19
0.7862,0.2138	-9993.23
0.8523,0.1477	-9997.07
0.8000,0.2000	-9998.61
0.7289,0.2711	-10001.93
0.8621,0.1379	-9988.39
0.6394,0.3606	-10010.84
0.7322,0.2678	-9996.87
0.8474,0.1526	-9986.57
0.8081,0.1919	-9993.02
0.7170,0.2830	-10011.39
0.8462,0.1538	-9991.69
0.6162,0.3838	-10011.90
0.7566,0.2434	-9995.07
0.8181,0.1819	-9991.52
0.7805,0.2195	-9998.40
0.6573,0.3427	-10008.67
0.8628,0.1372	-9986.57
0.6127,0.3873	-10009.71
0.7730,0.2270	-9995.94
0.8502,0.1498	-9986.56
0.7251,0.2749	-10001.97
0.6563,0.3437	-10015.16
0.8670,0.1330	-9990.34
0.6479,0.3521	-10010.71
0.7445,0.2555	-10000.77
0.8500,0.1500	-9995.23
0.7193,0.2807	-10010.52
0.6589,0.3411	-10006.67
0.8426,0.1574	-9988.29
0.6626,0.3374	-10009.25
0.6974,0.3026	-10011.72
0.8670,0.1330	-9986.59
0.7084,0.2916	-10005.81
0.6731,0.3269	-10009.89
0.8253,0.1747	-9999.28
0.6707,0.3293	-10008.47
0.7017,0.2983	-10003.28
0.8760,0.1240	-9998.44
0.7509,0.2491	-9999.64
0.6680,0.3320	-10007.10
0.8023,0.1977	-9997.25
0.6820,0.3180	-10007.61
0.7261,0.2739	-10002.94
0.8916,0.1084	-9993.39
0.7304,0.2696	-10007.90
0.7130,0.2870	-10004.90
0.8088,0.1912	-10003.11
0.7406,0.2594	-10006.05
0.6842,0.3158	-10000.64
0.8252,0.1748	-9996.17
0.7235,0.2765	-10006.80
0.7482,0.2518	-10007.29
0.8488,0.1512	-9996.91
0.7549,0.2451	-10009.74
0.6166,0.3834	-10011.89
0.8517,0.1483	-9991.80
0.7473,0.2527	-10002.93
0.7322,0.2678	-9995.87
0.8498,0.1502	-9995.22
0.7143,0.2857	-10008.56
0.6381,0.3619	-10008.03
0.8713,0.1287	-9986.64
0.7546,0.2454	-10005.23
0.6800,0.3200	-10001.60
0.8596,0.1404	-10001.05
0.7361,0.2639	-10003.92
0.6575,0.3425	-10007.37
0.8898,0.1102	-9987.02
0.6827,0.3173	-10003.01
0.7026,0.2974	-10003.26
0.8440,0.1560	-9989.97
0.7230,0.2770	-9998.17
0.6823,0.3177	-10004.56
0.8958,0.1042	-9987.21
0.6724,0.3276	-10008.45
0.6990,0.3010	-10005.02
0.8403,0.1597	-9996.59
0.7204,0.2796	-10002.04
0.7146,0.2854	-10002.14
0.8390,0.1610	-9993.25
0.6175,0.3825	-10009.47
0.7420,0.2580	-9998.68
0.7945,0.2055	-9994.47
0.6906,0.3094	-10008.36
0.7323,0.2677	-10005.92
0.8666,0.1334	-9992.21
0.7241,0.2759	-10003.92
0.7041,0.2959	-10004.96
0.7921,0.2079	-10003.84
0.7271,0.2729	-10008.81
0.7528,0.2472	-9998.51
0.8740,0.1260	-9986.67
0.7766,0.2234	-10000.88
0.6727,0.3273	-10007.72
0.7523,0.2477	-9997.41
0.6873,0.3127	-10005.21
0.7352,0.2648	-9999.84
0.8806,0.1194	-9990.78
0.7557,0.2443	-10005.26
0.6728,0.3272	-10003.40
0.7793,0.2207	-9998.40
0.6863,0.3137	-10004.45
0.7188,0.2812	-10006.76
0.8614,0.1386	-9984.73
0.7525,0.2475	-9994.07
0.7269,0.2731	-10000.97
0.8130,0.1870	-9994.48
0.6755,0.3245	-10006.22
0.7710,0.2290	-9998.39
0.8673,0.1327	-9995.98
0.8098,0.1902	-9994.46
0.7032,0.2968	-9999.80
0.8040,0.1960	-9993.04
0.7042,0.2958	-10007.56
0.7698,0.2302	-9993.56
0.8357,0.1643	-9991.56
0.7848,0.2152	-9999.72
0.6633,0.3367	-10011.96
0.7780,0.2220	-10003.41
0.6899,0.3101	-10005.96
0.7474,0.2526	-10004.01
0.8288,0.1712	-9989.94
0.7532,0.2468	-10006.32
0.6858,0.3142	-10006.80
0.7942,0.2058	-9997.17
0.6368,0.3632	-10009.77
0.6870,0.3130	-10008.36
0.8342,0.1658	-9993.17
0.7177,0.2823	-10008.61
0.7305,0.2695	-10009.89
0.7905,0.2095	-9993.17
0.6469,0.3531	-10011.94
0.6666,0.3334	-10009.90
0.8154,0.1846	-9988.56
0.7337,0.2663	-10006.96
0.6237,0.3763	-10008.67
0.7538,0.2462	-10006.33
0.6428,0.3572	-10010.79
0.6867,0.3133	-10005.22
0.7836,0.2164	-9995.84
0.7712,0.2288	-9998.39
0.6663,0.3337	-10008.52
0.7089,0.2911	-10007.59
0.6662,0.3338	-10004.38
0.7356,0.2644	-9999.83
0.7800,0.2200	-10004.73
0.8033,0.1967	-9991.63
0.6306,0.3694	-10011.02
0.7094,0.2906	-10007.59
0.6710,0.3290	-10005.61
0.7247,0.2753	-10007.79
0.7904,0.2096	-9995.82
0.7608,0.2392	-9994.96
0.6165,0.3835	-10009.04
0.6903,0.3097	-10003.55
0.6773,0.3227	-10010.63
0.7577,0.2423	-9998.46
0.7721,0.2279	-9998.39
0.7518,0.2482	-9995.20
0.5925,0.4075	-10014.63
0.7135,0.2865	-10005.81
0.6914,0.3086	-10006.75
0.7715,0.2285	-10006.90
0.7128,0.2872	-10005.81
0.7737,0.2263	-9997.16
0.6136,0.3864	-10008.74
0.7244,0.2756	-10008.75
0.6372,0.3628	-10010.32
0.7547,0.2453	-10000.74
0.7080,0.2920	-10003.16
0.7616,0.2384	-9996.11
0.6008,0.3992	-10010.77
0.7031,0.2969	-10004.11
0.6547,0.3453	-10010.01
0.7675,0.2325	-10001.98
0.6914,0.3086	-10004.33
0.7757,0.2243	-9994.67
0.6163,0.3837	-10010.47
0.7375,0.2625	-9998.76
0.6448,0.3552	-10016.12
0.7267,0.2733	-10000.00
0.7171,0.2829	-10003.95
0.7618,0.2382	-10005.40
0.6340,0.3660	-10008.75
0.7423,0.2577	-10001.85
0.6094,0.3906	-10012.99
0.6732,0.3268	-10008.44
0.7065,0.2935	-10002.30
0.7490,0.2510	-10001.84
0.6436,0.3564	-10012.55
0.7606,0.2394	-10000.75
0.5992,0.4008	-10008.86
0.6963,0.3037	-10010.04
0.7142,0.2858	-10001.23
0.7668,0.2332	-10003.16
0.6457,0.3543	-10004.74
0.7379,0.2621	-9998.76
0.6072,0.3928	-10012.61
0.6964,0.3036	-10001.73
0.7146,0.2854	-10001.22
0.7730,0.2270	-10004.51
0.6077,0.3923	-10013.04
0.7129,0.2871	-10001.26
0.6239,0.3761	-10013.72
0.7224,0.2776	-10002.01
0.7390,0.2610	-10006.02
0.7640,0.2360	-9998.41
0.6217,0.3783	-10014.23
0.6968,0.3032	-10008.38
0.6265,0.3735	-10010.09
0.7471,0.2529	-10000.76
0.7608,0.2392	-10003.06
0.6838,0.3162	-10002.97
0.6017,0.3983	-10013.61
0.7062,0.2938	-10001.44
0.6146,0.3854	-10012.41
0.7143,0.2857	-10002.14
0.7352,0.2648	-10003.92
0.7057,0.2943	-10004.07
0.6158,0.3842	-10011.91
0.6915,0.3085	-10007.56
0.6335,0.3665	-10008.77
0.7504,0.2496	-10007.35
0.7629,0.2371	-10005.43
0.7252,0.2748	-10002.94
0.6061,0.3939	-10010.49
0.6633,0.3367	-10005.86
0.6682,0.3318	-10007.80
0.7663,0.2337	-9996.03
0.7464,0.2536	-9999.68
0.7558,0.2442	-10006.39
0.6267,0.3733	-10010.60
0.6590,0.3410	-10007.32
0.6937,0.3063	-10006.73
0.7363,0.2637	-10009.06
0.7707,0.2293	-9988.69
0.7634,0.2366	-10001.93
0.6463,0.3537	-10008.32
0.6826,0.3174	-10006.08
0.7109,0.2891	-10007.61
0.7691,0.2309	-10003.21
0.7647,0.2353	-9998.41
0.7860,0.2140	-10003.64
0.6780,0.3220	-10007.66
0.7271,0.2729	-10002.93
0.7151,0.2849	-10008.57
0.7483,0.2517	-9999.66
0.7142,0.2858	-10004.89
0.7800,0.2200	-10000.93
0.7318,0.2682	-10005.92
0.7434,0.2566	-10000.78
0.6759,0.3241	-10007.68
0.7433,0.2567	-10009.29
0.6958,0.3042	-10003.41
0.7304,0.2696	-10000.92
0.7808,0.2192	-9997.13
0.7682,0.2318	-9999.59
0.7397,0.2603	-10002.90
0.7300,0.2700	-10002.91
0.6610,0.3390	-10008.61
0.7621,0.2379	-9996.10
0.7722,0.2278	-9999.61
0.7807,0.2193	-9995.86
0.7746,0.2254	-10005.79
0.7539,0.2461	-10001.86
0.6793,0.3207	-10012.90
0.7905,0.2095	-10002.46
0.7749,0.2251	-10004.57
0.7613,0.2387	-10004.23
0.8069,0.1931	-9994.45
0.7333,0.2667	-10002.90
0.6831,0.3169	-10004.53
0.7925,0.2075	-10003.86
0.7535,0.2465	-10007.44
0.7435,0.2565	-9999.72
0.8371,0.1629	-9994.85
0.7382,0.2618	-9997.71
0.6634,0.3366	-10009.24
0.7858,0.2142	-9994.53
0.7546,0.2454	-9994.00
0.7910,0.2090	-9998.48
0.8342,0.1658	-9996.40
0.7571,0.2429	-10003.01
0.6208,0.3792	-10013.74
0.7559,0.2441	-10007.52
0.7343,0.2657	-10001.88
0.7747,0.2253	-10000.86
0.8241,0.1759	-10002.32
0.7388,0.2612	-10001.86
0.6557,0.3443	-10009.35
0.7568,0.2432	-10007.55
0.7566,0.2434	-9996.20
0.7771,0.2229	-9994.64
0.8357,0.1643	-9986.68
0.7668,0.2332	-9997.21
0.6746,0.3254	-10009.89
0.7650,0.2350	-10006.67
0.7920,0.2080	-9995.82
0.7282,0.2718	-10003.91
0.8299,0.1701	-9996.28
0.7690,0.2310	-10006.81
0.7158,0.2842	-10001.19
0.7744,0.2256	-9997.15
0.8193,0.1807	-9993.03
0.7548,0.2452	-9998.49
0.8446,0.1554	-9993.36
0.7690,0.2310	-10002.00
0.6844,0.3156	-10002.18
0.7744,0.2256	-10000.85
0.8619,0.1381	-9982.90
0.7251,0.2749	-10009.73
0.8763,0.1237	-9988.67
0.7294,0.2706	-10002.92
0.6817,0.3183	-10008.38
0.7884,0.2116	-9999.77
0.8456,0.1544	-9986.58
0.7214,0.2786	-10005.83
0.8654,0.1346	-9990.30
0.7775,0.2225	-10007.15
0.7054,0.2946	-10005.82
0.7708,0.2292	-9995.96
0.8445,0.1555	-10005.20
0.6599,0.3401	-10010.61
0.8655,0.1345	-9984.72
0.7825,0.2175	-9995.85
0.7509,0.2491	-10005.16
0.7789,0.2211	-9994.62
0.8596,0.1404	-9982.93
0.7411,0.2589	-10001.85
0.8245,0.1755	-9991.51
0.7727,0.2273	-9999.61
0.7629,0.2371	-10000.76
0.7912,0.2088	-9994.49
0.8621,0.1379	-9997.56
0.7676,0.2324	-10005.56
0.8042,0.1958	-10000.10
0.7897,0.2103	-10001.12
0.7748,0.2252	-10003.33
0.7828,0.2172	-10007.39
0.8783,0.1217	-9992.67
0.7816,0.2184	-9995.86
0.7776,0.2224	-9999.64
0.7291,0.2709	-10002.92
0.7892,0.2108	-9999.78
0.8082,0.1918	-9995.90
0.8825,0.1175	-9982.79
0.7952,0.2048	-9991.75
0.7485,0.2515	-10004.02
0.7343,0.2657	-9999.85
0.7931,0.2069	-10003.88
0.8109,0.1891	-9985.73
0.8702,0.1298	-9992.33
0.7549,0.2451	-10001.86
0.7952,0.2048	-10005.32
0.7369,0.2631	-10005.99
0.8234,0.1766	-9999.21
0.8051,0.1949	-9998.71
0.8867,0.1133	-9988.99
0.7734,0.2266	-10006.98
0.8067,0.1933	-9994.45
0.7144,0.2856	-10007.64
0.8072,0.1928	-9991.59
0.8141,0.1859	-9995.97
0.8964,0.1036	-9982.92
0.7927,0.2073	-9999.84
0.8125,0.1875	-10006.21
0.7352,0.2648	-10003.92
0.8550,0.1450	-9983.00
0.7979,0.2021	-9998.57
0.9031,0.0969	-9983.04
0.7683,0.2317	-9998.39
0.8197,0.1803	-9993.03
0.7368,0.2632	-10002.90
0.8287,0.1713	-9985.22
0.7900,0.2100	-10010.39
0.8816,0.1184	-9990.82
0.7483,0.2517	-10006.20
0.8353,0.1647	-9991.56
0.7220,0.2780	-10005.83
0.7957,0.2043	-10006.70
0.7857,0.2143	-9999.73
0.8745,0.1255	-10000.27
0.7772,0.2228	-9995.89
0.8196,0.1804	-9993.03
0.7287,0.2713	-10002.92
0.7764,0.2236	-10002.12
0.7727,0.2273	-9995.94
0.8732,0.1268	-9990.52
0.7690,0.2310	-9997.19
0.7882,0.2118	-10003.71
0.7671,0.2329	-9996.01
0.7857,0.2143	-9999.73
0.7670,0.2330	-9992.44
0.8962,0.1038	-9980.76
0.7618,0.2382	-9992.61
0.7946,0.2054	-9991.76
0.7855,0.2145	-9994.54
0.7419,0.2581	-9994.46
0.7947,0.2053	-9989.05
0.8815,0.1185	-9994.83
0.7879,0.2121	-9994.51
0.8109,0.1891	-9998.84
0.7894,0.2106	-9994.50
0.7351,0.2649	-9999.84
0.8203,0.1797	-9991.51
0.8841,0.1159	-9992.96
0.7805,0.2195	-9998.40
0.7874,0.2126	-9994.52
0.7657,0.2343	-9994.85
0.7811,0.2189	-10000.95
0.8233,0.1767	-9988.43
0.8766,0.1234	-9992.60
0.7848,0.2152	-9991.96
0.7828,0.2172	-10003.54
0.8024,0.1976	-9988.84
0.7930,0.2070	-9999.85
0.8107,0.1893	-10000.29
0.8534,0.1466	-9991.83
0.7654,0.2346	-10003.14
0.7878,0.2122	-9999.76
0.7966,0.2034	-9990.36
