#isoforms=['ENSG00000211445.SE.0.A.up_ENSG00000211445.SE.0.A.SE1_ENSG00000211445.SE.0.A.dn','ENSG00000211445.SE.0.B.up_ENSG00000211445.SE.0.B.dn']	exon_lens=('ENSG00000211445.SE.0.A.up',136),('ENSG00000211445.SE.0.A.SE1',426),('ENSG00000211445.SE.0.A.dn',154),('ENSG00000211445.SE.0.B.up',179),('ENSG00000211445.SE.0.B.dn',154)	iters=5000	burn_in=500	lag=10	percent_accept=91.36	proposal_type=drift	counts=(0,0):550,(0,1):630,(1,0):14,(1,1):570	assigned_counts=0:17,1:1197	chrom=chr5	strand=+	mRNA_starts=151020606,151020563	mRNA_ends=151025493,151025493
sampled_psi	log_score
0.0076,0.9924	-6838.00
0.0083,0.9917	-6843.21
0.0032,0.9968	-6818.13
0.0059,0.9941	-6827.41
0.0048,0.9952	-6832.97
0.0063,0.9937	-6827.51
0.0112,0.9888	-6836.99
0.0096,0.9904	-6839.53
0.0027,0.9973	-6819.26
0.0057,0.9943	-6822.24
0.0048,0.9952	-6822.28
0.0055,0.9945	-6822.21
0.0107,0.9893	-6867.95
0.0103,0.9897	-6840.36
0.0028,0.9972	-6818.91
0.0065,0.9935	-6822.54
0.0044,0.9956	-6811.60
0.0067,0.9933	-6827.66
0.0093,0.9907	-6848.63
0.0101,0.9899	-6830.99
0.0030,0.9970	-6812.79
0.0063,0.9937	-6822.46
0.0048,0.9952	-6832.92
0.0055,0.9945	-6837.78
0.0096,0.9904	-6825.67
0.0088,0.9912	-6838.83
0.0031,0.9969	-6829.87
0.0053,0.9947	-6822.19
0.0058,0.9942	-6817.12
0.0054,0.9946	-6811.75
0.0091,0.9909	-6834.43
0.0090,0.9910	-6829.63
0.0027,0.9973	-6831.04
0.0069,0.9931	-6827.76
0.0056,0.9944	-6842.97
0.0065,0.9935	-6832.62
0.0092,0.9908	-6834.52
0.0074,0.9926	-6818.29
0.0031,0.9969	-6824.23
0.0070,0.9930	-6827.84
0.0058,0.9942	-6822.26
0.0064,0.9936	-6832.58
0.0077,0.9923	-6842.88
0.0085,0.9915	-6824.34
0.0034,0.9966	-6840.57
0.0074,0.9926	-6823.19
0.0057,0.9943	-6827.40
0.0084,0.9916	-6833.73
0.0094,0.9906	-6853.34
0.0076,0.9924	-6847.74
0.0038,0.9962	-6822.97
0.0075,0.9925	-6842.82
0.0046,0.9954	-6822.34
0.0089,0.9911	-6834.18
0.0081,0.9919	-6843.10
0.0085,0.9915	-6848.08
0.0030,0.9970	-6812.74
0.0076,0.9924	-6818.50
0.0046,0.9954	-6827.71
0.0079,0.9921	-6838.13
0.0080,0.9920	-6828.53
0.0089,0.9911	-6848.30
0.0028,0.9972	-6819.08
0.0079,0.9921	-6823.67
0.0048,0.9952	-6832.93
0.0065,0.9935	-6832.61
0.0071,0.9929	-6842.72
0.0079,0.9921	-6838.17
0.0039,0.9961	-6822.84
0.0080,0.9920	-6843.02
0.0045,0.9955	-6854.74
0.0068,0.9932	-6832.70
0.0069,0.9931	-6837.72
0.0083,0.9917	-6847.99
0.0037,0.9963	-6823.11
0.0089,0.9911	-6867.17
0.0049,0.9951	-6822.23
0.0071,0.9929	-6847.65
0.0059,0.9941	-6827.42
0.0090,0.9910	-6853.10
0.0047,0.9953	-6816.96
0.0099,0.9901	-6835.34
0.0055,0.9945	-6832.61
0.0088,0.9912	-6834.09
0.0077,0.9923	-6833.21
0.0090,0.9910	-6820.15
0.0053,0.9947	-6827.43
0.0086,0.9914	-6824.39
0.0067,0.9933	-6827.67
0.0093,0.9907	-6834.60
0.0071,0.9929	-6827.86
0.0077,0.9923	-6833.16
0.0054,0.9946	-6832.64
0.0075,0.9925	-6833.04
0.0058,0.9942	-6827.41
0.0088,0.9912	-6843.55
0.0066,0.9934	-6817.61
0.0087,0.9913	-6834.02
0.0056,0.9944	-6822.22
0.0080,0.9920	-6833.38
0.0064,0.9936	-6817.46
0.0071,0.9929	-6842.72
0.0073,0.9927	-6852.59
0.0092,0.9908	-6829.78
0.0051,0.9949	-6816.94
0.0070,0.9930	-6857.57
0.0049,0.9951	-6832.86
0.0080,0.9920	-6838.20
0.0079,0.9921	-6833.29
0.0087,0.9913	-6871.88
0.0062,0.9938	-6817.30
0.0086,0.9914	-6824.41
0.0058,0.9942	-6837.69
0.0079,0.9921	-6818.79
0.0083,0.9917	-6833.64
0.0078,0.9922	-6823.54
0.0065,0.9935	-6837.64
0.0068,0.9932	-6842.67
0.0059,0.9941	-6837.67
0.0075,0.9925	-6828.14
0.0105,0.9895	-6831.48
0.0094,0.9906	-6834.75
0.0063,0.9937	-6832.57
0.0066,0.9934	-6822.59
0.0064,0.9936	-6827.55
0.0071,0.9929	-6827.87
0.0116,0.9884	-6864.25
0.0095,0.9905	-6844.12
0.0057,0.9943	-6832.56
0.0070,0.9930	-6832.79
0.0075,0.9925	-6837.92
0.0067,0.9933	-6832.66
0.0100,0.9900	-6840.04
0.0095,0.9905	-6839.42
0.0060,0.9940	-6837.65
0.0071,0.9929	-6842.72
0.0060,0.9940	-6837.65
0.0071,0.9929	-6822.97
0.0083,0.9917	-6838.44
0.0102,0.9898	-6835.69
0.0047,0.9953	-6827.68
0.0066,0.9934	-6827.64
0.0073,0.9927	-6837.84
0.0071,0.9929	-6827.91
0.0102,0.9898	-6826.52
0.0112,0.9888	-6845.97
0.0057,0.9943	-6822.24
0.0060,0.9940	-6822.31
0.0089,0.9911	-6848.30
0.0081,0.9919	-6847.92
0.0078,0.9922	-6823.56
0.0091,0.9909	-6824.96
0.0048,0.9952	-6827.60
0.0066,0.9934	-6832.64
0.0084,0.9916	-6857.59
0.0061,0.9939	-6832.55
0.0081,0.9919	-6823.81
0.0089,0.9911	-6834.19
0.0054,0.9946	-6827.42
0.0059,0.9941	-6822.30
0.0077,0.9923	-6828.31
0.0074,0.9926	-6847.69
0.0081,0.9919	-6828.64
0.0085,0.9915	-6833.83
0.0062,0.9938	-6832.55
0.0060,0.9940	-6827.42
0.0054,0.9946	-6816.98
0.0068,0.9932	-6812.80
0.0079,0.9921	-6847.83
0.0099,0.9901	-6839.92
0.0046,0.9954	-6822.34
0.0060,0.9940	-6832.54
0.0057,0.9943	-6848.02
0.0072,0.9928	-6842.73
0.0083,0.9917	-6824.09
0.0087,0.9913	-6829.28
0.0039,0.9961	-6817.32
0.0070,0.9930	-6827.84
0.0061,0.9939	-6822.35
0.0066,0.9934	-6827.61
0.0071,0.9929	-6847.66
0.0087,0.9913	-6838.77
0.0039,0.9961	-6817.31
0.0063,0.9937	-6822.43
0.0047,0.9953	-6832.98
0.0059,0.9941	-6822.28
0.0067,0.9933	-6837.68
0.0088,0.9912	-6857.69
0.0042,0.9958	-6817.15
0.0073,0.9927	-6837.84
0.0046,0.9954	-6816.98
0.0055,0.9945	-6832.59
0.0073,0.9927	-6837.85
0.0074,0.9926	-6833.00
0.0048,0.9952	-6827.62
0.0078,0.9922	-6823.57
0.0042,0.9958	-6828.09
0.0057,0.9943	-6827.40
0.0096,0.9904	-6830.36
0.0074,0.9926	-6832.96
0.0054,0.9946	-6822.20
0.0091,0.9909	-6829.75
0.0042,0.9958	-6817.14
0.0043,0.9957	-6822.55
0.0078,0.9922	-6857.48
0.0064,0.9936	-6837.63
0.0054,0.9946	-6843.05
0.0090,0.9910	-6824.88
0.0051,0.9949	-6822.21
0.0044,0.9956	-6838.68
0.0084,0.9916	-6838.49
0.0050,0.9950	-6832.80
0.0045,0.9955	-6816.99
0.0100,0.9900	-6835.37
0.0046,0.9954	-6816.97
0.0039,0.9961	-6828.43
0.0082,0.9918	-6862.33
0.0055,0.9945	-6827.40
0.0046,0.9954	-6833.11
0.0098,0.9902	-6848.98
0.0061,0.9939	-6827.46
0.0049,0.9951	-6811.61
0.0093,0.9907	-6853.29
0.0045,0.9955	-6827.77
0.0045,0.9955	-6817.01
0.0093,0.9907	-6862.61
0.0065,0.9935	-6822.54
0.0051,0.9949	-6832.76
0.0073,0.9927	-6832.92
0.0045,0.9955	-6838.59
0.0051,0.9949	-6816.94
0.0078,0.9922	-6828.40
0.0076,0.9924	-6818.50
0.0061,0.9939	-6832.55
0.0076,0.9924	-6842.88
0.0040,0.9960	-6828.35
0.0049,0.9951	-6822.24
0.0068,0.9932	-6847.66
0.0088,0.9912	-6819.88
0.0074,0.9926	-6837.88
0.0075,0.9925	-6828.14
0.0035,0.9965	-6823.43
0.0051,0.9949	-6838.00
0.0077,0.9923	-6828.33
0.0097,0.9903	-6839.67
0.0058,0.9942	-6827.40
0.0073,0.9927	-6818.23
0.0037,0.9963	-6834.28
0.0065,0.9935	-6817.52
0.0071,0.9929	-6822.93
0.0083,0.9917	-6824.08
0.0069,0.9931	-6832.74
0.0066,0.9934	-6832.63
0.0041,0.9959	-6844.69
0.0052,0.9948	-6816.94
0.0058,0.9942	-6842.85
0.0082,0.9918	-6828.74
0.0078,0.9922	-6828.42
0.0067,0.9933	-6832.66
0.0032,0.9968	-6823.85
0.0067,0.9933	-6812.65
0.0071,0.9929	-6852.59
0.0088,0.9912	-6843.57
0.0080,0.9920	-6828.56
0.0065,0.9935	-6827.56
0.0029,0.9971	-6830.44
0.0066,0.9934	-6832.64
0.0069,0.9931	-6837.72
0.0071,0.9929	-6852.60
0.0099,0.9901	-6849.15
0.0075,0.9925	-6828.18
0.0034,0.9966	-6817.94
0.0067,0.9933	-6832.69
0.0069,0.9931	-6837.70
0.0069,0.9931	-6827.79
0.0080,0.9920	-6838.19
0.0069,0.9931	-6847.65
0.0042,0.9958	-6828.10
0.0079,0.9921	-6828.49
0.0061,0.9939	-6817.28
0.0094,0.9906	-6844.01
0.0069,0.9931	-6817.83
0.0072,0.9928	-6847.66
0.0040,0.9960	-6822.75
0.0071,0.9929	-6827.91
0.0052,0.9948	-6827.45
0.0091,0.9909	-6839.08
0.0064,0.9936	-6827.53
0.0081,0.9919	-6828.64
0.0040,0.9960	-6828.25
0.0066,0.9934	-6817.58
0.0054,0.9946	-6837.83
0.0079,0.9921	-6833.31
0.0064,0.9936	-6817.46
0.0081,0.9919	-6857.51
0.0038,0.9962	-6817.42
0.0066,0.9934	-6852.69
0.0073,0.9927	-6832.95
0.0075,0.9925	-6847.71
0.0059,0.9941	-6817.15
0.0086,0.9914	-6843.39
0.0039,0.9961	-6817.35
0.0069,0.9931	-6842.68
0.0071,0.9929	-6847.65
0.0063,0.9937	-6822.44
0.0059,0.9941	-6827.42
0.0094,0.9906	-6862.64
0.0041,0.9959	-6817.20
0.0077,0.9923	-6838.05
0.0058,0.9942	-6837.70
0.0076,0.9924	-6833.11
0.0065,0.9935	-6837.64
0.0074,0.9926	-6832.97
0.0054,0.9946	-6832.64
0.0084,0.9916	-6833.77
0.0055,0.9945	-6837.78
0.0079,0.9921	-6847.84
0.0073,0.9927	-6842.75
0.0076,0.9924	-6837.97
0.0050,0.9950	-6822.22
0.0077,0.9923	-6847.76
0.0058,0.9942	-6827.40
0.0075,0.9925	-6852.60
0.0061,0.9939	-6822.38
0.0058,0.9942	-6837.69
0.0064,0.9936	-6837.63
0.0069,0.9931	-6822.80
0.0053,0.9947	-6837.90
0.0065,0.9935	-6822.55
0.0055,0.9945	-6832.59
0.0052,0.9948	-6832.72
0.0065,0.9935	-6827.56
0.0086,0.9914	-6833.91
0.0050,0.9950	-6822.22
0.0066,0.9934	-6827.63
0.0049,0.9951	-6827.54
0.0051,0.9949	-6822.21
0.0061,0.9939	-6832.55
0.0077,0.9923	-6842.89
0.0052,0.9948	-6832.71
0.0049,0.9951	-6827.56
0.0057,0.9943	-6822.24
0.0049,0.9951	-6843.54
0.0057,0.9943	-6827.40
0.0052,0.9948	-6822.20
0.0064,0.9936	-6822.50
0.0059,0.9941	-6832.54
0.0048,0.9952	-6827.59
0.0045,0.9955	-6822.39
0.0051,0.9949	-6838.05
0.0058,0.9942	-6827.40
0.0067,0.9933	-6832.68
0.0054,0.9946	-6827.41
0.0044,0.9956	-6827.86
0.0046,0.9954	-6816.98
0.0068,0.9932	-6832.69
0.0061,0.9939	-6827.44
0.0060,0.9940	-6832.54
0.0054,0.9946	-6832.62
0.0039,0.9961	-6817.33
0.0041,0.9959	-6828.21
0.0057,0.9943	-6832.56
0.0058,0.9942	-6842.83
0.0061,0.9939	-6842.74
0.0064,0.9936	-6827.53
0.0036,0.9964	-6823.30
0.0041,0.9959	-6822.64
0.0051,0.9949	-6838.01
0.0068,0.9932	-6842.67
0.0074,0.9926	-6852.59
0.0062,0.9938	-6827.47
0.0039,0.9961	-6822.92
0.0048,0.9952	-6822.27
0.0063,0.9937	-6827.50
0.0088,0.9912	-6829.37
0.0068,0.9932	-6837.69
0.0059,0.9941	-6837.68
0.0045,0.9955	-6827.80
0.0058,0.9942	-6848.01
0.0057,0.9943	-6827.40
0.0099,0.9901	-6830.66
0.0059,0.9941	-6837.67
0.0059,0.9941	-6832.54
0.0055,0.9945	-6827.40
0.0047,0.9953	-6838.42
0.0040,0.9960	-6850.40
0.0067,0.9933	-6837.67
0.0055,0.9945	-6822.21
0.0066,0.9934	-6827.62
0.0055,0.9945	-6822.21
0.0059,0.9941	-6827.42
0.0036,0.9964	-6817.58
0.0065,0.9935	-6832.61
0.0069,0.9931	-6847.65
0.0070,0.9930	-6837.74
0.0048,0.9952	-6843.63
0.0057,0.9943	-6827.40
0.0046,0.9954	-6816.96
0.0056,0.9944	-6822.23
0.0080,0.9920	-6828.54
0.0074,0.9926	-6823.20
0.0056,0.9944	-6832.57
0.0053,0.9947	-6832.67
0.0051,0.9949	-6832.76
0.0046,0.9954	-6811.59
0.0070,0.9930	-6847.65
0.0069,0.9931	-6827.79
0.0063,0.9937	-6817.39
0.0051,0.9949	-6816.93
0.0051,0.9949	-6838.06
0.0060,0.9940	-6827.44
0.0055,0.9945	-6817.02
0.0068,0.9932	-6847.66
0.0071,0.9929	-6832.82
0.0045,0.9955	-6822.37
0.0042,0.9958	-6822.58
0.0079,0.9921	-6833.35
0.0064,0.9936	-6827.55
0.0075,0.9925	-6847.71
0.0053,0.9947	-6822.19
0.0041,0.9959	-6833.61
0.0039,0.9961	-6817.33
0.0067,0.9933	-6832.67
0.0069,0.9931	-6842.68
0.0078,0.9922	-6862.33
0.0050,0.9950	-6827.53
0.0038,0.9962	-6817.40
0.0036,0.9964	-6823.21
0.0069,0.9931	-6832.73
0.0071,0.9929	-6827.92
0.0077,0.9923	-6828.35
0.0048,0.9952	-6816.94
0.0045,0.9955	-6822.38
0.0038,0.9962	-6823.01
0.0068,0.9932	-6837.68
0.0078,0.9922	-6838.12
0.0049,0.9951	-6822.24
0.0033,0.9967	-6823.76
0.0047,0.9953	-6833.02
0.0033,0.9967	-6818.01
0.0076,0.9924	-6828.25
0.0081,0.9919	-6847.90
0.0043,0.9957	-6822.50
0.0033,0.9967	-6812.32
0.0037,0.9963	-6823.08
0.0032,0.9968	-6812.45
0.0057,0.9943	-6848.02
0.0092,0.9908	-6825.18
0.0049,0.9951	-6832.84
0.0043,0.9957	-6817.07
0.0039,0.9961	-6828.42
0.0033,0.9967	-6823.74
0.0063,0.9937	-6837.63
0.0091,0.9909	-6834.38
0.0051,0.9949	-6816.93
0.0034,0.9966	-6823.59
0.0039,0.9961	-6822.93
0.0033,0.9967	-6823.73
0.0065,0.9935	-6842.67
0.0103,0.9897	-6854.00
0.0050,0.9950	-6811.64
0.0036,0.9964	-6823.29
0.0054,0.9946	-6816.98
0.0030,0.9970	-6818.50
0.0062,0.9938	-6827.48
0.0108,0.9892	-6827.35
0.0044,0.9956	-6838.72
0.0029,0.9971	-6830.37
0.0064,0.9936	-6842.68
0.0040,0.9960	-6817.28
0.0057,0.9943	-6832.56
0.0112,0.9888	-6863.88
0.0041,0.9959	-6822.64
0.0036,0.9964	-6817.63
0.0056,0.9944	-6822.22
0.0050,0.9950	-6832.83
0.0045,0.9955	-6843.96
0.0091,0.9909	-6834.37
0.0046,0.9954	-6816.96
0.0043,0.9957	-6817.08
0.0059,0.9941	-6827.42
0.0058,0.9942	-6827.40
0.0052,0.9948	-6832.71
0.0094,0.9906	-6848.69
0.0047,0.9953	-6816.96
0.0048,0.9952	-6832.93
0.0062,0.9938	-6832.56
0.0063,0.9937	-6842.69
0.0052,0.9948	-6827.44
0.0091,0.9909	-6834.38
0.0049,0.9951	-6822.24
0.0048,0.9952	-6822.26
0.0052,0.9948	-6822.20
0.0057,0.9943	-6822.25
0.0059,0.9941	-6817.16
0.0074,0.9926	-6823.22
0.0042,0.9958	-6828.09
0.0054,0.9946	-6832.64
0.0053,0.9947	-6832.67
0.0050,0.9950	-6822.22
0.0043,0.9957	-6833.41
0.0083,0.9917	-6824.04
0.0039,0.9961	-6828.38
0.0045,0.9955	-6838.65
0.0057,0.9943	-6817.09
0.0052,0.9948	-6822.20
0.0050,0.9950	-6832.79
0.0085,0.9915	-6843.31
0.0037,0.9963	-6817.48
0.0049,0.9951	-6827.54
0.0057,0.9943	-6822.24
0.0058,0.9942	-6837.70
0.0047,0.9953	-6816.95
0.0093,0.9907	-6834.58
0.0029,0.9971	-6818.70
0.0052,0.9948	-6827.45
0.0063,0.9937	-6827.52
0.0062,0.9938	-6822.42
0.0052,0.9948	-6832.72
0.0074,0.9926	-6842.78
0.0039,0.9961	-6822.83
0.0056,0.9944	-6827.40
0.0065,0.9935	-6827.58
0.0070,0.9930	-6817.90
0.0048,0.9952	-6832.95
0.0074,0.9926	-6857.48
0.0042,0.9958	-6828.03
0.0071,0.9929	-6842.71
0.0075,0.9925	-6837.92
0.0066,0.9934	-6847.67
0.0044,0.9956	-6833.30
0.0075,0.9925	-6842.81
0.0043,0.9957	-6827.93
0.0073,0.9927	-6828.04
0.0071,0.9929	-6842.71
0.0076,0.9924	-6833.14
0.0053,0.9947	-6832.66
0.0074,0.9926	-6837.87
0.0046,0.9954	-6833.07
0.0057,0.9943	-6837.73
0.0070,0.9930	-6842.69
0.0088,0.9912	-6829.39
0.0054,0.9946	-6816.98
0.0066,0.9934	-6822.60
0.0042,0.9958	-6822.63
0.0060,0.9940	-6858.07
0.0061,0.9939	-6822.38
0.0068,0.9932	-6832.71
0.0057,0.9943	-6811.89
0.0065,0.9935	-6837.64
0.0053,0.9947	-6837.91
0.0065,0.9935	-6827.58
0.0068,0.9932	-6847.66
0.0062,0.9938	-6837.64
0.0048,0.9952	-6832.94
0.0083,0.9917	-6847.97
0.0057,0.9943	-6832.56
0.0058,0.9942	-6842.85
0.0059,0.9941	-6832.54
0.0070,0.9930	-6832.77
0.0043,0.9957	-6817.06
0.0091,0.9909	-6848.43
0.0051,0.9949	-6832.74
0.0067,0.9933	-6827.68
0.0062,0.9938	-6837.63
0.0065,0.9935	-6842.67
0.0044,0.9956	-6827.89
0.0098,0.9902	-6825.92
0.0060,0.9940	-6837.65
0.0080,0.9920	-6847.85
0.0064,0.9936	-6842.68
0.0054,0.9946	-6816.99
0.0044,0.9956	-6822.46
0.0091,0.9909	-6834.38
0.0066,0.9934	-6827.62
0.0105,0.9895	-6845.18
0.0067,0.9933	-6817.67
0.0052,0.9948	-6822.20
0.0038,0.9962	-6823.04
0.0069,0.9931	-6837.71
0.0058,0.9942	-6842.86
0.0091,0.9909	-6815.68
0.0065,0.9935	-6837.64
0.0059,0.9941	-6832.54
0.0039,0.9961	-6828.39
0.0045,0.9955	-6833.15
0.0048,0.9952	-6827.61
0.0081,0.9919	-6819.04
0.0055,0.9945	-6817.02
0.0065,0.9935	-6817.53
0.0047,0.9953	-6833.04
0.0039,0.9961	-6822.83
0.0053,0.9947	-6858.77
0.0076,0.9924	-6828.23
0.0065,0.9935	-6822.56
0.0051,0.9949	-6838.03
0.0046,0.9954	-6838.51
0.0040,0.9960	-6822.73
0.0055,0.9945	-6817.01
0.0066,0.9934	-6832.64
0.0068,0.9932	-6822.71
0.0061,0.9939	-6822.36
0.0051,0.9949	-6827.48
0.0050,0.9950	-6832.81
0.0058,0.9942	-6817.12
0.0067,0.9933	-6827.68
0.0063,0.9937	-6827.50
0.0058,0.9942	-6817.11
0.0044,0.9956	-6817.02
0.0047,0.9953	-6822.29
0.0069,0.9931	-6842.68
0.0069,0.9931	-6832.75
0.0071,0.9929	-6832.81
0.0069,0.9931	-6832.75
0.0054,0.9946	-6832.64
0.0047,0.9953	-6811.59
0.0067,0.9933	-6822.69
0.0069,0.9931	-6832.73
0.0072,0.9928	-6827.94
0.0068,0.9932	-6837.69
0.0050,0.9950	-6843.39
0.0047,0.9953	-6827.66
0.0059,0.9941	-6832.54
0.0060,0.9940	-6847.85
0.0061,0.9939	-6832.55
0.0064,0.9936	-6847.73
0.0054,0.9946	-6837.84
0.0042,0.9958	-6822.59
0.0063,0.9937	-6827.51
0.0059,0.9941	-6827.42
0.0064,0.9936	-6827.56
0.0064,0.9936	-6827.55
0.0054,0.9946	-6822.20
0.0045,0.9955	-6833.24
0.0064,0.9936	-6832.59
0.0060,0.9940	-6817.21
0.0050,0.9950	-6827.51
0.0068,0.9932	-6817.72
0.0050,0.9950	-6822.22
0.0044,0.9956	-6827.86
0.0075,0.9925	-6837.96
0.0058,0.9942	-6842.83
0.0046,0.9954	-6827.70
0.0068,0.9932	-6852.64
0.0056,0.9944	-6822.22
0.0034,0.9966	-6823.54
0.0066,0.9934	-6822.63
0.0053,0.9947	-6848.37
0.0058,0.9942	-6832.55
0.0062,0.9938	-6832.56
0.0043,0.9957	-6838.79
0.0042,0.9958	-6817.12
0.0071,0.9929	-6818.00
0.0064,0.9936	-6832.58
0.0058,0.9942	-6832.55
0.0047,0.9953	-6827.67
0.0047,0.9953	-6816.95
0.0043,0.9957	-6833.38
0.0078,0.9922	-6838.10
0.0058,0.9942	-6822.25
0.0055,0.9945	-6832.60
0.0053,0.9947	-6827.43
0.0043,0.9957	-6817.07
0.0044,0.9956	-6833.25
0.0081,0.9919	-6843.09
0.0056,0.9944	-6827.40
0.0066,0.9934	-6852.70
0.0059,0.9941	-6832.55
0.0046,0.9954	-6816.98
0.0041,0.9959	-6828.14
0.0090,0.9910	-6867.21
0.0046,0.9954	-6827.70
0.0088,0.9912	-6862.43
0.0047,0.9953	-6822.31
0.0052,0.9948	-6848.52
0.0031,0.9969	-6812.60
0.0085,0.9915	-6833.83
0.0042,0.9958	-6822.57
0.0090,0.9910	-6839.00
0.0041,0.9959	-6822.63
0.0064,0.9936	-6827.54
0.0033,0.9967	-6817.96
0.0093,0.9907	-6839.27
0.0047,0.9953	-6811.59
0.0097,0.9903	-6844.30
0.0037,0.9963	-6817.56
0.0049,0.9951	-6822.25
0.0032,0.9968	-6823.89
0.0112,0.9888	-6837.01
0.0048,0.9952	-6843.60
0.0092,0.9908	-6853.20
0.0045,0.9955	-6817.00
0.0044,0.9956	-6827.87
0.0038,0.9962	-6811.87
0.0104,0.9896	-6858.67
0.0058,0.9942	-6822.27
0.0087,0.9913	-6833.97
0.0043,0.9957	-6817.09
0.0041,0.9959	-6817.21
0.0042,0.9958	-6844.51
0.0092,0.9908	-6825.12
0.0049,0.9951	-6832.88
0.0080,0.9920	-6857.50
0.0042,0.9958	-6817.10
0.0048,0.9952	-6827.59
0.0050,0.9950	-6827.51
0.0079,0.9921	-6833.32
0.0043,0.9957	-6811.62
0.0068,0.9932	-6817.74
0.0046,0.9954	-6833.10
0.0046,0.9954	-6833.07
0.0058,0.9942	-6817.13
0.0063,0.9937	-6832.58
0.0049,0.9951	-6832.89
0.0066,0.9934	-6822.61
0.0045,0.9955	-6811.60
0.0041,0.9959	-6822.72
0.0052,0.9948	-6827.45
0.0058,0.9942	-6827.40
0.0051,0.9949	-6832.75
0.0060,0.9940	-6837.66
0.0054,0.9946	-6832.64
0.0045,0.9955	-6827.76
0.0068,0.9932	-6832.71
0.0046,0.9954	-6822.36
0.0049,0.9951	-6816.93
0.0062,0.9938	-6812.21
0.0048,0.9952	-6822.28
0.0049,0.9951	-6827.56
0.0060,0.9940	-6817.21
0.0051,0.9949	-6838.05
0.0060,0.9940	-6827.43
0.0060,0.9940	-6822.33
0.0049,0.9951	-6827.54
0.0054,0.9946	-6827.41
0.0050,0.9950	-6822.23
0.0038,0.9962	-6811.87
0.0057,0.9943	-6822.25
0.0064,0.9936	-6832.59
0.0050,0.9950	-6822.22
0.0046,0.9954	-6816.97
0.0046,0.9954	-6827.72
0.0045,0.9955	-6827.80
0.0054,0.9946	-6827.42
0.0052,0.9948	-6816.94
0.0045,0.9955	-6827.81
0.0049,0.9951	-6822.23
0.0053,0.9947	-6832.68
0.0043,0.9957	-6833.35
0.0040,0.9960	-6822.80
0.0065,0.9935	-6852.71
0.0051,0.9949	-6822.21
0.0045,0.9955	-6827.77
0.0062,0.9938	-6832.56
0.0039,0.9961	-6817.36
0.0039,0.9961	-6822.86
0.0050,0.9950	-6827.50
0.0045,0.9955	-6822.40
0.0050,0.9950	-6816.93
0.0055,0.9945	-6822.21
0.0039,0.9961	-6828.36
0.0045,0.9955	-6822.40
0.0052,0.9948	-6832.72
0.0047,0.9953	-6849.15
0.0053,0.9947	-6822.19
0.0055,0.9945	-6822.21
0.0047,0.9953	-6827.68
0.0043,0.9957	-6827.99
0.0057,0.9943	-6827.40
0.0059,0.9941	-6842.81
0.0060,0.9940	-6837.65
0.0070,0.9930	-6822.88
0.0060,0.9940	-6842.75
0.0055,0.9945	-6827.40
0.0062,0.9938	-6822.42
0.0054,0.9946	-6843.09
0.0057,0.9943	-6853.22
0.0057,0.9943	-6832.57
0.0055,0.9945	-6822.21
0.0060,0.9940	-6832.54
0.0072,0.9928	-6827.96
0.0056,0.9944	-6827.40
0.0061,0.9939	-6822.35
0.0052,0.9948	-6827.46
0.0043,0.9957	-6817.07
0.0052,0.9948	-6827.44
0.0064,0.9936	-6832.58
0.0060,0.9940	-6817.19
0.0063,0.9937	-6832.57
0.0066,0.9934	-6832.63
0.0058,0.9942	-6822.27
0.0041,0.9959	-6833.73
0.0059,0.9941	-6827.42
0.0067,0.9933	-6827.67
0.0063,0.9937	-6837.63
0.0059,0.9941	-6842.81
0.0042,0.9958	-6833.50
0.0036,0.9964	-6828.79
0.0051,0.9949	-6816.93
0.0063,0.9937	-6827.51
0.0045,0.9955	-6822.42
0.0060,0.9940	-6822.32
0.0036,0.9964	-6817.63
0.0038,0.9962	-6817.37
0.0059,0.9941	-6827.41
0.0068,0.9932	-6822.76
0.0051,0.9949	-6816.93
0.0058,0.9942	-6817.12
0.0041,0.9959	-6828.21
0.0038,0.9962	-6817.41
0.0056,0.9944	-6817.06
0.0057,0.9943	-6827.40
0.0045,0.9955	-6817.01
0.0061,0.9939	-6827.47
0.0049,0.9951	-6822.23
0.0046,0.9954	-6816.97
0.0065,0.9935	-6837.64
0.0053,0.9947	-6822.19
0.0042,0.9958	-6822.56
0.0074,0.9926	-6832.96
0.0053,0.9947	-6827.44
0.0053,0.9947	-6816.95
0.0064,0.9936	-6837.63
0.0055,0.9945	-6822.20
0.0043,0.9957	-6828.00
0.0083,0.9917	-6833.66
0.0055,0.9945	-6822.20
0.0048,0.9952	-6822.28
0.0066,0.9934	-6832.64
0.0061,0.9939	-6822.36
0.0044,0.9956	-6811.61
0.0078,0.9922	-6852.64
0.0079,0.9921	-6838.13
0.0045,0.9955	-6860.28
0.0064,0.9936	-6837.63
0.0065,0.9935	-6832.60
0.0041,0.9959	-6839.11
0.0067,0.9933	-6837.67
0.0073,0.9927	-6832.92
0.0057,0.9943	-6817.06
0.0091,0.9909	-6857.86
0.0053,0.9947	-6811.71
0.0048,0.9952	-6832.91
0.0071,0.9929	-6842.71
0.0080,0.9920	-6847.88
0.0051,0.9949	-6822.20
0.0078,0.9922	-6828.38
0.0052,0.9948	-6848.46
0.0054,0.9946	-6816.98
0.0054,0.9946	-6837.83
0.0073,0.9927	-6842.76
0.0046,0.9954	-6843.84
0.0074,0.9926	-6828.06
0.0047,0.9953	-6827.65
0.0063,0.9937	-6822.47
0.0051,0.9949	-6832.73
0.0082,0.9918	-6828.72
0.0051,0.9949	-6827.49
0.0087,0.9913	-6829.22
0.0038,0.9962	-6817.37
0.0058,0.9942	-6827.41
0.0040,0.9960	-6828.25
0.0076,0.9924	-6847.73
0.0046,0.9954	-6811.59
0.0047,0.9953	-6816.96
0.0040,0.9960	-6817.27
0.0058,0.9942	-6832.55
0.0042,0.9958	-6828.09
0.0082,0.9918	-6838.34
0.0039,0.9961	-6822.86
0.0050,0.9950	-6822.21
0.0045,0.9955	-6817.00
0.0043,0.9957	-6822.51
0.0035,0.9965	-6817.74
0.0085,0.9915	-6829.08
0.0036,0.9964	-6817.67
0.0052,0.9948	-6827.45
0.0047,0.9953	-6833.00
0.0044,0.9956	-6811.61
0.0046,0.9954	-6827.71
0.0097,0.9903	-6830.37
0.0038,0.9962	-6811.85
0.0048,0.9952	-6816.94
0.0049,0.9951	-6822.24
0.0049,0.9951	-6822.23
0.0036,0.9964	-6834.40
0.0099,0.9901	-6849.13
0.0037,0.9963	-6817.50
0.0046,0.9954	-6827.72
0.0048,0.9952	-6854.22
0.0056,0.9944	-6817.03
0.0031,0.9969	-6835.71
0.0106,0.9894	-6854.32
0.0044,0.9956	-6833.31
0.0050,0.9950	-6822.22
0.0055,0.9945	-6822.21
0.0049,0.9951	-6811.61
0.0031,0.9969	-6829.96
0.0088,0.9912	-6838.85
0.0039,0.9961	-6817.31
0.0056,0.9944	-6848.10
0.0056,0.9944	-6827.40
0.0049,0.9951	-6816.93
0.0029,0.9971	-6812.89
0.0095,0.9905	-6830.19
0.0048,0.9952	-6822.28
0.0056,0.9944	-6827.40
0.0068,0.9932	-6827.72
0.0063,0.9937	-6822.43
0.0034,0.9966	-6817.84
0.0087,0.9913	-6838.71
0.0043,0.9957	-6838.88
0.0065,0.9935	-6837.64
0.0080,0.9920	-6833.40
0.0056,0.9944	-6832.58
0.0033,0.9967	-6818.03
0.0079,0.9921	-6838.18
0.0036,0.9964	-6834.52
0.0046,0.9954	-6838.53
0.0068,0.9932	-6822.72
0.0058,0.9942	-6822.27
0.0028,0.9972	-6818.88
0.0088,0.9912	-6853.01
0.0043,0.9957	-6827.98
0.0046,0.9954	-6849.27
0.0066,0.9934	-6837.66
0.0057,0.9943	-6827.40
0.0031,0.9969	-6829.99
0.0105,0.9895	-6840.58
0.0046,0.9954	-6822.36
0.0048,0.9952	-6822.28
0.0064,0.9936	-6837.64
0.0055,0.9945	-6817.00
0.0026,0.9974	-6819.50
0.0109,0.9891	-6854.58
0.0047,0.9953	-6843.70
0.0054,0.9946	-6843.05
0.0063,0.9937	-6822.44
0.0050,0.9950	-6811.62
0.0033,0.9967	-6818.05
0.0084,0.9916	-6843.25
0.0051,0.9949	-6843.29
0.0064,0.9936	-6832.60
0.0078,0.9922	-6828.44
0.0055,0.9945	-6837.78
0.0031,0.9969	-6829.90
0.0074,0.9926	-6823.20
0.0050,0.9950	-6822.22
0.0070,0.9930	-6837.73
0.0079,0.9921	-6838.16
0.0059,0.9941	-6827.42
0.0040,0.9960	-6828.30
0.0077,0.9923	-6838.04
0.0061,0.9939	-6842.73
0.0066,0.9934	-6847.68
0.0072,0.9928	-6837.81
0.0057,0.9943	-6832.56
0.0034,0.9966	-6812.16
0.0073,0.9927	-6837.85
0.0056,0.9944	-6832.59
0.0064,0.9936	-6827.53
0.0077,0.9923	-6833.19
0.0055,0.9945	-6837.81
0.0037,0.9963	-6817.57
0.0083,0.9917	-6848.00
0.0040,0.9960	-6822.76
0.0073,0.9927	-6818.23
0.0081,0.9919	-6833.46
0.0062,0.9938	-6827.49
0.0039,0.9961	-6822.88
0.0102,0.9898	-6835.61
0.0054,0.9946	-6811.77
0.0103,0.9897	-6844.88
0.0086,0.9914	-6838.67
0.0078,0.9922	-6842.92
0.0043,0.9957	-6817.07
0.0116,0.9884	-6842.01
0.0049,0.9951	-6832.85
0.0093,0.9907	-6857.93
0.0074,0.9926	-6832.99
0.0089,0.9911	-6857.74
0.0050,0.9950	-6832.83
0.0103,0.9897	-6826.57
0.0057,0.9943	-6837.71
0.0076,0.9924	-6837.96
0.0067,0.9933	-6822.64
0.0071,0.9929	-6832.85
0.0047,0.9953	-6811.59
0.0100,0.9900	-6863.00
0.0061,0.9939	-6842.73
0.0075,0.9925	-6857.48
0.0064,0.9936	-6832.58
0.0062,0.9938	-6822.40
0.0058,0.9942	-6822.27
0.0086,0.9914	-6824.43
0.0066,0.9934	-6842.67
0.0057,0.9943	-6822.25
0.0072,0.9928	-6857.51
0.0072,0.9928	-6818.08
0.0058,0.9942	-6832.55
0.0081,0.9919	-6838.28
0.0058,0.9942	-6842.84
0.0058,0.9942	-6837.69
0.0074,0.9926	-6833.01
0.0060,0.9940	-6832.54
0.0066,0.9934	-6827.61
0.0076,0.9924	-6833.12
0.0052,0.9948	-6816.94
0.0057,0.9943	-6842.91
0.0062,0.9938	-6832.56
0.0056,0.9944	-6817.02
0.0076,0.9924	-6823.35
0.0087,0.9913	-6843.45
0.0051,0.9949	-6822.21
0.0056,0.9944	-6827.40
0.0059,0.9941	-6822.28
0.0046,0.9954	-6822.34
0.0062,0.9938	-6837.63
0.0090,0.9910	-6834.34
0.0053,0.9947	-6837.91
0.0066,0.9934	-6832.63
0.0064,0.9936	-6832.60
0.0052,0.9948	-6837.97
0.0055,0.9945	-6842.98
0.0110,0.9890	-6845.73
0.0041,0.9959	-6833.66
0.0061,0.9939	-6832.55
0.0070,0.9930	-6827.85
0.0046,0.9954	-6827.74
0.0052,0.9948	-6837.98
0.0108,0.9892	-6836.41
0.0041,0.9959	-6817.19
0.0048,0.9952	-6827.59
0.0061,0.9939	-6827.46
0.0074,0.9926	-6837.88
0.0054,0.9946	-6822.20
0.0079,0.9921	-6838.13
0.0037,0.9963	-6817.50
0.0041,0.9959	-6822.64
0.0052,0.9948	-6827.45
0.0072,0.9928	-6823.04
0.0053,0.9947	-6822.19
0.0074,0.9926	-6823.18
0.0047,0.9953	-6816.94
0.0042,0.9958	-6855.30
0.0055,0.9945	-6817.01
0.0057,0.9943	-6817.06
0.0063,0.9937	-6827.50
0.0082,0.9918	-6833.54
0.0056,0.9944	-6822.23
0.0045,0.9955	-6816.99
0.0047,0.9953	-6822.32
0.0039,0.9961	-6817.35
0.0071,0.9929	-6832.85
0.0082,0.9918	-6843.14
0.0051,0.9949	-6827.47
0.0043,0.9957	-6827.97
0.0046,0.9954	-6811.59
0.0038,0.9962	-6823.01
0.0066,0.9934	-6822.63
0.0094,0.9906	-6825.40
0.0052,0.9948	-6822.20
0.0057,0.9943	-6822.24
0.0042,0.9958	-6822.57
0.0035,0.9965	-6823.35
0.0068,0.9932	-6832.70
0.0071,0.9929	-6832.85
0.0057,0.9943	-6837.73
0.0076,0.9924	-6833.08
0.0039,0.9961	-6811.81
0.0040,0.9960	-6828.24
0.0072,0.9928	-6832.87
0.0068,0.9932	-6852.64
0.0066,0.9934	-6827.64
0.0069,0.9931	-6832.74
0.0047,0.9953	-6838.38
0.0050,0.9950	-6811.63
0.0065,0.9935	-6827.60
0.0071,0.9929	-6822.94
0.0074,0.9926	-6832.96
0.0048,0.9952	-6843.57
0.0064,0.9936	-6832.60
0.0065,0.9935	-6847.71
0.0082,0.9918	-6814.39
0.0078,0.9922	-6847.78
0.0089,0.9911	-6834.19
0.0064,0.9936	-6832.59
0.0061,0.9939	-6812.17
0.0065,0.9935	-6827.58
0.0075,0.9925	-6867.23
0.0089,0.9911	-6838.87
0.0077,0.9923	-6838.04
0.0069,0.9931	-6832.76
0.0047,0.9953	-6838.38
0.0069,0.9931	-6832.74
0.0075,0.9925	-6852.60
0.0072,0.9928	-6847.66
0.0067,0.9933	-6822.69
0.0068,0.9932	-6822.71
0.0050,0.9950	-6827.52
0.0067,0.9933	-6827.68
0.0063,0.9937	-6842.69
0.0052,0.9948	-6822.20
0.0060,0.9940	-6822.31
0.0069,0.9931	-6847.65
0.0049,0.9951	-6827.57
0.0057,0.9943	-6848.07
0.0059,0.9941	-6822.28
0.0066,0.9934	-6832.64
0.0056,0.9944	-6811.88
0.0087,0.9913	-6829.22
0.0050,0.9950	-6822.21
0.0047,0.9953	-6822.29
0.0051,0.9949	-6832.73
0.0073,0.9927	-6828.03
0.0055,0.9945	-6827.40
0.0102,0.9898	-6844.83
0.0043,0.9957	-6827.99
0.0041,0.9959	-6828.19
0.0043,0.9957	-6833.36
0.0063,0.9937	-6822.43
0.0055,0.9945	-6853.42
0.0092,0.9908	-6839.14
0.0045,0.9955	-6833.17
0.0042,0.9958	-6839.02
0.0044,0.9956	-6822.45
0.0060,0.9940	-6817.21
0.0043,0.9957	-6817.07
0.0083,0.9917	-6838.40
0.0045,0.9955	-6811.60
0.0050,0.9950	-6827.52
0.0040,0.9960	-6833.82
0.0053,0.9947	-6827.43
0.0041,0.9959	-6817.21
0.0068,0.9932	-6837.68
0.0046,0.9954	-6822.37
0.0056,0.9944	-6832.58
0.0038,0.9962	-6811.86
0.0057,0.9943	-6827.40
0.0043,0.9957	-6833.42
0.0072,0.9928	-6827.98
0.0046,0.9954	-6816.98
0.0064,0.9936	-6817.43
0.0040,0.9960	-6828.23
0.0058,0.9942	-6822.26
0.0045,0.9955	-6838.62
0.0085,0.9915	-6848.09
0.0040,0.9960	-6811.72
0.0058,0.9942	-6817.14
0.0044,0.9956	-6822.45
0.0056,0.9944	-6817.03
0.0043,0.9957	-6833.37
0.0064,0.9936	-6827.54
0.0042,0.9958	-6822.60
0.0055,0.9945	-6827.40
0.0040,0.9960	-6822.82
0.0064,0.9936	-6817.46
0.0045,0.9955	-6827.83
0.0066,0.9934	-6832.65
0.0036,0.9964	-6828.91
0.0055,0.9945	-6843.02
0.0039,0.9961	-6828.39
0.0048,0.9952	-6827.59
0.0050,0.9950	-6848.66
0.0073,0.9927	-6813.30
0.0039,0.9961	-6811.77
0.0052,0.9948	-6837.99
0.0040,0.9960	-6839.27
0.0051,0.9949	-6827.49
0.0053,0.9947	-6832.67
0.0068,0.9932	-6847.66
0.0038,0.9962	-6823.04
0.0057,0.9943	-6848.06
0.0053,0.9947	-6822.19
0.0051,0.9949	-6827.49
0.0054,0.9946	-6822.20
0.0063,0.9937	-6837.63
0.0039,0.9961	-6828.40
0.0052,0.9948	-6822.20
0.0054,0.9946	-6827.41
0.0046,0.9954	-6811.59
0.0053,0.9947	-6827.43
0.0057,0.9943	-6822.23
0.0038,0.9962	-6817.41
0.0049,0.9951	-6838.17
0.0065,0.9935	-6837.64
0.0059,0.9941	-6842.80
0.0060,0.9940	-6827.43
0.0051,0.9949	-6816.94
0.0046,0.9954	-6827.70
0.0047,0.9953	-6833.04
0.0079,0.9921	-6847.81
0.0063,0.9937	-6822.43
0.0047,0.9953	-6832.99
0.0056,0.9944	-6822.21
0.0051,0.9949	-6827.49
0.0043,0.9957	-6822.54
0.0069,0.9931	-6837.70
0.0070,0.9930	-6837.73
0.0053,0.9947	-6816.96
0.0067,0.9933	-6852.68
0.0046,0.9954	-6827.71
0.0047,0.9953	-6822.29
0.0072,0.9928	-6827.97
0.0062,0.9938	-6832.56
0.0066,0.9934	-6837.66
0.0076,0.9924	-6828.27
0.0046,0.9954	-6822.35
0.0053,0.9947	-6827.43
0.0063,0.9937	-6822.44
0.0058,0.9942	-6837.69
0.0072,0.9928	-6837.80
0.0068,0.9932	-6837.69
0.0054,0.9946	-6832.62
0.0071,0.9929	-6818.01
0.0071,0.9929	-6818.05
0.0067,0.9933	-6827.69
0.0065,0.9935	-6837.64
0.0076,0.9924	-6847.73
0.0051,0.9949	-6832.77
0.0067,0.9933	-6822.65
0.0085,0.9915	-6843.35
0.0091,0.9909	-6839.05
0.0072,0.9928	-6822.99
0.0099,0.9901	-6844.45
0.0058,0.9942	-6811.95
0.0061,0.9939	-6842.73
0.0075,0.9925	-6837.92
0.0070,0.9930	-6827.86
0.0063,0.9937	-6822.45
0.0091,0.9909	-6824.96
0.0048,0.9952	-6848.91
0.0070,0.9930	-6857.56
0.0078,0.9922	-6847.78
0.0063,0.9937	-6817.37
0.0066,0.9934	-6817.58
0.0072,0.9928	-6832.90
0.0050,0.9950	-6822.22
0.0073,0.9927	-6823.11
0.0074,0.9926	-6842.78
0.0047,0.9953	-6811.59
0.0068,0.9932	-6837.68
0.0071,0.9929	-6837.79
0.0050,0.9950	-6816.93
0.0055,0.9945	-6827.41
0.0073,0.9927	-6837.83
0.0054,0.9946	-6832.61
0.0059,0.9941	-6837.67
0.0070,0.9930	-6837.73
0.0047,0.9953	-6838.36
0.0048,0.9952	-6827.61
0.0061,0.9939	-6827.46
0.0060,0.9940	-6827.43
0.0049,0.9951	-6832.85
0.0075,0.9925	-6818.35
0.0057,0.9943	-6832.56
0.0048,0.9952	-6822.26
0.0068,0.9932	-6847.66
0.0051,0.9949	-6822.20
0.0047,0.9953	-6843.69
0.0062,0.9938	-6822.41
0.0050,0.9950	-6827.52
0.0052,0.9948	-6832.69
0.0083,0.9917	-6838.42
0.0053,0.9947	-6853.62
0.0055,0.9945	-6832.60
0.0063,0.9937	-6847.77
0.0058,0.9942	-6822.27
0.0059,0.9941	-6817.15
0.0062,0.9938	-6827.47
0.0055,0.9945	-6822.20
0.0041,0.9959	-6833.70
0.0066,0.9934	-6857.69
0.0061,0.9939	-6817.24
0.0076,0.9924	-6833.14
0.0055,0.9945	-6848.21
0.0058,0.9942	-6817.11
0.0048,0.9952	-6816.94
0.0050,0.9950	-6822.23
0.0057,0.9943	-6827.40
0.0088,0.9912	-6848.26
0.0054,0.9946	-6843.04
0.0052,0.9948	-6837.93
0.0064,0.9936	-6832.59
0.0050,0.9950	-6816.93
0.0078,0.9922	-6833.27
0.0087,0.9913	-6829.28
0.0057,0.9943	-6827.40
0.0060,0.9940	-6817.22
0.0075,0.9925	-6837.95
0.0054,0.9946	-6822.20
0.0076,0.9924	-6828.27
0.0086,0.9914	-6819.60
0.0049,0.9951	-6827.55
0.0064,0.9936	-6837.63
0.0064,0.9936	-6842.68
0.0058,0.9942	-6827.41
0.0071,0.9929	-6857.53
0.0063,0.9937	-6822.46
0.0055,0.9945	-6827.40
0.0072,0.9928	-6827.95
0.0085,0.9915	-6843.34
0.0070,0.9930	-6817.95
0.0076,0.9924	-6818.53
0.0076,0.9924	-6842.84
0.0058,0.9942	-6827.41
0.0074,0.9926	-6818.29
0.0083,0.9917	-6843.20
0.0077,0.9923	-6842.92
0.0071,0.9929	-6847.65
0.0097,0.9903	-6844.26
0.0076,0.9924	-6823.40
0.0076,0.9924	-6823.38
0.0074,0.9926	-6823.16
0.0081,0.9919	-6814.27
0.0056,0.9944	-6832.58
0.0096,0.9904	-6853.48
0.0083,0.9917	-6862.34
0.0066,0.9934	-6847.68
0.0067,0.9933	-6847.67
0.0073,0.9927	-6837.86
0.0071,0.9929	-6827.88
0.0072,0.9928	-6842.73
0.0077,0.9923	-6833.20
0.0065,0.9935	-6842.67
0.0061,0.9939	-6837.64
0.0066,0.9934	-6822.60
0.0068,0.9932	-6832.72
0.0074,0.9926	-6847.69
0.0080,0.9920	-6838.22
0.0054,0.9946	-6827.42
0.0056,0.9944	-6832.57
0.0054,0.9946	-6827.41
0.0084,0.9916	-6838.49
0.0062,0.9938	-6822.38
0.0075,0.9925	-6852.59
0.0060,0.9940	-6842.76
0.0054,0.9946	-6822.20
0.0070,0.9930	-6837.74
0.0057,0.9943	-6837.73
0.0068,0.9932	-6857.64
0.0056,0.9944	-6827.40
0.0067,0.9933	-6827.67
0.0046,0.9954	-6822.33
0.0071,0.9929	-6842.71
0.0057,0.9943	-6822.24
0.0055,0.9945	-6816.99
0.0046,0.9954	-6849.27
0.0068,0.9932	-6842.68
0.0056,0.9944	-6827.40
0.0071,0.9929	-6837.76
0.0059,0.9941	-6827.42
0.0060,0.9940	-6837.66
0.0048,0.9952	-6832.92
0.0068,0.9932	-6812.74
0.0052,0.9948	-6827.44
0.0063,0.9937	-6822.45
0.0061,0.9939	-6837.65
0.0059,0.9941	-6812.03
0.0052,0.9948	-6816.95
0.0055,0.9945	-6832.60
0.0056,0.9944	-6811.87
0.0063,0.9937	-6842.69
0.0052,0.9948	-6822.20
0.0055,0.9945	-6837.78
0.0061,0.9939	-6842.72
0.0050,0.9950	-6832.78
0.0051,0.9949	-6838.01
0.0062,0.9938	-6817.34
0.0062,0.9938	-6832.55
0.0045,0.9955	-6833.16
0.0065,0.9935	-6822.55
0.0062,0.9938	-6837.63
0.0050,0.9950	-6822.22
0.0069,0.9931	-6837.70
0.0037,0.9963	-6817.47
0.0055,0.9945	-6832.61
0.0069,0.9931	-6822.79
0.0075,0.9925	-6847.71
0.0059,0.9941	-6832.55
0.0065,0.9935	-6817.50
0.0039,0.9961	-6811.76
0.0063,0.9937	-6827.51
0.0062,0.9938	-6827.48
0.0078,0.9922	-6838.10
0.0060,0.9940	-6817.19
0.0048,0.9952	-6816.93
0.0044,0.9956	-6811.61
0.0063,0.9937	-6822.47
0.0061,0.9939	-6822.36
0.0095,0.9905	-6839.52
0.0058,0.9942	-6837.70
0.0049,0.9951	-6838.22
0.0057,0.9943	-6827.40
0.0062,0.9938	-6837.64
0.0076,0.9924	-6823.37
0.0082,0.9918	-6838.32
0.0054,0.9946	-6827.41
0.0041,0.9959	-6811.68
0.0051,0.9949	-6827.48
0.0067,0.9933	-6822.68
0.0075,0.9925	-6828.20
0.0072,0.9928	-6823.03
0.0076,0.9924	-6823.35
0.0041,0.9959	-6828.20
0.0047,0.9953	-6822.31
0.0064,0.9936	-6822.52
0.0088,0.9912	-6848.29
0.0059,0.9941	-6837.66
0.0065,0.9935	-6837.64
0.0045,0.9955	-6822.40
0.0051,0.9949	-6822.21
0.0079,0.9921	-6838.14
0.0087,0.9913	-6843.43
0.0064,0.9936	-6827.53
0.0068,0.9932	-6827.72
0.0055,0.9945	-6832.61
0.0054,0.9946	-6822.20
0.0089,0.9911	-6834.18
0.0070,0.9930	-6827.83
0.0045,0.9955	-6816.99
0.0063,0.9937	-6827.50
0.0047,0.9953	-6832.98
0.0043,0.9957	-6849.74
0.0057,0.9943	-6832.56
0.0064,0.9936	-6837.63
0.0054,0.9946	-6822.20
0.0065,0.9935	-6832.61
0.0040,0.9960	-6817.24
0.0035,0.9965	-6829.08
0.0077,0.9923	-6833.18
0.0070,0.9930	-6827.81
0.0047,0.9953	-6827.63
0.0048,0.9952	-6816.94
0.0037,0.9963	-6834.23
0.0037,0.9963	-6817.54
0.0068,0.9932	-6832.72
0.0064,0.9936	-6832.58
0.0047,0.9953	-6816.96
0.0038,0.9962	-6817.42
0.0042,0.9958	-6822.61
0.0044,0.9956	-6838.75
0.0071,0.9929	-6832.83
0.0069,0.9931	-6822.83
0.0050,0.9950	-6832.81
0.0042,0.9958	-6817.13
0.0050,0.9950	-6811.63
0.0038,0.9962	-6822.97
0.0078,0.9922	-6842.96
0.0057,0.9943	-6863.51
0.0044,0.9956	-6822.47
0.0041,0.9959	-6822.64
0.0048,0.9952	-6827.60
0.0041,0.9959	-6811.68
0.0085,0.9915	-6848.11
0.0071,0.9929	-6818.02
0.0049,0.9951	-6816.93
0.0060,0.9940	-6822.31
0.0051,0.9949	-6811.65
0.0040,0.9960	-6833.82
0.0078,0.9922	-6847.79
0.0074,0.9926	-6818.25
0.0050,0.9950	-6816.93
0.0058,0.9942	-6832.55
0.0065,0.9935	-6827.60
0.0048,0.9952	-6822.26
0.0084,0.9916	-6843.25
0.0085,0.9915	-6829.09
0.0061,0.9939	-6842.73
0.0062,0.9938	-6842.72
0.0075,0.9925	-6828.19
0.0055,0.9945	-6832.60
0.0088,0.9912	-6853.01
0.0078,0.9922	-6838.12
0.0063,0.9937	-6832.57
0.0060,0.9940	-6817.19
0.0072,0.9928	-6852.59
0.0049,0.9951	-6838.19
0.0088,0.9912	-6848.25
0.0079,0.9921	-6838.13
0.0071,0.9929	-6857.54
0.0055,0.9945	-6817.00
0.0071,0.9929	-6827.91
0.0059,0.9941	-6817.17
0.0101,0.9899	-6863.05
0.0084,0.9916	-6852.81
0.0074,0.9926	-6833.00
0.0060,0.9940	-6837.65
0.0075,0.9925	-6833.06
0.0059,0.9941	-6822.31
0.0109,0.9891	-6854.55
0.0088,0.9912	-6838.82
0.0054,0.9946	-6832.64
0.0057,0.9943	-6827.40
0.0078,0.9922	-6823.55
0.0060,0.9940	-6827.43
0.0089,0.9911	-6843.64
0.0081,0.9919	-6833.48
0.0062,0.9938	-6817.30
0.0073,0.9927	-6832.94
0.0079,0.9921	-6833.33
0.0051,0.9949	-6827.47
0.0074,0.9926	-6828.12
0.0081,0.9919	-6847.91
0.0064,0.9936	-6827.55
0.0056,0.9944	-6848.12
0.0068,0.9932	-6837.69
0.0060,0.9940	-6827.43
0.0058,0.9942	-6817.11
0.0077,0.9923	-6862.33
0.0056,0.9944	-6822.22
0.0052,0.9948	-6816.95
0.0067,0.9933	-6837.67
0.0046,0.9954	-6816.96
0.0069,0.9931	-6812.90
0.0066,0.9934	-6827.64
0.0062,0.9938	-6832.55
0.0050,0.9950	-6832.81
0.0067,0.9933	-6847.66
0.0058,0.9942	-6817.10
0.0066,0.9934	-6822.60
0.0075,0.9925	-6833.05
0.0055,0.9945	-6832.60
0.0041,0.9959	-6822.70
0.0061,0.9939	-6817.28
0.0054,0.9946	-6832.64
0.0064,0.9936	-6827.56
0.0070,0.9930	-6822.87
0.0070,0.9930	-6827.82
0.0039,0.9961	-6828.44
0.0061,0.9939	-6822.35
0.0059,0.9941	-6837.68
0.0064,0.9936	-6827.53
0.0058,0.9942	-6847.99
0.0056,0.9944	-6848.11
0.0030,0.9970	-6841.71
0.0053,0.9947	-6822.19
0.0067,0.9933	-6837.66
0.0063,0.9937	-6822.45
0.0064,0.9936	-6847.73
0.0051,0.9949	-6827.48
0.0039,0.9961	-6822.82
0.0045,0.9955	-6811.60
0.0069,0.9931	-6832.73
0.0066,0.9934	-6842.67
0.0075,0.9925	-6833.07
0.0056,0.9944	-6827.40
0.0048,0.9952	-6848.89
0.0053,0.9947	-6827.42
0.0065,0.9935	-6842.67
0.0082,0.9918	-6838.33
0.0055,0.9945	-6822.21
0.0054,0.9946	-6827.41
0.0059,0.9941	-6817.15
0.0044,0.9956	-6822.43
0.0071,0.9929	-6827.88
0.0083,0.9917	-6838.42
0.0072,0.9928	-6823.03
0.0051,0.9949	-6822.20
0.0070,0.9930	-6837.73
0.0039,0.9961	-6822.90
0.0060,0.9940	-6827.43
0.0072,0.9928	-6827.92
0.0073,0.9927	-6828.01
0.0070,0.9930	-6847.65
0.0074,0.9926	-6833.01
0.0048,0.9952	-6832.96
0.0060,0.9940	-6847.87
0.0081,0.9919	-6843.10
0.0082,0.9918	-6828.74
0.0064,0.9936	-6847.72
0.0066,0.9934	-6847.68
0.0057,0.9943	-6827.40
0.0046,0.9954	-6838.48
0.0079,0.9921	-6842.99
0.0086,0.9914	-6843.41
0.0064,0.9936	-6812.41
0.0052,0.9948	-6822.20
0.0081,0.9919	-6833.45
0.0040,0.9960	-6822.79
0.0062,0.9938	-6832.55
0.0093,0.9907	-6843.95
0.0064,0.9936	-6842.67
0.0068,0.9932	-6822.71
0.0079,0.9921	-6843.00
0.0042,0.9958	-6822.62
0.0054,0.9946	-6822.20
0.0107,0.9893	-6858.93
0.0063,0.9937	-6822.44
0.0070,0.9930	-6837.73
0.0070,0.9930	-6837.74
0.0049,0.9951	-6827.55
0.0056,0.9944	-6832.58
0.0089,0.9911	-6838.90
0.0053,0.9947	-6832.67
0.0061,0.9939	-6827.45
0.0065,0.9935	-6817.49
0.0051,0.9949	-6822.20
0.0060,0.9940	-6827.44
0.0092,0.9908	-6843.85
0.0056,0.9944	-6817.05
0.0061,0.9939	-6817.24
0.0069,0.9931	-6822.83
0.0051,0.9949	-6827.47
0.0066,0.9934	-6837.66
0.0098,0.9902	-6839.83
0.0058,0.9942	-6811.96
0.0060,0.9940	-6827.43
0.0065,0.9935	-6832.61
0.0065,0.9935	-6832.62
0.0064,0.9936	-6832.58
0.0076,0.9924	-6847.72
0.0048,0.9952	-6838.27
0.0065,0.9935	-6827.60
0.0068,0.9932	-6837.69
0.0067,0.9933	-6832.67
0.0063,0.9937	-6837.63
0.0084,0.9916	-6838.51
0.0059,0.9941	-6827.41
0.0067,0.9933	-6837.66
0.0065,0.9935	-6832.61
0.0058,0.9942	-6827.41
0.0060,0.9940	-6842.77
0.0111,0.9889	-6850.32
0.0048,0.9952	-6816.93
0.0059,0.9941	-6822.28
0.0054,0.9946	-6816.97
0.0061,0.9939	-6827.46
0.0074,0.9926	-6832.99
0.0105,0.9895	-6854.19
0.0054,0.9946	-6827.42
0.0061,0.9939	-6832.55
0.0071,0.9929	-6827.90
0.0065,0.9935	-6822.54
0.0071,0.9929	-6832.85
0.0122,0.9878	-6842.89
0.0052,0.9948	-6827.46
0.0066,0.9934	-6832.63
0.0054,0.9946	-6843.07
0.0057,0.9943	-6832.57
0.0062,0.9938	-6837.64
0.0099,0.9901	-6853.69
0.0066,0.9934	-6832.64
0.0078,0.9922	-6823.59
0.0064,0.9936	-6827.54
0.0053,0.9947	-6827.42
0.0062,0.9938	-6832.55
0.0096,0.9904	-6834.94
0.0069,0.9931	-6827.79
0.0078,0.9922	-6857.48
0.0057,0.9943	-6832.56
0.0057,0.9943	-6817.08
0.0056,0.9944	-6822.22
0.0069,0.9931	-6827.78
0.0074,0.9926	-6832.96
0.0075,0.9925	-6833.07
0.0053,0.9947	-6816.96
0.0068,0.9932	-6817.73
0.0057,0.9943	-6822.23
0.0076,0.9924	-6837.98
0.0069,0.9931	-6832.75
0.0069,0.9931	-6832.73
0.0069,0.9931	-6827.76
0.0083,0.9917	-6833.63
0.0049,0.9951	-6816.93
0.0074,0.9926	-6837.88
0.0051,0.9949	-6811.66
0.0077,0.9923	-6842.88
0.0072,0.9928	-6832.90
0.0084,0.9916	-6828.92
0.0043,0.9957	-6833.45
0.0068,0.9932	-6847.65
0.0072,0.9928	-6832.90
0.0071,0.9929	-6832.82
0.0063,0.9937	-6827.50
0.0083,0.9917	-6838.42
0.0041,0.9959	-6811.68
0.0056,0.9944	-6822.22
0.0073,0.9927	-6832.91
0.0053,0.9947	-6832.68
0.0047,0.9953	-6827.68
0.0093,0.9907	-6857.96
0.0037,0.9963	-6839.83
0.0049,0.9951	-6832.84
0.0070,0.9930	-6822.89
0.0055,0.9945	-6822.21
0.0061,0.9939	-6817.28
0.0097,0.9903	-6844.28
0.0049,0.9951	-6827.56
0.0056,0.9944	-6858.48
0.0057,0.9943	-6832.56
0.0066,0.9934	-6817.62
0.0065,0.9935	-6827.57
0.0086,0.9914	-6843.43
0.0048,0.9952	-6816.93
0.0053,0.9947	-6811.73
0.0079,0.9921	-6833.31
0.0051,0.9949	-6832.77
0.0069,0.9931	-6822.84
0.0094,0.9906	-6830.02
0.0054,0.9946	-6843.06
0.0068,0.9932	-6827.70
0.0076,0.9924	-6833.13
0.0051,0.9949	-6832.75
0.0067,0.9933	-6832.66
0.0088,0.9912	-6834.12
0.0048,0.9952	-6827.58
0.0070,0.9930	-6832.80
0.0060,0.9940	-6827.44
0.0053,0.9947	-6837.89
0.0079,0.9921	-6852.66
0.0084,0.9916	-6838.50
0.0054,0.9946	-6832.63
0.0077,0.9923	-6838.05
0.0060,0.9940	-6842.75
0.0069,0.9931	-6832.75
0.0082,0.9918	-6823.93
0.0075,0.9925	-6837.92
0.0044,0.9956	-6811.61
0.0077,0.9923	-6828.36
0.0064,0.9936	-6832.59
0.0060,0.9940	-6822.32
0.0064,0.9936	-6842.68
0.0091,0.9909	-6825.05
0.0036,0.9964	-6840.10
0.0059,0.9941	-6837.67
0.0071,0.9929	-6852.59
0.0070,0.9930	-6837.75
0.0059,0.9941	-6837.67
0.0082,0.9918	-6819.11
0.0042,0.9958	-6828.04
0.0053,0.9947	-6837.93
0.0055,0.9945	-6817.02
0.0082,0.9918	-6828.74
0.0069,0.9931	-6822.78
0.0073,0.9927	-6837.83
0.0062,0.9938	-6827.49
0.0051,0.9949	-6848.60
0.0065,0.9935	-6832.62
0.0077,0.9923	-6838.05
0.0072,0.9928	-6847.66
0.0072,0.9928	-6827.97
0.0073,0.9927	-6842.76
0.0058,0.9942	-6822.26
0.0068,0.9932	-6852.64
0.0060,0.9940	-6817.20
0.0068,0.9932	-6827.73
0.0069,0.9931	-6827.78
0.0072,0.9928	-6837.79
0.0062,0.9938	-6817.31
0.0059,0.9941	-6817.19
0.0062,0.9938	-6827.49
0.0066,0.9934	-6817.62
0.0060,0.9940	-6827.43
0.0074,0.9926	-6847.68
0.0053,0.9947	-6816.97
0.0060,0.9940	-6827.44
0.0067,0.9933	-6832.66
0.0058,0.9942	-6842.82
0.0066,0.9934	-6827.63
0.0061,0.9939	-6832.55
0.0058,0.9942	-6827.41
0.0073,0.9927	-6828.01
0.0062,0.9938	-6827.48
0.0058,0.9942	-6822.26
0.0063,0.9937	-6832.57
0.0069,0.9931	-6822.83
0.0076,0.9924	-6852.60
0.0076,0.9924	-6833.12
0.0064,0.9936	-6837.64
0.0067,0.9933	-6837.66
0.0085,0.9915	-6829.08
0.0079,0.9921	-6838.17
0.0065,0.9935	-6817.51
0.0062,0.9938	-6832.55
0.0074,0.9926	-6818.31
0.0059,0.9941	-6837.67
0.0087,0.9913	-6824.47
0.0104,0.9896	-6845.03
0.0065,0.9935	-6842.67
0.0061,0.9939	-6837.64
0.0086,0.9914	-6829.14
0.0059,0.9941	-6827.41
0.0077,0.9923	-6842.91
0.0108,0.9892	-6831.93
0.0068,0.9932	-6837.68
0.0079,0.9921	-6823.68
0.0070,0.9930	-6837.74
0.0062,0.9938	-6822.40
0.0065,0.9935	-6842.67
0.0086,0.9914	-6843.43
0.0068,0.9932	-6822.75
0.0071,0.9929	-6842.71
0.0071,0.9929	-6837.76
0.0055,0.9945	-6837.79
0.0055,0.9945	-6843.03
0.0087,0.9913	-6852.95
0.0071,0.9929	-6827.91
0.0067,0.9933	-6842.67
0.0049,0.9951	-6816.93
0.0057,0.9943	-6842.89
0.0057,0.9943	-6832.56
0.0081,0.9919	-6867.13
0.0058,0.9942	-6822.27
0.0056,0.9944	-6822.21
0.0057,0.9943	-6827.40
0.0054,0.9946	-6822.20
0.0064,0.9936	-6827.55
0.0085,0.9915	-6838.57
0.0057,0.9943	-6848.03
0.0069,0.9931	-6837.70
0.0068,0.9932	-6842.67
0.0054,0.9946	-6822.20
0.0059,0.9941	-6832.55
0.0083,0.9917	-6857.54
0.0060,0.9940	-6822.34
0.0067,0.9933	-6842.67
0.0069,0.9931	-6842.68
0.0075,0.9925	-6828.15
0.0060,0.9940	-6817.24
0.0087,0.9913	-6843.49
0.0060,0.9940	-6827.43
0.0066,0.9934	-6837.65
0.0067,0.9933	-6827.68
0.0071,0.9929	-6842.72
0.0059,0.9941	-6837.67
0.0082,0.9918	-6833.56
0.0060,0.9940	-6832.54
0.0059,0.9941	-6832.54
0.0065,0.9935	-6837.64
0.0054,0.9946	-6822.20
0.0059,0.9941	-6832.54
0.0067,0.9933	-6857.65
0.0060,0.9940	-6837.65
0.0060,0.9940	-6827.43
0.0057,0.9943	-6822.23
0.0059,0.9941	-6832.54
0.0057,0.9943	-6837.71
0.0066,0.9934	-6832.65
0.0060,0.9940	-6827.43
0.0059,0.9941	-6827.41
0.0053,0.9947	-6837.91
0.0068,0.9932	-6822.73
0.0050,0.9950	-6838.11
0.0057,0.9943	-6827.40
0.0060,0.9940	-6847.89
0.0074,0.9926	-6828.11
0.0043,0.9957	-6811.64
0.0062,0.9938	-6832.56
0.0039,0.9961	-6817.32
0.0064,0.9936	-6837.63
0.0069,0.9931	-6832.75
0.0074,0.9926	-6823.16
0.0047,0.9953	-6843.77
0.0071,0.9929	-6832.83
0.0049,0.9951	-6822.24
0.0059,0.9941	-6822.28
0.0080,0.9920	-6838.22
0.0064,0.9936	-6847.73
0.0040,0.9960	-6822.77
0.0075,0.9925	-6847.70
0.0052,0.9948	-6827.45
0.0078,0.9922	-6838.12
0.0078,0.9922	-6847.80
0.0048,0.9952	-6827.58
0.0037,0.9963	-6839.81
0.0061,0.9939	-6842.73
0.0047,0.9953	-6833.00
0.0087,0.9913	-6838.74
0.0071,0.9929	-6852.59
0.0045,0.9955	-6833.18
0.0038,0.9962	-6828.58
0.0067,0.9933	-6847.66
0.0044,0.9956	-6833.35
0.0095,0.9905	-6844.15
0.0064,0.9936	-6822.50
0.0048,0.9952	-6822.27
0.0045,0.9955	-6833.16
0.0081,0.9919	-6847.89
0.0047,0.9953	-6822.30
0.0103,0.9897	-6844.94
0.0058,0.9942	-6837.70
0.0045,0.9955	-6838.63
0.0055,0.9945	-6837.81
0.0086,0.9914	-6843.43
0.0056,0.9944	-6811.87
0.0089,0.9911	-6829.46
0.0061,0.9939	-6832.55
0.0050,0.9950	-6843.39
0.0053,0.9947	-6822.19
0.0092,0.9908	-6839.20
0.0046,0.9954	-6827.74
0.0088,0.9912	-6848.30
0.0047,0.9953	-6822.29
0.0054,0.9946	-6837.82
0.0042,0.9958	-6822.58
0.0090,0.9910	-6853.10
0.0050,0.9950	-6832.80
0.0074,0.9926	-6832.97
0.0054,0.9946	-6827.41
0.0047,0.9953	-6822.29
0.0052,0.9948	-6843.24
0.0085,0.9915	-6848.08
0.0064,0.9936	-6827.55
0.0081,0.9919	-6828.62
0.0051,0.9949	-6816.93
0.0052,0.9948	-6827.44
0.0050,0.9950	-6838.08
0.0073,0.9927	-6823.14
0.0059,0.9941	-6837.66
0.0074,0.9926	-6832.99
0.0050,0.9950	-6827.53
0.0050,0.9950	-6822.23
0.0045,0.9955	-6827.78
0.0079,0.9921	-6823.68
0.0063,0.9937	-6827.50
0.0073,0.9927	-6832.94
0.0047,0.9953	-6816.95
0.0054,0.9946	-6822.20
0.0053,0.9947	-6827.43
0.0062,0.9938	-6827.47
0.0069,0.9931	-6832.74
0.0063,0.9937	-6852.83
0.0055,0.9945	-6827.40
0.0057,0.9943	-6842.88
0.0058,0.9942	-6827.40
0.0066,0.9934	-6832.63
0.0071,0.9929	-6827.87
0.0060,0.9940	-6817.22
0.0059,0.9941	-6822.29
0.0066,0.9934	-6817.61
0.0069,0.9931	-6837.72
0.0077,0.9923	-6833.19
0.0056,0.9944	-6832.58
0.0071,0.9929	-6822.97
0.0043,0.9957	-6822.52
0.0055,0.9945	-6827.40
0.0065,0.9935	-6842.67
0.0082,0.9918	-6847.95
0.0053,0.9947	-6816.97
0.0062,0.9938	-6822.42
0.0040,0.9960	-6822.76
0.0055,0.9945	-6848.20
0.0065,0.9935	-6827.56
0.0083,0.9917	-6833.64
0.0068,0.9932	-6817.78
0.0076,0.9924	-6838.00
0.0041,0.9959	-6817.20
0.0047,0.9953	-6822.30
0.0058,0.9942	-6832.55
0.0088,0.9912	-6843.55
0.0059,0.9941	-6837.67
0.0072,0.9928	-6847.66
0.0043,0.9957	-6822.49
0.0043,0.9957	-6817.07
0.0054,0.9946	-6843.08
0.0076,0.9924	-6842.84
0.0066,0.9934	-6822.60
0.0067,0.9933	-6812.70
0.0050,0.9950	-6843.44
0.0036,0.9964	-6840.11
0.0051,0.9949	-6838.01
0.0073,0.9927	-6823.13
0.0058,0.9942	-6847.96
0.0052,0.9948	-6827.45
0.0059,0.9941	-6822.29
0.0038,0.9962	-6822.94
0.0057,0.9943	-6842.88
0.0070,0.9930	-6852.60
0.0067,0.9933	-6827.68
0.0058,0.9942	-6832.55
0.0052,0.9948	-6853.73
0.0040,0.9960	-6811.73
0.0065,0.9935	-6827.60
0.0090,0.9910	-6848.40
0.0059,0.9941	-6827.42
0.0057,0.9943	-6827.40
0.0052,0.9948	-6837.97
0.0042,0.9958	-6822.58
0.0069,0.9931	-6822.83
0.0093,0.9907	-6848.61
0.0069,0.9931	-6832.73
0.0054,0.9946	-6822.20
0.0056,0.9944	-6827.40
0.0039,0.9961	-6833.99
0.0076,0.9924	-6837.97
0.0082,0.9918	-6828.76
0.0075,0.9925	-6818.36
0.0043,0.9957	-6822.51
0.0053,0.9947	-6822.19
0.0045,0.9955	-6827.80
0.0090,0.9910	-6829.59
0.0090,0.9910	-6834.29
0.0068,0.9932	-6832.69
0.0058,0.9942	-6832.55
0.0055,0.9945	-6837.80
0.0051,0.9949	-6816.93
0.0075,0.9925	-6847.71
0.0090,0.9910	-6834.27
0.0068,0.9932	-6842.67
0.0060,0.9940	-6842.75
0.0052,0.9948	-6822.20
0.0057,0.9943	-6837.72
0.0065,0.9935	-6827.60
0.0080,0.9920	-6838.20
0.0059,0.9941	-6822.29
0.0057,0.9943	-6832.57
0.0043,0.9957	-6811.62
0.0070,0.9930	-6832.80
0.0071,0.9929	-6822.98
0.0072,0.9928	-6832.91
0.0056,0.9944	-6837.76
0.0046,0.9954	-6827.73
0.0053,0.9947	-6811.73
0.0078,0.9922	-6828.40
0.0075,0.9925	-6837.95
0.0063,0.9937	-6822.45
0.0069,0.9931	-6827.78
0.0046,0.9954	-6811.59
0.0046,0.9954	-6822.34
0.0081,0.9919	-6838.27
0.0093,0.9907	-6843.91
0.0059,0.9941	-6832.54
0.0067,0.9933	-6817.65
0.0050,0.9950	-6822.22
0.0054,0.9946	-6816.97
0.0075,0.9925	-6828.16
0.0092,0.9908	-6848.53
0.0059,0.9941	-6827.42
0.0058,0.9942	-6817.10
0.0046,0.9954	-6843.85
0.0050,0.9950	-6816.93
0.0066,0.9934	-6827.64
0.0077,0.9923	-6852.62
0.0058,0.9942	-6822.25
0.0054,0.9946	-6822.20
0.0046,0.9954	-6811.59
0.0048,0.9952	-6832.93
0.0086,0.9914	-6838.62
0.0062,0.9938	-6842.71
0.0060,0.9940	-6827.44
0.0052,0.9948	-6822.20
0.0047,0.9953	-6833.01
0.0051,0.9949	-6811.67
0.0081,0.9919	-6828.63
0.0058,0.9942	-6822.26
0.0063,0.9937	-6817.40
0.0058,0.9942	-6837.69
0.0044,0.9956	-6811.61
0.0072,0.9928	-6842.74
0.0071,0.9929	-6842.72
0.0047,0.9953	-6827.67
0.0070,0.9930	-6832.77
0.0054,0.9946	-6832.63
0.0039,0.9961	-6822.84
0.0063,0.9937	-6837.63
0.0073,0.9927	-6832.92
0.0045,0.9955	-6843.96
0.0064,0.9936	-6822.48
0.0063,0.9937	-6822.44
0.0051,0.9949	-6822.20
0.0066,0.9934	-6832.63
0.0058,0.9942	-6827.41
0.0048,0.9952	-6843.64
0.0058,0.9942	-6832.55
0.0060,0.9940	-6827.44
0.0058,0.9942	-6827.40
0.0076,0.9924	-6823.35
0.0079,0.9921	-6847.82
0.0040,0.9960	-6822.80
0.0059,0.9941	-6827.41
0.0069,0.9931	-6837.71
0.0055,0.9945	-6822.21
0.0071,0.9929	-6822.97
0.0064,0.9936	-6842.67
0.0045,0.9955	-6833.16
0.0062,0.9938	-6837.63
0.0065,0.9935	-6842.67
0.0054,0.9946	-6837.83
0.0066,0.9934	-6817.63
0.0060,0.9940	-6832.54
0.0041,0.9959	-6822.65
0.0074,0.9926	-6828.06
0.0063,0.9937	-6847.74
0.0055,0.9945	-6822.20
0.0061,0.9939	-6832.55
0.0070,0.9930	-6837.74
0.0053,0.9947	-6822.19
0.0059,0.9941	-6832.55
0.0071,0.9929	-6822.93
0.0061,0.9939	-6817.28
0.0051,0.9949	-6832.74
0.0070,0.9930	-6837.73
0.0046,0.9954	-6833.13
0.0059,0.9941	-6827.41
0.0061,0.9939	-6847.82
0.0052,0.9948	-6837.95
0.0056,0.9944	-6832.58
0.0070,0.9930	-6837.73
0.0053,0.9947	-6822.19
0.0060,0.9940	-6827.43
0.0063,0.9937	-6862.90
0.0073,0.9927	-6828.03
0.0054,0.9946	-6816.98
0.0068,0.9932	-6847.66
0.0046,0.9954	-6827.75
0.0060,0.9940	-6832.54
0.0065,0.9935	-6847.71
0.0058,0.9942	-6822.26
0.0047,0.9953	-6843.71
0.0064,0.9936	-6832.60
0.0051,0.9949	-6832.74
0.0053,0.9947	-6832.67
0.0074,0.9926	-6818.31
0.0053,0.9947	-6811.73
0.0052,0.9948	-6816.95
0.0061,0.9939	-6817.26
0.0070,0.9930	-6832.77
0.0054,0.9946	-6827.41
0.0063,0.9937	-6827.50
0.0059,0.9941	-6842.79
0.0061,0.9939	-6822.38
0.0059,0.9941	-6822.28
0.0070,0.9930	-6827.84
0.0050,0.9950	-6822.22
0.0063,0.9937	-6817.37
0.0070,0.9930	-6827.81
0.0062,0.9938	-6837.63
0.0048,0.9952	-6832.94
0.0071,0.9929	-6842.71
0.0047,0.9953	-6838.33
0.0057,0.9943	-6832.56
0.0083,0.9917	-6838.44
0.0058,0.9942	-6827.40
0.0048,0.9952	-6827.63
0.0081,0.9919	-6833.46
0.0056,0.9944	-6817.04
0.0048,0.9952	-6816.94
0.0059,0.9941	-6822.30
0.0071,0.9929	-6837.76
0.0053,0.9947	-6811.72
0.0085,0.9915	-6838.55
0.0050,0.9950	-6822.23
0.0048,0.9952	-6816.93
0.0069,0.9931	-6812.90
0.0068,0.9932	-6852.63
0.0065,0.9935	-6827.58
0.0078,0.9922	-6828.41
0.0044,0.9956	-6844.07
0.0052,0.9948	-6827.45
0.0064,0.9936	-6822.52
0.0064,0.9936	-6817.49
0.0056,0.9944	-6827.40
0.0073,0.9927	-6832.93
0.0049,0.9951	-6838.15
0.0050,0.9950	-6838.10
0.0059,0.9941	-6822.28
0.0076,0.9924	-6828.27
0.0063,0.9937	-6822.47
0.0078,0.9922	-6818.68
0.0052,0.9948	-6827.44
0.0066,0.9934	-6842.67
0.0058,0.9942	-6827.40
0.0073,0.9927	-6827.99
0.0062,0.9938	-6822.42
0.0077,0.9923	-6828.29
0.0069,0.9931	-6837.70
0.0057,0.9943	-6817.07
0.0054,0.9946	-6822.20
0.0067,0.9933	-6827.69
0.0068,0.9932	-6832.69
0.0082,0.9918	-6838.36
0.0072,0.9928	-6842.75
0.0059,0.9941	-6827.42
0.0057,0.9943	-6832.57
0.0079,0.9921	-6828.45
0.0079,0.9921	-6833.34
0.0073,0.9927	-6828.05
0.0091,0.9909	-6843.78
0.0062,0.9938	-6822.42
0.0044,0.9956	-6817.01
0.0068,0.9932	-6822.73
0.0082,0.9918	-6814.35
0.0070,0.9930	-6822.85
0.0100,0.9900	-6840.04
0.0059,0.9941	-6827.42
0.0040,0.9960	-6822.77
0.0064,0.9936	-6852.76
0.0077,0.9923	-6838.03
0.0068,0.9932	-6837.68
0.0090,0.9910	-6848.42
0.0060,0.9940	-6832.54
0.0044,0.9956	-6822.45
0.0070,0.9930	-6837.73
0.0104,0.9896	-6849.60
0.0068,0.9932	-6837.68
0.0087,0.9913	-6834.02
0.0072,0.9928	-6867.35
0.0054,0.9946	-6843.08
0.0062,0.9938	-6832.56
0.0095,0.9905	-6834.87
0.0055,0.9945	-6858.61
0.0086,0.9914	-6838.64
0.0069,0.9931	-6827.78
0.0049,0.9951	-6816.93
0.0052,0.9948	-6843.20
0.0088,0.9912	-6834.13
0.0055,0.9945	-6822.20
0.0090,0.9910	-6857.80
0.0073,0.9927	-6837.83
0.0044,0.9956	-6822.46
0.0053,0.9947	-6832.66
0.0080,0.9920	-6847.84
0.0052,0.9948	-6822.20
0.0074,0.9926	-6832.97
0.0055,0.9945	-6822.21
0.0042,0.9958	-6822.58
0.0051,0.9949	-6822.21
0.0069,0.9931	-6817.87
0.0065,0.9935	-6827.58
0.0062,0.9938	-6837.63
0.0044,0.9956	-6833.26
0.0061,0.9939	-6817.26
0.0050,0.9950	-6827.50
0.0052,0.9948	-6843.19
0.0062,0.9938	-6822.41
0.0060,0.9940	-6847.85
0.0042,0.9958	-6828.02
0.0058,0.9942	-6827.41
0.0049,0.9951	-6822.24
0.0050,0.9950	-6827.52
0.0049,0.9951	-6827.54
0.0059,0.9941	-6858.19
0.0047,0.9953	-6811.60
0.0048,0.9952	-6838.32
0.0045,0.9955	-6822.41
0.0042,0.9958	-6828.11
0.0058,0.9942	-6827.41
0.0073,0.9927	-6837.84
0.0044,0.9956	-6817.01
0.0062,0.9938	-6822.39
0.0043,0.9957	-6822.49
0.0048,0.9952	-6827.60
0.0061,0.9939	-6817.24
0.0072,0.9928	-6837.81
0.0052,0.9948	-6832.72
0.0065,0.9935	-6827.60
0.0046,0.9954	-6827.72
0.0039,0.9961	-6817.33
0.0056,0.9944	-6822.22
0.0078,0.9922	-6818.70
0.0040,0.9960	-6817.24
0.0073,0.9927	-6823.08
0.0047,0.9953	-6822.30
0.0030,0.9970	-6812.75
0.0052,0.9948	-6843.23
0.0066,0.9934	-6842.67
0.0046,0.9954	-6827.73
0.0069,0.9931	-6837.72
0.0041,0.9959	-6828.13
0.0030,0.9970	-6824.37
0.0045,0.9955	-6822.37
0.0063,0.9937	-6822.43
0.0052,0.9948	-6822.20
0.0055,0.9945	-6827.40
0.0044,0.9956	-6822.45
0.0029,0.9971	-6830.36
0.0053,0.9947	-6832.66
0.0061,0.9939	-6827.46
0.0049,0.9951	-6827.54
0.0064,0.9936	-6827.56
0.0045,0.9955	-6827.78
0.0033,0.9967	-6812.25
0.0072,0.9928	-6837.79
0.0050,0.9950	-6822.23
0.0049,0.9951	-6822.25
0.0054,0.9946	-6832.61
0.0043,0.9957	-6817.07
0.0031,0.9969	-6824.18
0.0076,0.9924	-6823.38
0.0048,0.9952	-6811.60
0.0045,0.9955	-6854.75
0.0052,0.9948	-6822.20
0.0034,0.9966	-6812.18
0.0024,0.9976	-6820.10
0.0080,0.9920	-6843.03
0.0045,0.9955	-6822.38
0.0056,0.9944	-6817.03
0.0063,0.9937	-6822.46
0.0029,0.9971	-6830.41
0.0029,0.9971	-6818.68
0.0076,0.9924	-6833.13
0.0050,0.9950	-6827.52
0.0059,0.9941	-6822.28
0.0076,0.9924	-6842.87
0.0029,0.9971	-6824.47
0.0030,0.9970	-6818.58
0.0067,0.9933	-6817.71
0.0052,0.9948	-6837.98
0.0057,0.9943	-6842.86
0.0080,0.9920	-6833.41
0.0044,0.9956	-6833.29
0.0029,0.9971	-6824.64
0.0073,0.9927	-6837.83
0.0051,0.9949	-6838.02
0.0066,0.9934	-6837.65
0.0080,0.9920	-6838.22
0.0042,0.9958	-6833.50
0.0026,0.9974	-6819.47
0.0076,0.9924	-6833.09
0.0039,0.9961	-6811.77
0.0080,0.9920	-6838.19
0.0066,0.9934	-6832.64
0.0042,0.9958	-6839.05
0.0024,0.9976	-6820.04
0.0079,0.9921	-6842.97
0.0038,0.9962	-6823.03
0.0112,0.9888	-6850.43
0.0050,0.9950	-6822.23
0.0041,0.9959	-6828.17
0.0024,0.9976	-6819.94
0.0071,0.9929	-6847.65
0.0038,0.9962	-6817.41
0.0092,0.9908	-6857.89
0.0047,0.9953	-6849.07
0.0045,0.9955	-6827.82
0.0030,0.9970	-6824.30
0.0065,0.9935	-6842.67
0.0044,0.9956	-6827.87
0.0079,0.9921	-6828.52
0.0039,0.9961	-6822.85
0.0046,0.9954	-6827.75
0.0038,0.9962	-6823.01
0.0059,0.9941	-6827.41
0.0057,0.9943	-6822.23
0.0076,0.9924	-6828.25
0.0043,0.9957	-6827.93
0.0041,0.9959	-6833.65
0.0039,0.9961	-6822.82
0.0070,0.9930	-6837.73
0.0058,0.9942	-6827.40
0.0090,0.9910	-6829.54
0.0045,0.9955	-6833.18
0.0055,0.9945	-6817.02
0.0042,0.9958	-6828.03
0.0064,0.9936	-6827.53
0.0074,0.9926	-6837.88
0.0076,0.9924	-6837.99
0.0051,0.9949	-6832.77
0.0056,0.9944	-6827.40
0.0041,0.9959	-6817.21
0.0062,0.9938	-6832.56
0.0079,0.9921	-6833.33
0.0095,0.9905	-6848.78
0.0051,0.9949	-6811.65
0.0057,0.9943	-6837.73
0.0034,0.9966	-6812.15
0.0058,0.9942	-6817.10
0.0080,0.9920	-6833.40
0.0073,0.9927	-6827.99
0.0047,0.9953	-6833.01
0.0045,0.9955	-6827.79
0.0033,0.9967	-6823.80
0.0057,0.9943	-6822.24
0.0084,0.9916	-6838.53
0.0079,0.9921	-6828.50
0.0065,0.9935	-6837.64
0.0038,0.9962	-6817.46
0.0031,0.9969	-6824.11
0.0049,0.9951	-6822.23
0.0082,0.9918	-6833.58
0.0082,0.9918	-6852.75
0.0064,0.9936	-6842.68
0.0035,0.9965	-6817.70
0.0036,0.9964	-6828.90
0.0048,0.9952	-6811.60
0.0075,0.9925	-6842.81
0.0080,0.9920	-6847.84
0.0053,0.9947	-6822.19
0.0033,0.9967	-6823.68
0.0039,0.9961	-6817.36
0.0056,0.9944	-6837.78
0.0081,0.9919	-6833.50
0.0076,0.9924	-6837.96
0.0044,0.9956	-6822.44
0.0031,0.9969	-6818.44
0.0044,0.9956	-6817.05
0.0061,0.9939	-6832.55
0.0067,0.9933	-6842.67
0.0079,0.9921	-6847.81
0.0050,0.9950	-6822.22
0.0026,0.9974	-6813.53
0.0035,0.9965	-6812.10
0.0071,0.9929	-6842.71
0.0068,0.9932	-6817.75
0.0075,0.9925	-6842.84
0.0049,0.9951	-6827.55
0.0029,0.9971	-6824.49
0.0039,0.9961	-6822.88
0.0069,0.9931	-6822.78
0.0073,0.9927	-6832.95
0.0062,0.9938	-6827.48
0.0044,0.9956	-6833.31
0.0028,0.9972	-6824.77
0.0039,0.9961	-6828.36
0.0061,0.9939	-6827.46
0.0062,0.9938	-6827.48
0.0075,0.9925	-6823.25
0.0056,0.9944	-6827.40
0.0032,0.9968	-6812.42
0.0038,0.9962	-6828.57
0.0067,0.9933	-6842.67
0.0064,0.9936	-6832.59
0.0064,0.9936	-6827.54
0.0048,0.9952	-6827.58
0.0029,0.9971	-6841.96
0.0032,0.9968	-6818.19
0.0066,0.9934	-6827.62
0.0060,0.9940	-6832.54
0.0073,0.9927	-6828.03
0.0052,0.9948	-6827.44
0.0027,0.9973	-6813.25
0.0038,0.9962	-6817.38
0.0054,0.9946	-6816.99
0.0064,0.9936	-6827.55
0.0076,0.9924	-6818.48
0.0056,0.9944	-6827.40
0.0032,0.9968	-6823.86
0.0040,0.9960	-6811.76
0.0056,0.9944	-6837.76
0.0070,0.9930	-6822.86
0.0073,0.9927	-6837.83
0.0056,0.9944	-6827.40
0.0035,0.9965	-6823.40
0.0057,0.9943	-6832.56
0.0050,0.9950	-6843.43
0.0060,0.9940	-6822.31
0.0069,0.9931	-6827.76
0.0082,0.9918	-6833.52
0.0042,0.9958	-6828.01
0.0049,0.9951	-6816.93
0.0049,0.9951	-6822.25
0.0059,0.9941	-6827.41
0.0083,0.9917	-6828.82
0.0080,0.9920	-6843.04
0.0043,0.9957	-6822.54
0.0053,0.9947	-6816.96
0.0045,0.9955	-6833.19
0.0057,0.9943	-6832.56
0.0061,0.9939	-6837.64
0.0077,0.9923	-6847.76
0.0050,0.9950	-6848.69
0.0045,0.9955	-6833.24
0.0043,0.9957	-6817.09
0.0058,0.9942	-6832.55
0.0059,0.9941	-6827.42
0.0090,0.9910	-6853.09
0.0055,0.9945	-6822.21
0.0050,0.9950	-6822.22
0.0040,0.9960	-6828.25
0.0046,0.9954	-6811.59
0.0067,0.9933	-6837.68
0.0103,0.9897	-6849.43
0.0044,0.9956	-6822.44
0.0047,0.9953	-6816.95
0.0044,0.9956	-6844.10
0.0062,0.9938	-6822.40
0.0057,0.9943	-6832.56
0.0097,0.9903	-6844.29
0.0049,0.9951	-6816.93
0.0046,0.9954	-6822.33
0.0047,0.9953	-6822.30
0.0061,0.9939	-6847.81
0.0056,0.9944	-6837.76
0.0084,0.9916	-6838.50
0.0055,0.9945	-6822.20
0.0057,0.9943	-6827.40
0.0040,0.9960	-6811.72
0.0060,0.9940	-6822.33
0.0057,0.9943	-6837.71
0.0098,0.9902	-6844.40
0.0042,0.9958	-6811.67
0.0047,0.9953	-6811.60
0.0059,0.9941	-6827.42
0.0068,0.9932	-6837.69
0.0048,0.9952	-6816.94
0.0107,0.9893	-6845.37
0.0058,0.9942	-6832.55
0.0051,0.9949	-6843.26
0.0083,0.9917	-6828.84
0.0058,0.9942	-6817.12
0.0060,0.9940	-6822.32
0.0084,0.9916	-6843.25
0.0061,0.9939	-6827.45
0.0071,0.9929	-6827.88
0.0078,0.9922	-6828.39
0.0055,0.9945	-6827.40
0.0059,0.9941	-6817.17
0.0068,0.9932	-6842.67
0.0055,0.9945	-6817.01
0.0057,0.9943	-6832.56
0.0068,0.9932	-6832.70
0.0058,0.9942	-6827.41
0.0062,0.9938	-6827.49
0.0053,0.9947	-6843.11
0.0058,0.9942	-6842.82
0.0057,0.9943	-6827.40
0.0072,0.9928	-6847.67
0.0071,0.9929	-6822.93
0.0064,0.9936	-6817.43
0.0052,0.9948	-6811.69
0.0060,0.9940	-6827.44
0.0052,0.9948	-6816.94
0.0062,0.9938	-6817.34
0.0076,0.9924	-6828.23
0.0047,0.9953	-6816.95
0.0061,0.9939	-6832.55
0.0053,0.9947	-6816.97
0.0063,0.9937	-6832.57
0.0074,0.9926	-6837.91
0.0073,0.9927	-6847.67
0.0053,0.9947	-6822.19
0.0060,0.9940	-6847.89
0.0063,0.9937	-6832.58
0.0064,0.9936	-6832.58
0.0067,0.9933	-6832.68
0.0072,0.9928	-6832.86
0.0052,0.9948	-6837.98
0.0064,0.9936	-6817.44
0.0076,0.9924	-6837.98
0.0055,0.9945	-6822.20
0.0057,0.9943	-6822.24
0.0062,0.9938	-6822.42
0.0054,0.9946	-6822.20
0.0064,0.9936	-6832.58
0.0088,0.9912	-6852.97
0.0060,0.9940	-6837.65
0.0058,0.9942	-6837.69
0.0049,0.9951	-6838.15
0.0065,0.9935	-6822.53
0.0066,0.9934	-6822.60
0.0083,0.9917	-6833.63
0.0044,0.9956	-6827.90
0.0069,0.9931	-6837.70
0.0041,0.9959	-6839.19
0.0087,0.9913	-6829.29
0.0061,0.9939	-6837.65
0.0088,0.9912	-6829.33
0.0045,0.9955	-6822.42
0.0066,0.9934	-6822.63
0.0046,0.9954	-6811.59
0.0090,0.9910	-6838.98
0.0069,0.9931	-6822.82
0.0100,0.9900	-6858.35
0.0045,0.9955	-6822.39
0.0069,0.9931	-6827.80
0.0043,0.9957	-6822.51
0.0092,0.9908	-6843.87
0.0068,0.9932	-6817.74
0.0106,0.9894	-6863.41
0.0046,0.9954	-6822.34
0.0061,0.9939	-6832.55
0.0047,0.9953	-6827.69
0.0086,0.9914	-6848.17
0.0070,0.9930	-6827.82
0.0100,0.9900	-6844.58
0.0052,0.9948	-6822.20
0.0048,0.9952	-6816.94
0.0045,0.9955	-6822.42
0.0087,0.9913	-6843.49
0.0061,0.9939	-6822.36
0.0096,0.9904	-6862.76
0.0046,0.9954	-6827.72
0.0064,0.9936	-6832.58
0.0043,0.9957	-6822.51
0.0086,0.9914	-6833.87
0.0064,0.9936	-6832.59
0.0067,0.9933	-6832.68
0.0037,0.9963	-6828.65
0.0073,0.9927	-6837.86
0.0042,0.9958	-6817.12
0.0065,0.9935	-6822.54
0.0069,0.9931	-6832.74
0.0049,0.9951	-6832.87
0.0039,0.9961	-6822.88
0.0099,0.9901	-6821.44
0.0056,0.9944	-6827.40
0.0052,0.9948	-6827.45
0.0085,0.9915	-6843.36
0.0051,0.9949	-6811.65
0.0043,0.9957	-6811.64
0.0085,0.9915	-6833.85
0.0043,0.9957	-6822.54
0.0066,0.9934	-6822.60
0.0084,0.9916	-6843.28
0.0054,0.9946	-6827.42
0.0043,0.9957	-6811.64
0.0085,0.9915	-6824.30
0.0045,0.9955	-6827.81
0.0077,0.9923	-6833.19
0.0088,0.9912	-6838.85
0.0046,0.9954	-6827.71
0.0050,0.9950	-6822.21
0.0078,0.9922	-6842.94
0.0050,0.9950	-6843.41
0.0057,0.9943	-6827.40
0.0097,0.9903	-6844.35
0.0050,0.9950	-6832.79
0.0047,0.9953	-6827.67
0.0082,0.9918	-6833.55
0.0042,0.9958	-6833.48
0.0063,0.9937	-6822.45
0.0116,0.9884	-6846.39
0.0057,0.9943	-6811.91
0.0049,0.9951	-6827.55
0.0076,0.9924	-6828.24
0.0046,0.9954	-6822.33
0.0067,0.9933	-6832.66
0.0129,0.9871	-6852.50
0.0064,0.9936	-6822.51
0.0057,0.9943	-6832.56
0.0071,0.9929	-6832.85
0.0053,0.9947	-6832.65
0.0059,0.9941	-6827.42
0.0119,0.9881	-6864.49
0.0070,0.9930	-6822.87
0.0064,0.9936	-6827.54
0.0070,0.9930	-6852.61
0.0063,0.9937	-6832.57
0.0067,0.9933	-6827.67
0.0109,0.9891	-6841.02
0.0057,0.9943	-6827.40
0.0058,0.9942	-6842.84
0.0058,0.9942	-6832.55
0.0064,0.9936	-6822.50
0.0069,0.9931	-6842.68
0.0096,0.9904	-6844.20
0.0050,0.9950	-6816.93
0.0062,0.9938	-6832.56
0.0076,0.9924	-6852.60
0.0060,0.9940	-6822.32
0.0065,0.9935	-6832.62
0.0091,0.9909	-6848.43
0.0055,0.9945	-6837.81
0.0063,0.9937	-6847.75
0.0073,0.9927	-6828.00
0.0049,0.9951	-6822.25
0.0071,0.9929	-6837.77
0.0088,0.9912	-6834.12
0.0062,0.9938	-6822.41
0.0062,0.9938	-6827.49
0.0063,0.9937	-6832.58
0.0058,0.9942	-6832.55
0.0075,0.9925	-6823.28
0.0089,0.9911	-6843.62
0.0058,0.9942	-6842.86
0.0071,0.9929	-6822.92
0.0058,0.9942	-6832.55
0.0049,0.9951	-6832.88
0.0067,0.9933	-6847.66
0.0098,0.9902	-6835.13
0.0049,0.9951	-6832.84
0.0072,0.9928	-6827.97
0.0073,0.9927	-6832.94
0.0036,0.9964	-6811.98
0.0065,0.9935	-6822.55
0.0074,0.9926	-6833.02
0.0051,0.9949	-6827.49
0.0076,0.9924	-6828.21
0.0062,0.9938	-6832.56
0.0033,0.9967	-6835.17
0.0072,0.9928	-6827.98
0.0055,0.9945	-6837.82
0.0048,0.9952	-6827.59
0.0061,0.9939	-6827.46
0.0049,0.9951	-6832.84
0.0034,0.9966	-6829.17
0.0069,0.9931	-6827.76
0.0050,0.9950	-6832.82
0.0049,0.9951	-6822.24
0.0063,0.9937	-6817.39
0.0049,0.9951	-6822.23
0.0039,0.9961	-6811.79
0.0060,0.9940	-6822.33
0.0043,0.9957	-6827.96
0.0055,0.9945	-6832.59
0.0074,0.9926	-6828.11
0.0055,0.9945	-6842.99
0.0037,0.9963	-6811.89
0.0062,0.9938	-6822.41
0.0042,0.9958	-6817.13
0.0051,0.9949	-6811.65
0.0085,0.9915	-6829.05
0.0041,0.9959	-6828.22
0.0044,0.9956	-6822.45
0.0063,0.9937	-6832.58
0.0040,0.9960	-6828.31
0.0052,0.9948	-6832.69
0.0089,0.9911	-6829.46
0.0044,0.9956	-6827.84
