#isoforms=['ENSG00000101294.SE.1.A.up_ENSG00000101294.SE.1.A.SE1_ENSG00000101294.SE.1.A.dn','ENSG00000101294.SE.1.B.up_ENSG00000101294.SE.1.B.dn']	exon_lens=('ENSG00000101294.SE.1.A.up',99),('ENSG00000101294.SE.1.A.SE1',376),('ENSG00000101294.SE.1.A.dn',89),('ENSG00000101294.SE.1.B.up',99),('ENSG00000101294.SE.1.B.dn',89)	iters=5000	burn_in=500	lag=10	percent_accept=77.16	proposal_type=drift	counts=(0,0):1089,(1,0):441,(1,1):488	assigned_counts=0:598,1:331	chrom=chr20	strand=+	mRNA_starts=31527484,31527484	mRNA_ends=31545035,31545035
sampled_psi	log_score
0.3063,0.6937	-5960.32
0.2995,0.7005	-5967.41
0.3178,0.6822	-5971.80
0.3637,0.6363	-5977.23
0.3661,0.6339	-5988.52
0.3069,0.6931	-5972.53
0.3351,0.6649	-5980.68
0.3323,0.6677	-5978.67
0.3173,0.6827	-5986.37
0.3724,0.6276	-5985.76
0.3815,0.6185	-5999.83
0.3269,0.6731	-5962.23
0.3605,0.6395	-5985.44
0.2758,0.7242	-5976.10
0.3256,0.6744	-5965.80
0.3548,0.6452	-5979.84
0.3822,0.6178	-5993.11
0.3337,0.6663	-5982.10
0.3436,0.6564	-5979.35
0.3165,0.6835	-5971.09
0.3029,0.6971	-5972.93
0.3558,0.6442	-5981.10
0.3311,0.6689	-5968.15
0.3630,0.6370	-5991.20
0.3221,0.6779	-5970.92
0.3008,0.6992	-5946.20
0.3325,0.6675	-5969.60
0.3559,0.6441	-5985.26
0.3416,0.6584	-5979.97
0.3192,0.6808	-5948.26
0.3186,0.6814	-5953.52
0.3317,0.6683	-5970.97
0.3453,0.6547	-5990.26
0.3690,0.6310	-5980.09
0.3080,0.6920	-5961.90
0.3415,0.6585	-5964.86
0.3454,0.6546	-5983.23
0.3659,0.6341	-5993.46
0.3478,0.6522	-5985.76
0.3260,0.6740	-5981.79
0.3436,0.6564	-5979.35
0.3556,0.6444	-5984.06
0.3564,0.6436	-5979.36
0.3568,0.6432	-5991.18
0.3522,0.6478	-5983.95
0.3049,0.6951	-5971.90
0.3433,0.6567	-5975.45
0.3250,0.6750	-5974.55
0.3122,0.6878	-5972.89
0.3482,0.6518	-5980.75
0.3925,0.6075	-6006.74
0.3017,0.6983	-5963.85
0.3561,0.6439	-5979.93
0.3310,0.6690	-5982.92
0.3274,0.6726	-5985.30
0.3359,0.6641	-5982.02
0.3765,0.6235	-5999.30
0.2781,0.7219	-5956.43
0.3561,0.6439	-5986.45
0.3128,0.6872	-5957.11
0.3478,0.6522	-5980.10
0.3273,0.6727	-5965.14
0.3205,0.6795	-5968.70
0.2932,0.7068	-5980.44
0.3369,0.6631	-5969.14
0.3321,0.6679	-5972.38
0.3753,0.6247	-5987.58
0.3549,0.6451	-5999.57
0.3198,0.6802	-5967.20
0.2919,0.7081	-5965.64
0.3569,0.6431	-5985.29
0.2756,0.7244	-5948.12
0.3092,0.6908	-5975.54
0.3449,0.6551	-5978.74
0.3340,0.6660	-5982.78
0.3168,0.6832	-5993.36
0.3124,0.6876	-5972.09
0.3477,0.6523	-5971.92
0.3370,0.6630	-5966.43
0.3563,0.6437	-5975.21
0.3420,0.6580	-5972.77
0.3150,0.6850	-5966.49
0.3448,0.6552	-5974.88
0.3288,0.6712	-5965.21
0.3668,0.6332	-5997.29
0.3891,0.6109	-5987.86
0.3174,0.6826	-5967.22
0.3306,0.6694	-5962.48
0.3322,0.6678	-5980.07
0.3213,0.6787	-5975.43
0.3360,0.6640	-5972.49
0.3722,0.6278	-5994.63
0.3150,0.6850	-5973.49
0.3265,0.6735	-5978.86
0.3256,0.6744	-5971.62
0.3226,0.6774	-5967.95
0.3162,0.6838	-5966.47
0.3726,0.6274	-5984.22
0.3261,0.6739	-5984.68
0.3228,0.6772	-5964.25
0.3516,0.6484	-5975.98
0.3297,0.6703	-5973.77
0.3159,0.6841	-5970.34
0.3615,0.6385	-5975.25
0.3355,0.6645	-5969.05
0.3021,0.6979	-5987.26
0.3480,0.6520	-5991.41
0.3291,0.6709	-5975.91
0.3489,0.6511	-5983.26
0.3255,0.6745	-5974.54
0.3232,0.6768	-5965.00
0.3128,0.6872	-5974.43
0.3368,0.6632	-5982.00
0.3605,0.6395	-5985.44
0.3190,0.6810	-5971.76
0.3623,0.6377	-5988.93
0.3520,0.6480	-5987.00
0.3182,0.6818	-5974.07
0.3381,0.6619	-5982.65
0.3271,0.6729	-5976.67
0.3321,0.6679	-5973.08
0.3343,0.6657	-5979.32
0.3168,0.6832	-5965.70
0.3430,0.6570	-5976.08
0.3357,0.6643	-5961.55
0.3240,0.6760	-5970.17
0.2993,0.7007	-5955.52
0.3359,0.6641	-5982.71
0.3119,0.6881	-5965.79
0.3245,0.6755	-5977.50
0.3534,0.6466	-5980.96
0.3433,0.6567	-5979.99
0.3214,0.6786	-5968.70
0.3217,0.6783	-5969.44
0.3226,0.6774	-5967.21
0.3104,0.6896	-5972.23
0.3339,0.6661	-5975.88
0.3363,0.6637	-5983.38
0.3147,0.6853	-5973.51
0.3404,0.6596	-5978.64
0.3515,0.6485	-5992.51
0.3272,0.6728	-5975.95
0.3279,0.6721	-5973.78
0.3291,0.6709	-5975.19
0.3068,0.6932	-5972.54
0.3452,0.6548	-5973.62
0.3631,0.6369	-5990.64
0.2954,0.7046	-5971.33
0.3130,0.6870	-5973.62
0.3687,0.6313	-5988.65
0.3168,0.6832	-5973.38
0.3483,0.6517	-5985.13
0.3459,0.6541	-5982.59
0.3416,0.6584	-5975.37
0.3055,0.6945	-5972.66
0.3556,0.6444	-5988.81
0.3378,0.6622	-5970.54
0.3348,0.6652	-5982.75
0.3267,0.6733	-5969.45
0.3379,0.6621	-5980.63
0.3134,0.6866	-5974.37
0.3476,0.6524	-5985.13
0.3418,0.6582	-5983.90
0.3428,0.6572	-5981.28
0.3272,0.6728	-5973.78
0.3293,0.6707	-5983.01
0.3189,0.6811	-5974.80
0.3373,0.6627	-5982.67
0.3145,0.6855	-5961.05
0.3752,0.6248	-5987.06
0.3321,0.6679	-5970.98
0.3314,0.6686	-5972.37
0.3386,0.6614	-5980.63
0.3096,0.6904	-5955.45
0.3161,0.6839	-5981.91
0.3352,0.6648	-5977.94
0.3797,0.6203	-5985.58
0.3495,0.6505	-5985.76
0.3166,0.6834	-5971.08
0.3247,0.6753	-5973.83
0.3112,0.6888	-5963.43
0.3059,0.6941	-5961.97
0.3686,0.6314	-5977.88
0.3429,0.6571	-5967.63
0.2939,0.7061	-5963.66
0.3170,0.6830	-5968.00
0.3369,0.6631	-5991.48
0.3252,0.6748	-5958.49
0.3850,0.6150	-5985.38
0.3236,0.6764	-5965.01
0.3107,0.6893	-5957.07
0.3106,0.6894	-5968.23
0.3487,0.6513	-5981.39
0.3633,0.6367	-5978.86
0.3982,0.6018	-5993.93
0.3617,0.6383	-5988.34
0.3377,0.6623	-5963.80
0.3024,0.6976	-5965.47
0.3657,0.6343	-5996.21
0.3426,0.6574	-5973.46
0.3706,0.6294	-5989.30
0.3373,0.6627	-5984.69
0.3283,0.6717	-5978.79
0.3102,0.6898	-5968.25
0.3626,0.6374	-5990.06
0.3419,0.6581	-5972.77
0.3338,0.6662	-5968.96
0.3217,0.6783	-5972.42
0.3416,0.6584	-5980.62
0.3323,0.6677	-5986.34
0.3466,0.6534	-5983.23
0.3391,0.6609	-5977.95
0.3710,0.6290	-5993.02
0.3237,0.6763	-5973.85
0.3537,0.6463	-5985.20
0.3421,0.6579	-5972.78
0.3203,0.6797	-5974.72
0.3683,0.6317	-5989.17
0.3750,0.6250	-5993.17
0.3077,0.6923	-5965.15
0.3280,0.6720	-5973.78
0.3494,0.6506	-5978.92
0.2974,0.7026	-5971.93
0.3545,0.6455	-5974.42
0.3558,0.6442	-5987.63
0.3135,0.6865	-5953.99
0.3184,0.6816	-5974.06
0.3622,0.6378	-5981.56
0.2951,0.7049	-5978.34
0.3687,0.6313	-6000.49
0.3300,0.6700	-5983.69
0.3335,0.6665	-5984.87
0.3108,0.6892	-5973.80
0.3423,0.6577	-5983.24
0.2945,0.7055	-5973.20
0.3210,0.6790	-5969.45
0.3602,0.6398	-5986.00
0.3446,0.6554	-5981.30
0.3046,0.6954	-5964.50
0.3238,0.6762	-5977.53
0.2828,0.7172	-5952.12
0.3402,0.6598	-5985.92
0.3279,0.6721	-5975.93
0.3125,0.6875	-5958.68
0.3358,0.6642	-5979.30
0.3572,0.6428	-5988.24
0.3192,0.6808	-5969.48
0.3321,0.6679	-5977.27
0.3500,0.6500	-5984.52
0.3019,0.6981	-5969.71
0.3478,0.6522	-5988.91
0.3173,0.6827	-5965.69
0.3196,0.6804	-5960.40
0.3290,0.6710	-5966.64
0.3594,0.6406	-5985.97
0.3219,0.6781	-5960.50
0.3734,0.6266	-5975.51
0.3433,0.6567	-5989.72
0.3302,0.6698	-5981.55
0.3457,0.6543	-5974.94
0.3402,0.6598	-5966.05
0.3380,0.6620	-5978.62
0.3599,0.6401	-5972.75
0.3305,0.6695	-5968.12
0.3496,0.6504	-5993.83
0.3311,0.6689	-5974.47
0.3724,0.6276	-5988.37
0.3334,0.6666	-5968.94
0.3201,0.6799	-5966.45
0.3318,0.6682	-5983.58
0.3510,0.6490	-5979.01
0.3435,0.6565	-5982.58
0.3442,0.6558	-5972.27
0.3300,0.6700	-5962.44
0.3652,0.6348	-5977.97
0.3214,0.6786	-5978.41
0.3292,0.6708	-5967.36
0.3611,0.6389	-5994.03
0.3132,0.6868	-5970.47
0.2995,0.7005	-5969.96
0.3196,0.6804	-5974.00
0.3280,0.6720	-5958.00
0.3190,0.6810	-5970.24
0.3691,0.6309	-5984.92
0.3121,0.6879	-5973.69
0.3176,0.6824	-5977.16
0.3353,0.6647	-5980.68
0.3488,0.6512	-5977.64
0.3438,0.6562	-5979.35
0.3391,0.6609	-5972.61
0.3365,0.6635	-5978.62
0.3358,0.6642	-5972.48
0.3511,0.6489	-5982.08
0.3279,0.6721	-5963.01
0.3325,0.6675	-5989.81
0.3637,0.6363	-5990.65
0.3476,0.6524	-5987.65
0.3049,0.6951	-5965.31
0.3168,0.6832	-5975.69
0.3259,0.6741	-5971.62
0.3480,0.6520	-6005.85
0.3874,0.6126	-5992.18
0.3535,0.6465	-5987.00
0.3424,0.6576	-5984.54
0.3076,0.6924	-5962.73
0.3198,0.6802	-5970.98
0.3436,0.6564	-5982.58
0.3620,0.6380	-5986.65
0.3572,0.6428	-5988.83
0.3115,0.6885	-5973.74
0.3260,0.6740	-5975.25
0.3427,0.6573	-5970.86
0.3478,0.6522	-5978.22
0.3821,0.6179	-5989.75
0.3437,0.6563	-5983.23
0.3414,0.6586	-5974.71
0.3213,0.6787	-5982.15
0.3432,0.6568	-5977.39
0.3111,0.6889	-5976.15
0.3554,0.6446	-6003.70
0.3345,0.6655	-5964.88
0.3383,0.6617	-5960.50
0.3094,0.6906	-5974.71
0.3525,0.6475	-5980.31
0.3159,0.6841	-5991.97
0.3387,0.6613	-5974.60
0.3150,0.6850	-5995.25
0.3578,0.6422	-5984.15
0.3005,0.6995	-5969.84
0.3350,0.6650	-5988.22
0.3365,0.6635	-5971.15
0.3378,0.6622	-5957.75
0.3248,0.6752	-5971.63
0.3551,0.6449	-5988.81
0.3215,0.6785	-5972.43
0.3697,0.6303	-5984.97
0.3613,0.6387	-5989.47
0.3618,0.6382	-5997.42
0.3273,0.6727	-5975.94
0.3565,0.6435	-5984.69
0.3039,0.6961	-5957.08
0.3478,0.6522	-5977.59
0.3374,0.6626	-5979.29
0.3376,0.6624	-5974.57
0.3420,0.6580	-5973.43
0.3296,0.6704	-5972.35
0.3181,0.6819	-5977.89
0.3469,0.6531	-5990.83
0.2992,0.7008	-5959.77
0.3043,0.6957	-5947.98
0.3046,0.6954	-5979.36
0.3597,0.6403	-5979.06
0.3570,0.6430	-5979.41
0.3364,0.6636	-5970.46
0.3007,0.6993	-5965.60
0.3197,0.6803	-5968.71
0.3182,0.6818	-5979.40
0.3309,0.6691	-5975.88
0.3380,0.6620	-5975.93
0.3504,0.6496	-5979.59
0.3456,0.6544	-5987.06
0.3233,0.6767	-5979.78
0.3148,0.6852	-5974.27
0.3284,0.6716	-5962.33
0.3239,0.6761	-5975.32
0.3068,0.6932	-5963.57
0.3426,0.6574	-5964.99
0.3416,0.6584	-5985.22
0.3119,0.6881	-5965.00
0.3681,0.6319	-5997.81
0.3348,0.6652	-5968.33
0.3233,0.6767	-5976.08
0.3441,0.6559	-5981.29
0.3391,0.6609	-5975.95
0.3115,0.6885	-5963.43
0.3507,0.6493	-5984.53
0.3010,0.6990	-5963.89
0.2979,0.7021	-5943.56
0.3443,0.6557	-5973.57
0.3630,0.6370	-5985.01
0.3019,0.6981	-5967.18
0.3630,0.6370	-5985.01
0.3007,0.6993	-5964.77
0.3348,0.6652	-5996.48
0.3379,0.6621	-5984.00
0.3605,0.6395	-5980.28
0.3237,0.6763	-5981.22
0.3248,0.6752	-5973.82
0.3715,0.6285	-5994.09
0.3196,0.6804	-5970.98
0.3167,0.6833	-5968.00
0.3247,0.6753	-5979.69
0.3406,0.6594	-5974.01
0.3136,0.6864	-5958.69
0.3186,0.6814	-5964.93
0.3263,0.6737	-5964.37
0.3486,0.6514	-5985.76
0.3133,0.6867	-5972.81
0.2917,0.7083	-5952.36
0.3162,0.6838	-5974.96
0.3104,0.6896	-5962.65
0.3275,0.6725	-5978.82
0.3126,0.6874	-5983.11
0.3311,0.6689	-5973.77
0.3360,0.6640	-5988.83
0.3078,0.6922	-5957.05
0.3105,0.6895	-5960.26
0.3222,0.6778	-5957.54
0.2858,0.7142	-5961.92
0.3640,0.6360	-5991.77
0.3345,0.6655	-5982.76
0.3116,0.6884	-5968.18
0.3594,0.6406	-5981.92
0.3140,0.6860	-5971.99
0.3291,0.6709	-5976.62
0.3510,0.6490	-5976.55
0.3427,0.6573	-5981.93
0.3220,0.6780	-5973.16
0.3399,0.6601	-5987.92
0.2881,0.7119	-5962.54
0.3326,0.6674	-5973.09
0.3264,0.6736	-5971.62
0.3731,0.6269	-5983.76
0.3830,0.6170	-5994.13
0.3891,0.6109	-5987.40
0.2841,0.7159	-5964.01
0.3045,0.6955	-5962.03
0.3517,0.6483	-5980.88
0.3328,0.6672	-5983.52
0.3623,0.6377	-5984.40
0.3443,0.6557	-5990.32
0.3006,0.6994	-5963.93
0.2997,0.7003	-5958.90
0.3558,0.6442	-5990.00
0.3341,0.6659	-5977.95
0.3234,0.6766	-5979.03
0.2916,0.7084	-5967.46
0.3075,0.6925	-5971.66
0.3066,0.6934	-5967.66
0.3389,0.6611	-5977.95
0.3092,0.6908	-5969.92
0.3242,0.6758	-5970.90
0.3110,0.6890	-5958.66
0.3275,0.6725	-5980.26
0.3062,0.6938	-5975.04
0.3461,0.6539	-5967.96
0.3130,0.6870	-5982.28
0.3196,0.6804	-5969.47
0.3086,0.6914	-5957.85
0.3153,0.6847	-5978.12
0.3185,0.6815	-5966.45
0.3462,0.6538	-5988.95
0.3043,0.6957	-5963.69
0.3513,0.6487	-5984.54
0.3131,0.6869	-5985.39
0.3471,0.6529	-5976.92
0.3303,0.6697	-5968.82
0.3125,0.6875	-5975.24
0.3328,0.6672	-5966.83
0.3299,0.6701	-5970.22
0.3297,0.6703	-5978.03
0.3408,0.6592	-5975.34
0.3752,0.6248	-5984.52
0.3480,0.6520	-5978.86
0.3325,0.6675	-5979.36
0.3241,0.6759	-5967.23
0.3328,0.6672	-5983.53
0.3473,0.6527	-5986.40
0.3505,0.6495	-5979.59
0.3285,0.6715	-5981.64
0.3101,0.6899	-5970.66
0.3175,0.6825	-5964.93
0.3396,0.6604	-5991.93
0.3123,0.6877	-5974.46
0.3590,0.6410	-5982.47
0.3270,0.6730	-5974.51
0.3557,0.6443	-5979.90
0.3321,0.6679	-5986.35
0.3533,0.6467	-5987.00
0.3217,0.6783	-5976.15
0.3230,0.6770	-5972.39
0.3169,0.6831	-5977.98
0.3240,0.6760	-5981.20
0.3233,0.6767	-5975.34
0.3391,0.6609	-5976.62
0.3504,0.6496	-5986.38
0.2897,0.7103	-5951.58
0.3198,0.6802	-5970.97
0.3338,0.6662	-5974.49
0.3255,0.6745	-5989.11
0.3428,0.6572	-5984.54
0.3612,0.6388	-5992.89
0.3133,0.6867	-5975.95
0.3077,0.6923	-5956.24
0.3669,0.6331	-5992.37
0.2997,0.7003	-5962.29
0.3359,0.6641	-5969.08
0.3480,0.6520	-5980.11
0.3043,0.6957	-5981.06
0.3379,0.6621	-5977.27
0.3701,0.6299	-5985.54
0.3297,0.6703	-5985.83
0.3339,0.6661	-5977.95
0.2998,0.7002	-5968.23
0.2865,0.7135	-5944.49
0.3426,0.6574	-5981.28
0.3368,0.6632	-5973.87
0.3574,0.6426	-5982.96
0.3209,0.6791	-5981.44
0.3262,0.6738	-5972.35
0.3255,0.6745	-5978.91
0.3392,0.6608	-5994.63
0.3021,0.6979	-5971.36
0.3662,0.6338	-5980.84
0.3542,0.6458	-5978.00
0.3484,0.6516	-5991.39
0.3276,0.6724	-5959.40
0.2975,0.7025	-5970.19
0.3395,0.6605	-5985.28
0.3279,0.6721	-5969.47
0.3609,0.6391	-5987.75
0.3349,0.6651	-5976.57
0.3494,0.6506	-5982.65
0.3183,0.6817	-5961.12
0.3346,0.6654	-5984.13
0.3308,0.6692	-5961.08
0.3540,0.6460	-5975.58
0.3143,0.6857	-5961.83
0.3482,0.6518	-5973.22
0.3480,0.6520	-5976.35
0.3671,0.6329	-5989.11
0.3395,0.6605	-5985.28
0.3249,0.6751	-5985.52
0.3258,0.6742	-5976.71
0.3301,0.6699	-5973.06
0.3218,0.6782	-5978.39
0.3568,0.6432	-5981.75
0.3132,0.6868	-5965.76
0.3273,0.6727	-5967.30
0.3410,0.6590	-5989.19
0.2809,0.7191	-5958.89
0.3331,0.6669	-5980.73
0.3416,0.6584	-5979.97
0.3313,0.6687	-5963.94
0.3287,0.6713	-5968.77
0.3102,0.6898	-5954.66
0.3051,0.6949	-5950.48
0.3724,0.6276	-5981.07
0.3221,0.6779	-5967.20
0.3167,0.6833	-5966.47
0.3347,0.6653	-5977.94
0.3372,0.6628	-5983.35
0.3130,0.6870	-5976.76
0.3872,0.6128	-5989.86
0.3426,0.6574	-5974.76
0.3142,0.6858	-5966.51
0.3485,0.6515	-5978.25
0.3494,0.6506	-5990.11
0.3651,0.6349	-5990.13
0.3842,0.6158	-5988.08
0.2927,0.7073	-5978.78
0.3011,0.6989	-5974.84
0.3242,0.6758	-5977.51
0.3310,0.6690	-5968.84
0.3256,0.6744	-5979.63
0.4044,0.5956	-5997.93
0.2858,0.7142	-5955.51
0.3159,0.6841	-5966.48
0.3327,0.6673	-5981.44
0.3222,0.6778	-5976.87
0.3588,0.6412	-5980.14
0.4041,0.5959	-6003.73
0.3202,0.6798	-5965.69
0.3175,0.6825	-5967.99
0.3219,0.6781	-5989.55
0.3461,0.6539	-5987.05
0.3322,0.6678	-5969.59
0.3812,0.6188	-5994.98
0.3423,0.6577	-5966.91
0.3208,0.6792	-5967.95
0.3428,0.6572	-5986.49
0.3390,0.6610	-5981.96
0.3355,0.6645	-5986.82
0.3484,0.6516	-5980.75
0.3389,0.6611	-5981.29
0.3144,0.6856	-5969.63
0.3206,0.6794	-5967.95
0.3563,0.6437	-5986.45
0.3226,0.6774	-5982.79
0.3184,0.6816	-5983.20
0.3258,0.6742	-5975.26
0.3410,0.6590	-5969.42
0.3196,0.6804	-5973.25
0.3510,0.6490	-5973.47
0.3119,0.6881	-5983.19
0.3469,0.6531	-5978.18
0.3487,0.6513	-5982.01
0.3417,0.6583	-5971.44
0.3268,0.6732	-5976.68
0.3333,0.6667	-5962.70
0.3164,0.6836	-5972.63
0.3499,0.6501	-5982.04
0.3490,0.6510	-5989.50
0.2914,0.7086	-5970.15
0.3484,0.6516	-5978.87
0.3352,0.6648	-5977.94
0.3218,0.6782	-5995.54
0.3237,0.6763	-5975.33
0.3585,0.6415	-5982.44
0.3278,0.6722	-5983.11
0.3242,0.6758	-5972.37
0.2975,0.7025	-5964.18
0.3491,0.6509	-5983.27
0.3341,0.6659	-5973.81
0.3449,0.6551	-5981.30
0.3692,0.6308	-5984.93
0.3598,0.6402	-5991.17
0.3401,0.6599	-5981.95
0.3415,0.6585	-5978.00
0.3210,0.6790	-5964.95
0.3300,0.6700	-5975.89
0.3615,0.6385	-5981.50
0.3488,0.6512	-5983.89
0.3490,0.6510	-5980.77
0.3619,0.6381	-5975.30
0.2991,0.7009	-5967.45
0.3203,0.6797	-5976.23
0.3462,0.6538	-5976.24
0.3429,0.6571	-5981.93
0.2963,0.7037	-5960.82
0.3468,0.6532	-5976.27
0.3126,0.6874	-5985.47
0.3488,0.6512	-5966.41
0.3686,0.6314	-5990.26
0.3614,0.6386	-5982.07
0.3245,0.6755	-5970.90
0.3231,0.6769	-5971.65
0.3478,0.6522	-5987.02
0.3124,0.6876	-5972.88
0.3680,0.6320	-5986.45
0.3557,0.6443	-5987.63
0.3249,0.6751	-5976.02
0.3229,0.6771	-5977.58
0.3420,0.6580	-5978.01
0.3325,0.6675	-5978.66
0.3536,0.6464	-5986.40
0.3520,0.6480	-5994.93
0.3067,0.6933	-5977.44
0.3254,0.6746	-5967.25
0.3300,0.6700	-5982.97
0.3461,0.6539	-5981.96
0.3662,0.6338	-5991.26
0.3618,0.6382	-5990.61
0.3186,0.6814	-5966.45
0.3258,0.6742	-5968.71
0.3028,0.6972	-5957.11
0.3453,0.6547	-5977.47
0.3593,0.6407	-5994.06
0.3724,0.6276	-5990.98
0.3525,0.6475	-5983.96
0.3112,0.6888	-5969.79
0.3079,0.6921	-5960.29
0.3223,0.6777	-5978.36
0.3385,0.6615	-5978.62
0.3540,0.6460	-5974.98
0.3261,0.6739	-5972.35
0.2948,0.7052	-5954.84
0.3140,0.6860	-5961.05
0.3280,0.6720	-5978.80
0.3335,0.6665	-5971.03
0.3348,0.6652	-5975.88
0.3480,0.6520	-5987.02
0.3026,0.6974	-5960.45
0.3569,0.6431	-5994.12
0.3346,0.6654	-5972.44
0.3334,0.6666	-5986.96
0.3437,0.6563	-5981.29
0.3029,0.6971	-5977.94
0.3473,0.6527	-5983.87
0.3783,0.6217	-6000.80
0.3480,0.6520	-5976.97
0.3382,0.6618	-5976.60
0.3267,0.6733	-5970.17
0.3371,0.6629	-5998.90
0.3689,0.6311	-5992.96
0.3316,0.6684	-5981.49
0.3102,0.6898	-5966.65
0.3386,0.6614	-5980.63
0.3919,0.6081	-5999.72
0.3431,0.6569	-5976.09
0.3335,0.6665	-5975.18
0.2956,0.7044	-5966.09
0.3587,0.6413	-5992.33
0.3490,0.6510	-5979.52
0.3563,0.6437	-5979.94
0.3366,0.6634	-5976.58
0.3404,0.6596	-5977.97
0.2945,0.7055	-5964.47
0.3242,0.6758	-5981.18
0.2948,0.7052	-5975.78
0.3044,0.6956	-5952.11
0.3053,0.6947	-5957.06
0.3664,0.6336	-5980.86
0.2923,0.7077	-5963.83
0.3141,0.6859	-5975.11
0.2905,0.7095	-5971.19
0.3595,0.6405	-5985.97
0.3092,0.6908	-5963.48
0.3684,0.6316	-5983.25
0.3152,0.6848	-5966.49
0.3454,0.6546	-5987.06
0.2960,0.7040	-5979.91
0.3478,0.6522	-5993.31
0.3179,0.6821	-5976.38
0.3908,0.6092	-5989.89
0.2953,0.7047	-5953.08
0.3744,0.6256	-5990.07
0.2973,0.7027	-5959.90
0.3784,0.6216	-5991.37
0.3301,0.6699	-5957.49
0.3688,0.6312	-5988.12
0.3366,0.6634	-5975.22
0.3722,0.6278	-5990.97
0.3327,0.6673	-5967.52
0.3474,0.6526	-5992.07
0.3751,0.6249	-5989.09
0.3390,0.6610	-5977.29
0.3649,0.6351	-5987.35
0.3514,0.6486	-5996.19
0.3556,0.6444	-5992.38
0.3132,0.6868	-5979.10
0.3616,0.6384	-5980.95
0.3515,0.6485	-5976.58
0.3460,0.6540	-5983.23
0.3393,0.6607	-5983.29
0.3490,0.6510	-5982.02
0.2970,0.7030	-5945.27
0.3180,0.6820	-5981.71
0.3447,0.6553	-5989.01
0.2943,0.7057	-5953.12
0.3508,0.6492	-5977.76
0.3265,0.6735	-5977.41
0.3452,0.6548	-5986.43
0.3079,0.6921	-5955.43
0.3582,0.6418	-5979.50
0.3267,0.6733	-5968.73
0.3420,0.6580	-5993.71
0.3280,0.6720	-5976.64
0.3611,0.6389	-5972.92
0.3185,0.6815	-5964.17
0.3350,0.6650	-5976.57
0.3703,0.6297	-5985.03
0.3515,0.6485	-5994.35
0.3163,0.6837	-5981.89
0.3876,0.6124	-6004.09
0.3607,0.6393	-5987.74
0.3217,0.6783	-5962.73
0.3014,0.6986	-5970.59
0.3548,0.6452	-5978.05
0.3025,0.6975	-5966.30
0.3625,0.6375	-5975.94
0.3263,0.6737	-5976.69
0.3187,0.6813	-5980.88
0.2911,0.7089	-5963.07
0.3832,0.6168	-5986.05
0.3380,0.6620	-5975.26
0.3590,0.6410	-5977.25
0.3122,0.6878	-5973.68
0.3406,0.6594	-5972.03
0.2812,0.7188	-5961.66
0.3760,0.6240	-5992.21
0.3380,0.6620	-5971.89
0.3519,0.6481	-5981.50
0.3200,0.6800	-5976.25
0.3234,0.6766	-5977.55
0.2710,0.7290	-5946.72
0.3609,0.6391	-5980.89
0.3367,0.6633	-5989.47
0.3424,0.6576	-5980.63
0.3331,0.6669	-5971.71
0.3263,0.6737	-5952.05
0.3323,0.6677	-5966.80
0.3599,0.6401	-5987.71
0.3844,0.6156	-5990.46
0.3240,0.6760	-5959.14
0.3187,0.6813	-5958.09
0.3443,0.6557	-5987.74
0.3209,0.6791	-5964.95
0.3563,0.6437	-5984.68
0.3722,0.6278	-5982.08
0.3267,0.6733	-5978.85
0.2864,0.7136	-5970.06
0.3449,0.6551	-5981.30
0.3520,0.6480	-5971.13
0.3656,0.6344	-5988.49
0.3324,0.6676	-5965.41
0.3228,0.6772	-5962.02
0.3310,0.6690	-5966.73
0.3313,0.6687	-5973.77
0.3588,0.6412	-5979.56
0.3444,0.6556	-5971.00
0.3450,0.6550	-5968.48
0.3636,0.6364	-5985.05
0.3350,0.6650	-5980.68
0.3514,0.6486	-5986.38
0.3457,0.6543	-5974.93
0.3398,0.6602	-5984.60
0.3114,0.6886	-5968.19
0.4001,0.5999	-5997.44
0.3296,0.6704	-5978.74
0.3519,0.6481	-5985.77
0.3280,0.6720	-5962.30
0.3400,0.6600	-5981.95
0.3556,0.6444	-5979.30
0.3719,0.6281	-5985.18
0.3338,0.6662	-5969.65
0.3215,0.6785	-5984.38
0.3604,0.6396	-5979.69
0.3240,0.6760	-5971.64
0.3829,0.6171	-5984.58
0.3695,0.6305	-5983.36
0.3397,0.6603	-5987.27
0.3271,0.6729	-5978.83
0.3619,0.6381	-5982.11
0.3699,0.6301	-5994.58
0.3548,0.6452	-5979.25
0.3767,0.6233	-5990.23
0.3308,0.6692	-5971.66
0.3374,0.6626	-5985.36
0.3488,0.6512	-5976.39
0.3459,0.6541	-5987.05
0.3458,0.6542	-5980.04
0.3637,0.6363	-5982.26
0.3180,0.6820	-5970.27
0.3496,0.6504	-5974.58
0.3420,0.6580	-5976.70
0.3520,0.6480	-5999.81
0.3374,0.6626	-5981.31
0.3286,0.6714	-5960.91
0.3373,0.6627	-5966.46
0.3298,0.6702	-5982.99
0.3547,0.6453	-5991.81
0.3511,0.6489	-5987.61
0.3093,0.6907	-5966.69
0.3258,0.6742	-5980.35
0.3244,0.6756	-5987.04
0.3070,0.6930	-5964.38
0.3620,0.6380	-5994.02
0.3662,0.6338	-5984.68
0.3220,0.6780	-5985.82
0.3386,0.6614	-5970.59
0.3292,0.6708	-5981.60
0.3435,0.6565	-5971.57
0.3406,0.6594	-5979.96
0.3105,0.6895	-5961.05
0.3208,0.6792	-5976.95
0.3331,0.6669	-5982.12
0.3345,0.6655	-5974.50
0.3644,0.6356	-5978.98
0.3218,0.6782	-5963.47
0.3409,0.6591	-5965.46
0.3411,0.6589	-5973.38
0.3317,0.6683	-5957.67
0.3157,0.6843	-5970.35
0.3417,0.6583	-5977.35
0.3285,0.6715	-5972.34
0.3730,0.6270	-5988.41
0.3031,0.6969	-5976.25
0.3397,0.6603	-5973.97
0.3328,0.6672	-5987.70
0.3605,0.6395	-5983.14
0.3155,0.6845	-5980.42
0.3348,0.6652	-5975.19
0.3057,0.6943	-5969.36
0.3390,0.6610	-5980.62
0.3702,0.6298	-5986.08
0.3519,0.6481	-5982.11
0.2799,0.7201	-5973.19
0.3533,0.6467	-5976.73
0.3328,0.6672	-5984.22
0.3433,0.6567	-5971.56
0.3401,0.6599	-5972.67
0.3401,0.6599	-5983.27
0.3291,0.6709	-5971.63
0.3257,0.6743	-5976.72
0.3567,0.6433	-5982.93
0.3429,0.6571	-5976.73
0.3026,0.6974	-5965.46
0.3351,0.6649	-5978.62
0.3492,0.6508	-5983.27
0.3010,0.6990	-5977.38
0.3417,0.6583	-5981.93
0.3553,0.6447	-5988.22
0.3225,0.6775	-5962.75
0.3394,0.6606	-5980.62
0.3247,0.6753	-5973.83
0.3071,0.6929	-5962.74
0.3101,0.6899	-5973.85
0.3240,0.6760	-5967.96
0.3381,0.6619	-5992.05
0.3460,0.6540	-5971.77
0.3451,0.6549	-5973.62
0.3385,0.6615	-5974.60
0.3317,0.6683	-5979.38
0.3502,0.6498	-5985.14
0.3489,0.6511	-5980.77
0.3319,0.6681	-5969.58
0.3172,0.6828	-5984.86
0.3544,0.6456	-5984.02
0.3228,0.6772	-5967.21
0.3471,0.6529	-5978.81
0.3745,0.6255	-5990.08
0.3887,0.6113	-5992.32
0.3537,0.6463	-5985.20
0.3495,0.6505	-5965.88
0.3402,0.6598	-5976.65
0.3424,0.6576	-5976.71
0.3299,0.6701	-5976.60
0.3644,0.6356	-5983.99
0.3742,0.6258	-5994.17
0.3467,0.6533	-5985.14
0.3165,0.6835	-5974.94
0.3309,0.6691	-5964.62
0.3522,0.6478	-5994.92
0.3440,0.6560	-5973.55
0.3318,0.6682	-5971.68
0.3396,0.6604	-6000.58
0.2920,0.7080	-5986.90
0.3182,0.6818	-5971.02
0.3186,0.6814	-5974.81
0.3513,0.6487	-5985.15
0.3366,0.6634	-5977.26
0.3478,0.6522	-5990.16
0.3077,0.6923	-5967.59
0.2929,0.7071	-5968.16
0.3156,0.6844	-5970.35
0.3521,0.6479	-5990.04
0.3068,0.6932	-5961.94
0.3886,0.6114	-5994.57
0.3536,0.6464	-5988.81
0.3110,0.6890	-5966.62
0.3571,0.6429	-5988.82
0.3289,0.6711	-5973.77
0.3587,0.6413	-5979.55
0.3247,0.6753	-5975.29
0.3722,0.6278	-5988.35
0.3166,0.6834	-5988.78
0.3441,0.6559	-5978.07
0.3015,0.6985	-5978.99
0.3661,0.6339	-5994.01
0.3197,0.6803	-5963.43
0.3489,0.6511	-5973.90
0.3203,0.6797	-5972.47
0.3088,0.6912	-5969.13
0.3642,0.6358	-5983.42
0.3732,0.6268	-5986.87
0.3246,0.6754	-5966.50
0.3479,0.6521	-5986.39
0.3656,0.6344	-5988.49
0.3202,0.6798	-5975.48
0.3611,0.6389	-5982.05
0.3601,0.6399	-5973.35
0.3487,0.6513	-5972.02
0.3002,0.6998	-5961.41
0.3668,0.6332	-5989.10
0.3471,0.6529	-5976.92
0.3556,0.6444	-5985.84
0.3266,0.6734	-5981.03
0.3735,0.6265	-5984.31
0.3245,0.6755	-5956.97
0.3331,0.6669	-5970.32
0.3193,0.6807	-5980.08
0.3361,0.6639	-5965.00
0.3430,0.6570	-5985.18
0.3520,0.6480	-5988.83
0.3211,0.6789	-5958.96
0.3574,0.6426	-5977.09
0.3436,0.6564	-5989.70
0.3441,0.6559	-5978.71
0.3329,0.6671	-5974.48
0.3482,0.6518	-5983.88
0.3256,0.6744	-5987.64
0.3429,0.6571	-5970.88
0.3341,0.6659	-5980.70
0.3391,0.6609	-5977.95
0.3294,0.6706	-5979.45
0.3218,0.6782	-5953.04
0.3534,0.6466	-5982.77
0.3568,0.6432	-5985.29
0.3470,0.6530	-5964.91
0.3682,0.6318	-5984.31
0.3157,0.6843	-5969.58
0.3828,0.6172	-5991.25
0.3315,0.6685	-5983.60
0.3143,0.6857	-5975.87
0.3342,0.6658	-5975.19
0.3399,0.6601	-5980.62
0.3519,0.6481	-5982.11
0.3153,0.6847	-5969.59
0.3480,0.6520	-5973.20
0.3225,0.6775	-5982.05
0.3428,0.6572	-5982.58
0.3662,0.6338	-5984.68
0.3464,0.6536	-5982.60
0.3459,0.6541	-5978.77
0.3313,0.6687	-5963.24
0.3109,0.6891	-5965.03
0.3408,0.6592	-5976.00
0.3906,0.6094	-5997.87
0.3383,0.6617	-5965.87
0.3675,0.6325	-5979.35
0.3350,0.6650	-5971.08
0.3234,0.6766	-5968.69
0.3522,0.6478	-5975.42
0.3441,0.6559	-5970.33
0.3083,0.6917	-5969.98
0.3346,0.6654	-5955.26
0.3125,0.6875	-5969.72
0.3446,0.6554	-5991.59
0.3877,0.6123	-5989.46
0.3370,0.6630	-5970.49
0.3179,0.6821	-5974.85
0.3114,0.6886	-5980.10
0.3133,0.6867	-5968.89
0.3337,0.6663	-5977.95
0.3971,0.6029	-5995.45
0.3479,0.6521	-5979.48
0.3429,0.6571	-5972.83
0.3337,0.6663	-5969.65
0.3260,0.6740	-5970.17
0.3203,0.6797	-5954.41
0.3511,0.6489	-5984.54
0.3290,0.6710	-5979.47
0.3671,0.6329	-5986.39
0.3293,0.6707	-5970.92
0.3157,0.6843	-5969.58
0.3010,0.6990	-5967.26
0.3477,0.6523	-5985.13
0.3296,0.6704	-5973.77
0.3617,0.6383	-5993.45
0.3514,0.6486	-5979.64
0.3379,0.6621	-5981.31
0.3457,0.6543	-5969.20
0.3656,0.6344	-5976.92
0.3273,0.6727	-5973.06
0.3811,0.6189	-5996.43
0.3508,0.6492	-5981.46
0.3300,0.6700	-5969.52
0.3430,0.6570	-5972.18
0.3757,0.6243	-5995.75
0.3650,0.6350	-5981.82
0.3749,0.6251	-5983.97
0.3358,0.6642	-5988.85
0.3253,0.6747	-5975.27
0.3378,0.6622	-5969.86
0.3483,0.6517	-5970.09
0.3412,0.6588	-5975.36
0.3509,0.6491	-5986.38
0.3211,0.6789	-5993.41
0.3327,0.6673	-5971.00
0.3132,0.6868	-5975.18
0.3721,0.6279	-5985.20
0.3273,0.6727	-5970.90
0.3281,0.6719	-5973.78
0.3327,0.6673	-5976.57
0.3181,0.6819	-5969.50
0.3006,0.6994	-5972.37
0.3561,0.6439	-5989.41
0.3418,0.6582	-5984.56
0.3622,0.6378	-5987.23
0.3128,0.6872	-5962.62
0.3537,0.6463	-5980.37
0.2956,0.7044	-5977.38
0.3704,0.6296	-5994.06
0.3350,0.6650	-5979.31
0.3805,0.6195	-5984.70
0.3120,0.6880	-5965.00
0.3566,0.6434	-5982.33
0.2849,0.7151	-5951.92
0.3240,0.6760	-5981.20
0.3491,0.6509	-5972.67
0.4131,0.5869	-6008.26
0.3771,0.6229	-5985.25
0.3791,0.6209	-5998.82
0.2865,0.7135	-5947.23
0.3057,0.6943	-5991.51
0.3514,0.6486	-5984.54
0.4049,0.5951	-5993.76
0.3494,0.6506	-5981.41
0.3243,0.6757	-5967.96
0.3227,0.6773	-5967.95
0.3176,0.6824	-5974.10
0.3742,0.6258	-5989.53
0.3478,0.6522	-5986.39
0.3327,0.6673	-5984.23
0.3293,0.6707	-5970.21
0.3363,0.6637	-5977.94
0.3298,0.6702	-5974.48
0.3416,0.6584	-5981.94
0.3117,0.6883	-5977.69
0.3527,0.6473	-5990.03
0.3556,0.6444	-5978.12
0.3562,0.6438	-5975.20
0.3170,0.6830	-5976.44
0.3379,0.6621	-5970.54
0.2984,0.7016	-5960.68
0.3359,0.6641	-5977.94
0.3189,0.6811	-5960.38
0.3606,0.6394	-5990.03
0.3469,0.6531	-5975.01
0.3320,0.6680	-5989.16
0.3387,0.6613	-5984.64
0.3236,0.6764	-5968.69
0.3422,0.6578	-5974.75
0.3280,0.6720	-5968.75
0.3392,0.6608	-5979.96
0.3453,0.6547	-5984.51
0.3081,0.6919	-5974.04
0.3652,0.6348	-5973.55
0.3328,0.6672	-5971.00
0.3447,0.6553	-5983.23
0.3245,0.6755	-5981.16
0.3300,0.6700	-5976.60
0.3660,0.6340	-5987.96
0.3231,0.6769	-5969.43
0.3471,0.6529	-5983.87
0.3205,0.6795	-5963.44
0.3063,0.6937	-5967.68
0.3611,0.6389	-5978.62
0.3308,0.6692	-5982.22
0.3189,0.6811	-5977.07
0.3191,0.6809	-5958.87
0.3159,0.6841	-5974.20
0.2838,0.7162	-5969.60
0.3208,0.6792	-5979.95
0.3358,0.6642	-5985.44
0.3150,0.6850	-5969.60
0.3529,0.6471	-5988.21
0.3286,0.6714	-5983.06
0.3423,0.6577	-5969.53
0.3351,0.6649	-5978.62
0.3354,0.6646	-5964.94
0.3511,0.6489	-5983.31
0.3302,0.6698	-5979.43
0.3032,0.6968	-5967.08
0.3409,0.6591	-5968.76
0.3454,0.6546	-5974.28
0.3398,0.6602	-5981.29
0.3738,0.6262	-5983.84
0.3630,0.6370	-5982.20
0.3246,0.6754	-5970.17
0.3196,0.6804	-5967.20
0.3382,0.6618	-5971.90
0.3246,0.6754	-5984.82
0.3864,0.6136	-5980.51
0.3479,0.6521	-5980.11
0.2962,0.7038	-5966.89
0.3282,0.6718	-5968.04
0.3348,0.6652	-5982.75
0.3369,0.6631	-5976.58
0.3750,0.6250	-5989.60
0.3599,0.6401	-5994.62
0.3405,0.6595	-5972.69
0.3427,0.6573	-5980.63
0.3536,0.6464	-5988.81
0.3287,0.6713	-5968.77
0.3738,0.6262	-5997.76
0.3828,0.6172	-5995.07
0.3392,0.6608	-5988.63
0.3269,0.6731	-5987.51
0.3323,0.6677	-5973.78
0.3100,0.6900	-5965.86
0.3415,0.6585	-5987.84
0.3422,0.6578	-5985.20
0.3092,0.6908	-5975.54
0.3222,0.6778	-5963.49
0.3077,0.6923	-5967.59
0.3382,0.6618	-5977.27
0.3182,0.6818	-5977.88
0.3020,0.6980	-5960.48
0.3266,0.6734	-5965.11
0.3547,0.6453	-5985.22
0.3588,0.6412	-5987.69
0.3106,0.6894	-5971.42
0.3534,0.6466	-5985.19
0.2913,0.7087	-5953.27
0.3434,0.6566	-5992.95
0.3284,0.6716	-5975.20
0.3314,0.6686	-5975.88
0.2986,0.7014	-5947.00
0.3501,0.6499	-5966.58
0.3423,0.6577	-5974.10
0.3331,0.6669	-5976.57
0.3495,0.6505	-5983.27
0.3332,0.6668	-5982.81
0.3371,0.6629	-5985.38
0.3289,0.6711	-5963.79
0.3259,0.6741	-5975.98
0.3293,0.6707	-5977.33
0.3371,0.6629	-5984.70
0.3448,0.6552	-5988.36
0.3095,0.6905	-5966.68
0.3457,0.6543	-5980.04
0.3727,0.6273	-5993.60
0.3215,0.6785	-5978.40
0.3246,0.6754	-5986.29
0.3681,0.6319	-5995.64
0.3205,0.6795	-5977.72
0.3432,0.6568	-5970.90
0.3970,0.6030	-5999.20
0.3002,0.6998	-5970.73
0.3218,0.6782	-5985.09
0.3657,0.6343	-5992.35
0.3520,0.6480	-5980.28
0.3388,0.6612	-5973.94
0.3853,0.6147	-5989.63
0.3202,0.6798	-5970.96
0.3267,0.6733	-5968.00
0.3552,0.6448	-5994.18
0.3399,0.6601	-5981.95
0.3014,0.6986	-5981.52
0.3921,0.6079	-5991.83
0.3114,0.6886	-5974.54
0.3284,0.6716	-5974.49
0.3511,0.6489	-5986.99
0.3498,0.6502	-5982.66
0.3158,0.6842	-5958.75
0.3557,0.6443	-5984.66
0.3199,0.6801	-5973.99
0.3610,0.6390	-5976.90
0.3360,0.6640	-5984.75
0.3512,0.6488	-5982.08
0.3464,0.6536	-5974.34
0.3344,0.6656	-5972.44
0.3602,0.6398	-5978.53
0.3443,0.6557	-5985.16
0.3288,0.6712	-5968.78
0.3581,0.6419	-5985.92
0.3187,0.6813	-5973.28
0.3122,0.6878	-5968.94
0.3513,0.6487	-5975.34
0.3290,0.6710	-5975.19
0.3223,0.6777	-5982.07
0.3596,0.6404	-5993.48
0.3495,0.6505	-5978.31
0.3291,0.6709	-5963.80
0.3583,0.6417	-5994.08
0.3449,0.6551	-5979.38
0.3312,0.6688	-5983.61
0.3333,0.6667	-5977.26
0.3078,0.6922	-5965.96
0.3435,0.6565	-6001.36
0.3473,0.6527	-5987.66
0.3428,0.6572	-5988.44
0.3566,0.6434	-5988.23
0.3552,0.6448	-5997.16
0.3295,0.6705	-5964.53
0.3483,0.6517	-5982.00
0.3267,0.6733	-5980.30
0.3117,0.6883	-5968.17
0.3552,0.6448	-5991.79
0.3524,0.6476	-5976.05
0.3484,0.6516	-5977.62
0.3341,0.6659	-5980.70
0.3698,0.6302	-5994.58
0.3378,0.6622	-5984.00
0.3367,0.6633	-5986.07
0.3437,0.6563	-5983.23
0.3523,0.6477	-5991.26
0.3515,0.6485	-5995.57
0.3597,0.6403	-5991.75
0.3845,0.6155	-5990.47
0.3356,0.6644	-5973.16
0.3271,0.6729	-5977.39
0.3625,0.6375	-5988.37
0.3639,0.6361	-5985.07
0.3407,0.6593	-5988.54
0.3779,0.6221	-5988.83
0.3250,0.6750	-5952.62
0.3096,0.6904	-5968.28
0.3607,0.6393	-5993.46
0.3137,0.6863	-5975.14
0.3427,0.6573	-5981.93
0.3210,0.6790	-5984.43
0.3290,0.6710	-5973.06
0.3286,0.6714	-5982.35
0.3224,0.6776	-5973.15
0.3507,0.6493	-5969.13
0.3635,0.6365	-5968.25
0.3048,0.6952	-5969.44
0.3175,0.6825	-5974.87
0.3468,0.6532	-5987.67
0.3306,0.6694	-5968.12
0.3612,0.6388	-5981.48
0.3342,0.6658	-5968.98
0.3646,0.6354	-5984.56
0.3012,0.6988	-5963.04
0.3805,0.6195	-5987.14
0.3527,0.6473	-5983.35
0.3339,0.6661	-5981.40
0.3532,0.6468	-5983.37
0.3429,0.6571	-5983.23
0.2941,0.7059	-5943.50
0.3604,0.6396	-5985.44
0.3367,0.6633	-5984.04
0.3333,0.6667	-5986.27
0.3756,0.6244	-5985.07
0.3727,0.6273	-5994.12
0.3044,0.6956	-5971.12
0.3068,0.6932	-5957.05
0.3757,0.6243	-5993.21
0.3630,0.6370	-5982.20
0.3469,0.6531	-5987.03
0.3203,0.6797	-5967.20
0.3513,0.6487	-5975.34
0.3374,0.6626	-5977.26
0.3559,0.6441	-5992.37
0.3420,0.6580	-5995.03
0.3471,0.6529	-5975.66
0.3285,0.6715	-5970.20
0.3237,0.6763	-5972.38
0.3132,0.6868	-5975.96
0.3637,0.6363	-5972.74
0.3471,0.6529	-5982.61
0.3284,0.6716	-5968.05
0.3551,0.6449	-5982.25
0.3176,0.6824	-5958.81
0.3221,0.6779	-5961.99
0.3050,0.6950	-5972.72
0.3339,0.6661	-5983.47
0.3102,0.6898	-5969.85
0.3710,0.6290	-5986.15
0.2978,0.7022	-5952.14
0.3386,0.6614	-5989.33
0.3332,0.6668	-5981.42
0.3039,0.6961	-5945.48
0.3638,0.6362	-5981.71
0.3679,0.6321	-6002.14
0.3253,0.6747	-5955.57
0.3239,0.6761	-5973.85
0.3484,0.6516	-5983.26
0.3249,0.6751	-5969.43
0.3292,0.6708	-5985.87
0.3552,0.6448	-5989.41
0.3012,0.6988	-5980.72
0.3265,0.6735	-5965.83
0.3163,0.6837	-5958.76
0.3252,0.6748	-5978.93
0.3232,0.6768	-5969.43
0.3649,0.6351	-5997.33
0.3619,0.6381	-5982.11
0.3172,0.6828	-5983.33
0.3018,0.6982	-5977.27
0.3123,0.6877	-5966.57
0.3414,0.6586	-5981.28
0.3439,0.6561	-5986.46
0.3984,0.6016	-5997.66
0.3135,0.6865	-5983.77
0.3321,0.6679	-5983.56
0.3360,0.6640	-5974.53
0.3421,0.6579	-5978.66
0.3507,0.6493	-5974.68
0.3633,0.6367	-5993.45
0.3254,0.6746	-5972.35
0.3683,0.6317	-5988.09
0.3373,0.6627	-5970.51
0.3534,0.6466	-5985.19
0.3300,0.6700	-5966.69
0.3568,0.6432	-5994.12
0.2984,0.7016	-5953.84
0.3795,0.6205	-6003.25
0.3186,0.6814	-5990.78
0.3308,0.6692	-5979.41
0.3109,0.6891	-5974.58
0.3092,0.6908	-5958.66
0.3238,0.6762	-5959.12
0.3655,0.6345	-5989.59
0.3309,0.6691	-5986.45
0.3498,0.6502	-5982.04
0.3164,0.6836	-5977.26
0.3097,0.6903	-5966.67
0.3431,0.6569	-5986.48
0.3473,0.6527	-5981.35
0.3173,0.6827	-5970.29
0.3489,0.6511	-5990.13
0.3491,0.6509	-5977.66
0.3088,0.6912	-5966.72
0.3643,0.6357	-5988.99
0.3843,0.6157	-5987.15
0.3094,0.6906	-5960.26
0.3657,0.6343	-5985.19
0.3309,0.6691	-5976.59
0.2978,0.7022	-5967.58
0.3353,0.6647	-5977.25
0.3916,0.6084	-5997.50
0.3197,0.6803	-5982.31
0.3353,0.6647	-5969.73
0.3420,0.6580	-5968.19
0.3334,0.6666	-5979.34
0.3839,0.6161	-5992.30
0.3807,0.6193	-5994.95
0.3095,0.6905	-5968.29
0.3128,0.6872	-5962.62
0.3584,0.6416	-5981.27
0.3721,0.6279	-5978.41
0.3738,0.6262	-5999.31
0.3486,0.6514	-5978.88
0.2808,0.7192	-5963.59
0.3359,0.6641	-5974.53
0.3533,0.6467	-5976.12
0.3648,0.6352	-5988.46
0.3500,0.6500	-5981.43
0.3386,0.6614	-5978.62
0.2605,0.7395	-5945.30
0.3407,0.6593	-5985.90
0.3188,0.6812	-5962.65
0.3478,0.6522	-5989.53
0.3482,0.6518	-5966.95
0.3203,0.6797	-5976.23
0.2741,0.7259	-5981.42
0.3319,0.6681	-5982.87
0.3322,0.6678	-5977.97
0.3933,0.6067	-5999.80
0.3631,0.6369	-5987.26
0.3147,0.6853	-5975.06
0.2643,0.7357	-5966.15
0.3198,0.6802	-5961.92
0.3316,0.6684	-5973.77
0.3691,0.6309	-5982.78
0.3223,0.6777	-5981.33
0.3110,0.6890	-5966.62
0.2845,0.7155	-5973.16
0.3795,0.6205	-5989.97
0.3505,0.6495	-5985.15
0.3701,0.6299	-5980.76
0.3424,0.6576	-5968.22
0.3290,0.6710	-5971.63
0.2845,0.7155	-5966.72
0.3792,0.6208	-5987.48
0.3619,0.6381	-5988.35
0.3645,0.6355	-5990.67
0.3599,0.6401	-5983.11
0.3494,0.6506	-5971.46
0.3400,0.6600	-5987.92
0.3206,0.6794	-5965.70
0.3527,0.6473	-5980.93
0.3531,0.6469	-5993.66
0.3723,0.6277	-5984.19
0.3146,0.6854	-5958.72
0.3401,0.6599	-5982.61
0.3663,0.6337	-5982.50
0.3392,0.6608	-6001.96
0.3405,0.6595	-5979.96
0.3698,0.6302	-5982.32
0.3002,0.6998	-5957.18
0.3900,0.6100	-5985.31
0.4092,0.5908	-5999.67
0.3523,0.6477	-5976.03
0.3346,0.6654	-5981.38
0.3076,0.6924	-5962.73
0.3470,0.6530	-5988.30
0.3853,0.6147	-5986.36
0.3794,0.6206	-5997.34
0.3271,0.6729	-5970.90
0.3296,0.6704	-5984.42
0.3434,0.6566	-5985.18
0.3470,0.6530	-5981.97
0.3213,0.6787	-5974.68
0.3576,0.6424	-5987.66
0.3140,0.6860	-5968.08
0.3407,0.6593	-5976.66
0.3569,0.6431	-5989.41
0.3628,0.6372	-5993.45
0.3585,0.6415	-5994.66
0.3398,0.6602	-5984.61
0.3550,0.6450	-5981.05
0.3251,0.6749	-5981.85
0.3543,0.6457	-5976.81
0.3064,0.6936	-5964.40
0.3346,0.6654	-5971.75
0.3471,0.6529	-5978.19
0.3900,0.6100	-5991.57
0.3386,0.6614	-5987.32
0.3668,0.6332	-5990.19
0.3176,0.6824	-5967.98
0.3435,0.6565	-5987.12
0.3383,0.6617	-5986.67
0.3699,0.6301	-5990.32
0.3457,0.6543	-5978.77
0.3680,0.6320	-5995.10
0.3252,0.6748	-5992.07
0.3367,0.6633	-5981.33
0.3383,0.6617	-5975.93
0.3502,0.6498	-5988.23
0.3568,0.6432	-5981.75
0.3183,0.6817	-5963.40
0.3201,0.6799	-5959.67
0.3270,0.6730	-5981.00
0.3342,0.6658	-5976.57
0.3592,0.6408	-5977.85
0.3548,0.6452	-5986.42
0.3153,0.6847	-5964.16
0.3308,0.6692	-5979.41
0.3362,0.6638	-5986.10
0.3268,0.6732	-5973.79
0.3313,0.6687	-5977.99
0.3441,0.6559	-5998.71
0.3299,0.6701	-5979.44
0.3237,0.6763	-5980.49
0.3409,0.6591	-5976.67
0.3408,0.6592	-5983.26
0.3274,0.6726	-5965.86
0.3442,0.6558	-5973.56
0.3268,0.6732	-5978.85
0.3623,0.6377	-5974.22
0.3190,0.6810	-5958.11
0.2903,0.7097	-5953.33
0.3164,0.6836	-5964.93
0.3274,0.6726	-5979.54
0.3543,0.6457	-5976.81
0.3606,0.6394	-5982.01
0.3229,0.6771	-5974.62
0.3254,0.6746	-5986.20
0.3132,0.6868	-5969.68
0.3517,0.6483	-5974.76
0.3631,0.6369	-5986.70
0.3443,0.6557	-5985.16
0.3315,0.6685	-5968.86
0.3277,0.6723	-5980.97
0.2852,0.7148	-5971.20
0.3248,0.6752	-5968.70
0.3475,0.6525	-5983.87
0.3059,0.6941	-5986.55
0.3385,0.6615	-5971.25
0.3213,0.6787	-5976.92
0.3117,0.6883	-5970.55
0.3503,0.6497	-5988.85
0.3718,0.6282	-5991.47
0.3498,0.6502	-5977.70
0.3362,0.6638	-5978.62
0.3389,0.6611	-5979.29
0.2993,0.7007	-5974.23
0.3361,0.6639	-5976.57
0.3416,0.6584	-5983.90
0.3405,0.6595	-5974.01
0.3679,0.6321	-5990.23
0.3287,0.6713	-5974.49
0.3182,0.6818	-5968.74
0.3354,0.6646	-5976.57
0.3397,0.6603	-5975.97
0.3324,0.6676	-5981.45
0.3618,0.6382	-5990.05
0.2818,0.7182	-5969.06
0.3329,0.6671	-5982.82
0.3407,0.6593	-5980.62
0.3563,0.6437	-5981.72
0.3110,0.6890	-5967.41
0.3504,0.6496	-5987.61
0.2860,0.7140	-5960.07
0.3303,0.6697	-5972.36
0.3189,0.6811	-5974.80
0.3163,0.6837	-5971.09
0.3259,0.6741	-5969.44
0.3225,0.6775	-5974.63
0.3486,0.6514	-5981.38
0.3454,0.6546	-5973.64
0.3367,0.6633	-5976.58
0.3017,0.6983	-5963.85
0.3408,0.6592	-5968.75
0.3082,0.6918	-5979.68
0.3236,0.6764	-5982.70
0.3391,0.6609	-5982.63
0.3538,0.6462	-5980.38
0.3186,0.6814	-5965.69
0.3653,0.6347	-5985.72
0.3176,0.6824	-5965.69
0.2940,0.7060	-5955.76
0.3132,0.6868	-5983.03
0.3342,0.6658	-5979.32
0.3497,0.6503	-5977.70
0.3478,0.6522	-5985.76
0.3279,0.6721	-5971.62
0.2962,0.7038	-5948.72
0.3329,0.6671	-5976.57
0.3411,0.6589	-5979.30
0.3766,0.6234	-5985.69
0.3571,0.6429	-5988.82
0.3183,0.6817	-5977.88
0.3193,0.6807	-5970.99
0.3502,0.6498	-5981.44
0.3474,0.6526	-5981.98
0.3714,0.6286	-5988.30
0.3516,0.6484	-5972.92
0.3697,0.6303	-5995.11
0.3719,0.6281	-5991.48
0.3273,0.6727	-5973.78
0.3667,0.6333	-5988.00
0.3716,0.6284	-5989.89
0.3228,0.6772	-5981.29
0.3781,0.6219	-5996.32
0.3601,0.6399	-5980.24
0.3429,0.6571	-5979.98
0.3626,0.6374	-5988.93
0.3454,0.6546	-5988.34
0.3141,0.6859	-5970.42
0.3540,0.6460	-5993.63
0.2843,0.7157	-5958.43
0.3623,0.6377	-5982.15
0.3254,0.6746	-5972.35
0.3280,0.6720	-5968.04
0.3319,0.6681	-5968.88
0.3393,0.6607	-5980.62
0.2601,0.7399	-5952.71
0.3866,0.6134	-5988.40
0.2929,0.7071	-5969.05
0.3405,0.6595	-5967.40
0.3574,0.6426	-5976.51
0.3611,0.6389	-5983.19
0.3066,0.6934	-5976.64
0.3777,0.6223	-5997.31
0.3437,0.6563	-5970.94
0.3371,0.6629	-5985.38
0.3768,0.6232	-5998.80
0.3562,0.6438	-5981.12
0.3350,0.6650	-5981.37
0.3405,0.6595	-5982.60
0.3241,0.6759	-5974.58
0.3504,0.6496	-5987.61
0.3396,0.6604	-5975.30
0.3790,0.6210	-5992.40
0.3490,0.6510	-5993.86
0.3588,0.6412	-5981.30
0.3154,0.6846	-5968.81
0.3892,0.6108	-5997.78
0.3291,0.6709	-5970.92
0.3299,0.6701	-5983.69
0.3382,0.6618	-5980.63
0.3273,0.6727	-5955.77
0.3253,0.6747	-5959.22
0.4303,0.5697	-6005.25
0.3080,0.6920	-5981.33
0.3493,0.6507	-5976.43
0.2982,0.7018	-5984.66
0.3490,0.6510	-5978.90
0.3542,0.6458	-5987.01
0.3890,0.6110	-5992.80
0.3050,0.6950	-5962.83
0.3496,0.6504	-5979.55
0.3208,0.6792	-5965.70
0.3274,0.6726	-5981.70
0.3081,0.6919	-5959.47
0.3593,0.6407	-5987.70
0.3169,0.6831	-5977.22
0.3356,0.6644	-5988.18
0.3162,0.6838	-5975.73
0.3044,0.6956	-5962.03
0.2909,0.7091	-5949.73
0.3835,0.6165	-5999.39
0.3398,0.6602	-5979.96
0.3477,0.6523	-5984.50
0.2879,0.7121	-5962.56
0.2765,0.7235	-5953.80
0.3291,0.6709	-5961.66
0.3636,0.6364	-5980.57
0.3832,0.6168	-5990.81
0.3421,0.6579	-5976.70
0.3185,0.6815	-5959.60
0.2862,0.7138	-5954.56
0.3080,0.6920	-5973.23
0.3681,0.6319	-5997.27
0.4137,0.5863	-6000.27
0.3640,0.6360	-5981.73
0.3331,0.6669	-5980.04
0.3367,0.6633	-5989.46
0.3063,0.6937	-5965.23
0.3498,0.6502	-5981.42
0.4148,0.5852	-6002.48
0.3280,0.6720	-5960.15
0.3481,0.6519	-5987.02
0.3495,0.6505	-5977.06
0.3459,0.6541	-5991.51
0.3822,0.6178	-5992.63
0.3528,0.6472	-5976.08
0.3139,0.6861	-5960.27
0.3492,0.6508	-5979.53
0.3497,0.6503	-5972.73
0.3371,0.6629	-5975.23
0.3377,0.6623	-5978.61
0.3160,0.6840	-5964.16
0.2904,0.7096	-5974.77
0.3582,0.6418	-5983.59
0.3356,0.6644	-5979.99
0.3560,0.6440	-5973.41
0.3569,0.6431	-5990.00
0.3192,0.6808	-5980.08
0.3378,0.6622	-5984.67
0.3604,0.6396	-5991.75
0.3338,0.6662	-5973.80
0.3917,0.6083	-5984.31
0.3260,0.6740	-5970.17
0.3508,0.6492	-5988.23
0.3437,0.6563	-5978.06
0.3410,0.6590	-5983.92
0.3603,0.6397	-5987.15
0.3667,0.6333	-5990.18
0.3313,0.6687	-5977.99
0.3529,0.6471	-5975.48
0.3636,0.6364	-5984.49
0.3183,0.6817	-5977.87
0.3647,0.6353	-5990.12
0.3517,0.6483	-5982.71
0.3193,0.6807	-5995.97
0.3499,0.6501	-5982.04
0.3444,0.6556	-5990.31
0.3406,0.6594	-5975.34
0.3875,0.6125	-5995.40
0.3473,0.6527	-5986.40
0.3079,0.6921	-5963.53
0.3598,0.6402	-5991.17
0.3328,0.6672	-5976.57
0.3481,0.6519	-5991.41
0.3941,0.6059	-5986.94
0.3508,0.6492	-5978.38
0.3318,0.6682	-5977.28
0.3306,0.6694	-5973.77
0.3379,0.6621	-5989.38
0.3906,0.6094	-6002.76
0.3521,0.6479	-5990.66
0.3344,0.6656	-5964.86
0.3225,0.6775	-5987.24
0.3367,0.6633	-5967.09
0.3662,0.6338	-5994.01
0.3903,0.6097	-5997.41
0.3499,0.6501	-5987.62
0.3056,0.6944	-5943.93
0.3269,0.6731	-5979.56
0.3628,0.6372	-5986.69
0.3305,0.6695	-5985.77
0.3629,0.6371	-5985.57
0.3223,0.6777	-5972.41
0.2941,0.7059	-5957.50
0.3205,0.6795	-5959.68
0.3682,0.6318	-5982.14
0.3650,0.6350	-5973.51
0.3306,0.6694	-5972.36
0.3315,0.6685	-5982.19
0.3279,0.6721	-5972.34
0.3019,0.6981	-5964.67
0.3395,0.6605	-5973.30
0.3320,0.6680	-5961.89
0.3471,0.6529	-5988.93
0.3222,0.6778	-5982.82
0.3520,0.6480	-5980.89
0.3089,0.6911	-5971.55
0.3065,0.6935	-5978.27
0.3394,0.6606	-5977.29
0.3615,0.6385	-5980.94
0.3349,0.6651	-5982.74
0.3273,0.6727	-5972.34
0.3367,0.6633	-5978.61
0.3528,0.6472	-5990.64
0.3385,0.6615	-5978.62
0.4064,0.5936	-6000.46
0.3471,0.6529	-5984.50
0.3213,0.6787	-5970.19
0.3217,0.6783	-5987.34
0.3670,0.6330	-5986.92
0.3469,0.6531	-5992.09
0.3624,0.6376	-5993.45
0.3229,0.6771	-5967.21
0.3221,0.6779	-5966.46
0.3205,0.6795	-5955.93
0.3483,0.6517	-5984.51
0.3457,0.6543	-5976.21
0.3426,0.6574	-5983.89
0.3321,0.6679	-5978.67
0.3304,0.6696	-5970.94
0.3126,0.6874	-5963.41
0.3422,0.6578	-5973.44
0.3361,0.6639	-5982.02
0.3194,0.6806	-5959.64
0.3171,0.6829	-5971.06
0.3358,0.6642	-5977.25
0.3229,0.6771	-5973.14
0.3812,0.6188	-5989.17
0.3075,0.6925	-5955.42
0.3242,0.6758	-5977.51
0.3147,0.6853	-5966.50
0.3381,0.6619	-5975.93
0.3302,0.6698	-5983.67
0.3869,0.6131	-5993.97
0.3657,0.6343	-5984.09
0.3284,0.6716	-5973.77
0.3427,0.6573	-5970.86
0.3110,0.6890	-5977.76
0.3301,0.6699	-5970.23
0.3624,0.6376	-5986.11
0.3705,0.6295	-5990.88
0.3414,0.6586	-5981.94
0.3473,0.6527	-5979.45
0.3169,0.6831	-5969.53
0.3301,0.6699	-5964.57
0.3690,0.6310	-5989.21
0.3614,0.6386	-5992.89
0.3465,0.6535	-5981.33
0.3539,0.6461	-5978.58
0.3391,0.6609	-5983.29
0.3388,0.6612	-5989.99
0.3268,0.6732	-5978.13
0.3744,0.6256	-5997.25
0.3357,0.6643	-5988.85
0.3996,0.6004	-6005.93
0.3082,0.6918	-5958.66
0.3445,0.6555	-5971.65
0.3389,0.6611	-5974.61
0.3307,0.6693	-5982.93
0.3286,0.6714	-5965.91
0.4066,0.5934	-6003.51
0.3073,0.6927	-5956.23
0.3200,0.6800	-5980.76
0.3335,0.6665	-5971.03
0.3443,0.6557	-5975.50
0.3353,0.6647	-5968.36
0.3896,0.6104	-5993.77
0.3214,0.6786	-5961.97
0.3316,0.6684	-5968.87
0.3377,0.6623	-5982.66
0.3548,0.6452	-5971.47
0.3141,0.6859	-5961.05
0.3667,0.6333	-5979.26
0.3129,0.6871	-5970.48
0.3772,0.6228	-5986.77
0.3651,0.6349	-5979.06
0.3493,0.6507	-5984.51
0.3287,0.6713	-5983.05
0.3800,0.6200	-5991.98
0.3450,0.6550	-5979.38
0.3658,0.6342	-5990.15
0.3539,0.6461	-5982.19
0.3249,0.6751	-5975.28
0.3279,0.6721	-5970.19
0.3544,0.6456	-5972.02
0.3564,0.6436	-5979.36
0.3352,0.6648	-5969.72
0.3067,0.6933	-5968.47
0.3538,0.6462	-5984.60
0.3456,0.6544	-5986.42
0.3347,0.6653	-5969.01
0.3446,0.6554	-5985.16
0.3729,0.6271	-5999.84
0.3159,0.6841	-5977.29
0.3421,0.6579	-5973.44
0.3481,0.6519	-5980.11
0.3187,0.6813	-5974.81
0.3171,0.6829	-5970.30
0.3791,0.6209	-5992.90
0.3316,0.6684	-5968.17
0.3354,0.6646	-5989.56
0.3145,0.6855	-5977.41
0.3012,0.6988	-5970.62
0.3450,0.6550	-5976.18
0.3499,0.6501	-5987.62
0.3447,0.6553	-5990.93
0.3316,0.6684	-5970.27
0.3231,0.6769	-5970.17
0.2965,0.7035	-5968.58
0.3609,0.6391	-5985.46
0.3385,0.6615	-5991.35
0.2978,0.7022	-5959.86
0.3062,0.6938	-5955.42
0.3377,0.6623	-5975.92
0.3107,0.6893	-5975.40
0.3253,0.6747	-5980.38
0.3614,0.6386	-5980.93
0.3093,0.6907	-5971.52
0.3217,0.6783	-5974.66
0.3333,0.6667	-5977.95
0.2960,0.7040	-5968.64
0.3256,0.6744	-5975.26
0.3647,0.6353	-5987.34
0.3242,0.6758	-5973.84
0.3414,0.6586	-5974.05
0.3206,0.6794	-5961.19
0.3178,0.6822	-5967.22
0.3573,0.6427	-5982.37
0.3417,0.6583	-5982.59
0.3301,0.6699	-5955.37
0.3279,0.6721	-5975.93
0.3219,0.6781	-5973.91
0.3351,0.6649	-5959.44
0.3496,0.6504	-5983.90
0.3694,0.6306	-5991.90
0.3334,0.6666	-5981.42
0.3157,0.6843	-5978.86
0.3465,0.6535	-5983.23
0.3174,0.6826	-5967.99
0.3503,0.6497	-5986.38
0.3612,0.6388	-5994.60
0.3281,0.6719	-5969.47
0.3197,0.6803	-5978.53
0.3053,0.6947	-5957.06
0.3778,0.6222	-5986.33
0.3820,0.6180	-5992.14
0.3291,0.6709	-5964.51
0.3672,0.6328	-5986.94
0.3450,0.6550	-5975.53
0.3076,0.6924	-5967.60
0.3844,0.6156	-5987.16
0.3519,0.6481	-5982.11
0.3455,0.6545	-5997.92
0.3473,0.6527	-5976.30
0.3369,0.6631	-5982.00
0.3492,0.6508	-5980.78
0.3259,0.6741	-5985.43
0.3885,0.6115	-5991.84
0.3680,0.6320	-5985.91
0.3144,0.6856	-5967.29
0.3214,0.6786	-5970.19
0.3542,0.6458	-5977.40
0.3409,0.6591	-5983.92
0.3448,0.6552	-5974.88
0.3698,0.6302	-5989.78
0.3483,0.6517	-5983.25
0.3191,0.6809	-5964.93
0.3393,0.6607	-5970.63
0.3043,0.6957	-5970.31
0.3346,0.6654	-5981.38
0.3468,0.6532	-5995.26
0.3215,0.6785	-5979.90
0.3342,0.6658	-5976.57
0.3020,0.6980	-5966.34
0.2946,0.7054	-5956.60
0.3348,0.6652	-5981.37
0.3489,0.6511	-5974.53
0.3505,0.6495	-5982.06
0.3578,0.6422	-5975.37
0.3270,0.6730	-5982.45
0.3204,0.6796	-5967.20
0.3155,0.6845	-5971.13
0.3920,0.6080	-5990.95
0.3419,0.6581	-5969.49
0.3135,0.6865	-5960.26
0.3545,0.6455	-5981.62
0.3191,0.6809	-5975.54
0.3599,0.6401	-5985.99
0.3755,0.6245	-5991.67
0.3223,0.6777	-5968.69
0.3265,0.6735	-5978.14
0.3493,0.6507	-5984.51
0.3512,0.6488	-5973.49
0.3640,0.6360	-5990.66
0.3636,0.6364	-5990.09
0.3259,0.6741	-5974.53
0.3498,0.6502	-5982.04
0.3319,0.6681	-5966.78
0.3440,0.6560	-5980.00
0.3963,0.6037	-5995.77
0.3985,0.6015	-5994.38
0.3361,0.6639	-5971.81
0.3338,0.6662	-5971.73
0.3630,0.6370	-5986.14
0.3428,0.6572	-5981.28
0.3810,0.6190	-5998.85
0.3714,0.6286	-5989.35
0.3318,0.6682	-5971.68
0.3317,0.6683	-5980.78
0.3368,0.6632	-5977.94
0.3663,0.6337	-5988.53
0.3397,0.6603	-5987.27
0.3423,0.6577	-5967.57
0.3354,0.6646	-5981.36
0.3215,0.6785	-5970.94
0.3473,0.6527	-5975.04
0.3311,0.6689	-5983.62
0.3537,0.6463	-5975.55
0.3777,0.6223	-5988.31
0.3294,0.6706	-5973.77
0.3245,0.6755	-5975.30
0.3724,0.6276	-5995.68
0.3578,0.6422	-5974.21
0.3332,0.6668	-5979.34
0.3760,0.6240	-5991.20
0.2961,0.7039	-5959.97
0.3264,0.6736	-5973.79
0.3353,0.6647	-5972.46
0.3442,0.6558	-5985.81
0.3476,0.6524	-5988.28
0.3539,0.6461	-5986.41
0.3395,0.6605	-5971.30
0.3462,0.6538	-5972.42
0.3171,0.6829	-5968.76
0.3381,0.6619	-5980.63
0.3244,0.6756	-5967.97
0.3282,0.6718	-5979.50
0.3406,0.6594	-5977.98
0.3651,0.6349	-5989.02
0.3443,0.6557	-5989.03
0.3130,0.6870	-5978.34
0.3331,0.6669	-5973.79
0.3392,0.6608	-5985.29
0.3147,0.6853	-5971.17
0.3558,0.6442	-5995.35
0.3076,0.6924	-5974.08
0.3410,0.6590	-5978.64
0.3384,0.6616	-5981.97
0.2876,0.7124	-5955.34
0.3253,0.6747	-5973.81
0.3232,0.6768	-5972.39
0.3409,0.6591	-5979.96
0.3463,0.6537	-5981.33
0.3660,0.6340	-5983.02
0.3069,0.6931	-5965.19
0.3363,0.6637	-5962.30
0.2985,0.7015	-5968.36
0.3065,0.6935	-5962.77
0.3426,0.6574	-5973.46
0.3623,0.6377	-5977.61
0.3405,0.6595	-5982.60
0.3334,0.6666	-5970.33
0.3283,0.6717	-5971.63
0.3248,0.6752	-5986.26
0.3234,0.6766	-5959.84
0.3555,0.6445	-5987.62
0.3332,0.6668	-5965.47
0.3412,0.6588	-5987.86
0.3240,0.6760	-5961.34
0.3163,0.6837	-5968.78
0.3398,0.6602	-5982.61
0.3253,0.6747	-5968.71
0.3324,0.6676	-5975.18
0.3393,0.6607	-5969.29
0.3188,0.6812	-5968.73
0.3129,0.6871	-5968.91
0.3166,0.6834	-5958.77
0.3501,0.6499	-5987.00
0.3368,0.6632	-5987.42
0.3186,0.6814	-5969.49
0.3433,0.6567	-5979.99
0.3178,0.6822	-5968.74
0.3141,0.6859	-5966.52
0.3187,0.6813	-5976.33
0.3697,0.6303	-5994.58
0.3993,0.6007	-6000.21
0.3307,0.6693	-5977.29
0.3429,0.6571	-5974.13
0.3460,0.6540	-5971.13
0.3419,0.6581	-5968.18
0.3302,0.6698	-5976.60
0.4028,0.5972	-5992.62
0.3007,0.6993	-5968.98
0.3834,0.6166	-5995.11
0.3372,0.6628	-5963.07
0.3741,0.6259	-5984.90
0.3327,0.6673	-5977.96
0.3792,0.6208	-5994.88
0.3094,0.6906	-5973.91
0.4147,0.5853	-6002.47
0.3409,0.6591	-5978.64
0.3299,0.6701	-5981.56
0.3404,0.6596	-5977.97
0.3559,0.6441	-5979.33
0.3112,0.6888	-5962.64
0.3969,0.6031	-5989.15
0.3382,0.6618	-5979.29
0.3226,0.6774	-5965.72
0.3249,0.6751	-5973.09
0.3632,0.6368	-5991.20
0.3425,0.6575	-5966.28
0.3622,0.6378	-5986.66
0.3351,0.6649	-5977.94
0.3382,0.6618	-5961.83
0.3585,0.6415	-5988.26
0.3809,0.6191	-5989.62
0.3233,0.6767	-5959.83
0.3873,0.6127	-5990.34
0.3533,0.6467	-5987.61
0.3302,0.6698	-5960.33
0.3255,0.6745	-5975.27
0.3788,0.6212	-5999.80
0.3261,0.6739	-5981.06
0.3837,0.6163	-5989.44
0.3746,0.6254	-5992.64
0.3055,0.6945	-5958.70
0.3452,0.6548	-5978.11
0.3573,0.6427	-5985.89
0.3557,0.6443	-5983.47
0.3335,0.6665	-5975.18
0.3188,0.6812	-5967.21
0.3293,0.6707	-5960.26
0.3182,0.6818	-5964.93
0.3286,0.6714	-5973.06
0.3143,0.6857	-5958.71
0.3087,0.6913	-5968.33
0.3107,0.6893	-5961.85
0.3652,0.6348	-5990.13
0.3204,0.6796	-5962.69
0.3506,0.6494	-5989.46
0.3369,0.6631	-5973.20
0.3438,0.6562	-5973.54
0.2893,0.7107	-5958.79
0.3320,0.6680	-5989.86
0.3195,0.6805	-5970.98
0.3615,0.6385	-5989.47
0.3427,0.6573	-5984.54
0.3047,0.6953	-5966.97
0.2840,0.7160	-5962.17
0.3616,0.6384	-5984.36
0.3427,0.6573	-5974.77
0.3346,0.6654	-5980.69
0.3448,0.6552	-5983.23
0.3149,0.6851	-5959.50
0.3104,0.6896	-5969.84
0.3026,0.6974	-5963.79
0.3601,0.6399	-5978.52
0.3526,0.6474	-5978.49
0.3489,0.6511	-5974.53
0.3242,0.6758	-5984.86
0.3341,0.6659	-5982.77
0.3232,0.6768	-5973.13
0.3510,0.6490	-5975.32
0.3604,0.6396	-5981.99
0.3330,0.6670	-5976.57
0.3878,0.6122	-5994.05
0.3306,0.6694	-5970.95
0.3343,0.6657	-5977.94
0.3456,0.6544	-5970.46
0.3439,0.6561	-5984.52
0.3232,0.6768	-5970.17
0.3711,0.6289	-5999.35
0.3339,0.6661	-5968.28
0.3558,0.6442	-5988.22
0.3169,0.6831	-5971.84
0.3385,0.6615	-5970.58
0.3291,0.6709	-5976.62
0.3454,0.6546	-5987.70
0.3412,0.6588	-5987.86
0.3261,0.6739	-5963.64
0.3059,0.6941	-5972.62
0.3264,0.6736	-5968.00
0.3342,0.6658	-5963.47
0.3551,0.6449	-5989.41
0.3182,0.6818	-5970.26
0.3368,0.6632	-5965.06
0.3264,0.6736	-5968.72
0.3363,0.6637	-5982.69
0.3572,0.6428	-5979.43
0.3472,0.6528	-5985.77
0.3368,0.6632	-5977.94
0.3359,0.6641	-5988.16
0.3099,0.6901	-5980.27
0.3052,0.6948	-5977.63
0.3730,0.6270	-5989.97
0.3300,0.6700	-5973.06
0.3521,0.6479	-5979.07
0.3323,0.6677	-5980.06
0.3004,0.6996	-5970.70
0.3238,0.6762	-5968.69
0.3559,0.6441	-5984.07
0.3086,0.6914	-5951.40
0.3408,0.6592	-5977.98
0.3674,0.6326	-5987.49
0.3478,0.6522	-5985.13
0.3420,0.6580	-5977.35
0.3655,0.6345	-5982.43
0.3390,0.6610	-5979.96
0.3823,0.6177	-5994.56
0.3460,0.6540	-5979.41
0.3655,0.6345	-5978.01
0.3421,0.6579	-5984.55
0.3468,0.6532	-5985.14
0.2904,0.7096	-5971.19
0.3772,0.6228	-5989.77
0.3342,0.6658	-5973.12
0.3657,0.6343	-5992.35
0.3427,0.6573	-5975.42
0.3502,0.6498	-5969.69
0.3011,0.6989	-5970.63
0.4032,0.5968	-6000.93
0.3375,0.6625	-5967.82
0.3406,0.6594	-5977.32
0.3086,0.6914	-5959.47
0.3553,0.6447	-5981.66
0.3112,0.6888	-5976.14
0.3916,0.6084	-6000.14
0.3359,0.6641	-5975.21
0.3410,0.6590	-5984.57
0.3040,0.6960	-5962.88
0.3255,0.6745	-5981.83
0.3475,0.6525	-5988.91
0.3876,0.6124	-5994.48
0.3139,0.6861	-5978.25
0.3142,0.6858	-5963.39
0.3362,0.6638	-5987.46
0.3172,0.6828	-5966.46
0.3312,0.6688	-5972.37
0.3852,0.6148	-5993.83
0.3749,0.6251	-5994.70
0.2867,0.7133	-5956.34
0.3375,0.6625	-5981.99
0.3609,0.6391	-5984.32
0.3366,0.6634	-5982.01
0.3443,0.6557	-5979.36
0.3713,0.6287	-5987.76
0.2992,0.7008	-5952.12
0.3154,0.6846	-5966.49
0.4035,0.5965	-5999.78
0.3397,0.6603	-5979.96
0.3359,0.6641	-5961.58
0.3535,0.6465	-5996.06
0.3204,0.6796	-5976.23
0.3428,0.6572	-5970.22
0.3775,0.6225	-5991.30
0.3430,0.6570	-5985.83
0.3299,0.6701	-5965.27
0.3632,0.6368	-5981.09
0.3387,0.6613	-5981.30
0.3117,0.6883	-5973.72
0.3687,0.6313	-5993.49
0.3206,0.6794	-5982.22
0.3425,0.6575	-5978.02
0.3307,0.6693	-5976.59
0.3404,0.6596	-5983.27
0.3438,0.6562	-5981.29
0.3143,0.6857	-5967.29
0.3428,0.6572	-5983.23
0.3151,0.6849	-5968.05
0.3327,0.6673	-5983.53
0.3443,0.6557	-5980.65
0.3399,0.6601	-5985.93
0.3021,0.6979	-5981.41
0.3662,0.6338	-5994.01
0.3480,0.6520	-5976.97
0.3448,0.6552	-5977.45
0.3532,0.6468	-5981.55
0.3208,0.6792	-5956.70
0.3270,0.6730	-5969.46
0.3739,0.6261	-5991.58
0.3456,0.6544	-5988.97
0.3172,0.6828	-5953.43
0.3568,0.6432	-5978.80
0.3253,0.6747	-5972.35
0.3301,0.6699	-5966.69
0.3368,0.6632	-5975.23
0.3435,0.6565	-5987.12
0.3323,0.6677	-5981.46
0.3452,0.6548	-5978.75
0.3411,0.6589	-5990.50
0.3539,0.6461	-5983.40
0.3654,0.6346	-5995.11
0.3657,0.6343	-5982.99
0.3172,0.6828	-5975.66
0.3424,0.6576	-5987.15
0.3648,0.6352	-5988.46
0.3314,0.6686	-5977.28
0.3924,0.6076	-5995.37
0.3801,0.6199	-5999.81
0.3579,0.6421	-5982.99
0.3197,0.6803	-5972.49
0.3370,0.6630	-5967.11
0.3099,0.6901	-5979.47
0.3427,0.6573	-5987.79
0.3587,0.6413	-5991.75
0.3395,0.6605	-5990.60
0.3279,0.6721	-5972.34
0.2975,0.7025	-5951.29
0.3101,0.6899	-5972.25
0.3115,0.6885	-5975.32
0.3871,0.6129	-5992.61
0.3285,0.6715	-5978.06
0.2965,0.7035	-5974.63
0.3477,0.6523	-5984.50
0.3437,0.6563	-5985.17
0.3191,0.6809	-5964.17
0.3539,0.6461	-5994.23
0.3485,0.6515	-5978.25
0.3422,0.6578	-5970.17
0.3387,0.6613	-5979.96
0.3484,0.6516	-5971.99
0.3248,0.6752	-5960.65
0.3283,0.6717	-5967.33
0.3980,0.6020	-5994.72
0.3436,0.6564	-5978.05
0.3161,0.6839	-5971.10
0.3327,0.6673	-5971.70
0.3291,0.6709	-5973.06
0.3170,0.6830	-5990.25
0.3607,0.6393	-5976.87
0.3328,0.6672	-5975.18
0.3378,0.6622	-5993.42
0.3825,0.6175	-6000.80
0.3118,0.6882	-5967.38
0.3617,0.6383	-5979.82
0.3016,0.6984	-5955.46
0.3461,0.6539	-5974.96
0.3322,0.6678	-5968.89
0.3719,0.6281	-5992.00
0.3282,0.6718	-5969.48
0.3561,0.6439	-5985.86
0.3522,0.6478	-5980.90
0.3731,0.6269	-5983.23
0.3194,0.6806	-5977.79
0.3588,0.6412	-5988.26
0.3385,0.6615	-5981.97
0.3587,0.6413	-5998.14
0.3347,0.6653	-5975.19
0.3753,0.6247	-5987.07
0.3153,0.6847	-5961.06
0.3311,0.6689	-5978.69
0.3264,0.6736	-5976.69
0.3339,0.6661	-5991.07
0.3237,0.6763	-5972.38
0.3390,0.6610	-5992.64
0.3046,0.6954	-5965.33
0.3513,0.6487	-5982.70
0.2925,0.7075	-5962.92
0.3725,0.6275	-5981.60
0.3286,0.6714	-5973.77
0.3506,0.6494	-5979.60
0.2859,0.7141	-5940.85
0.3474,0.6526	-5985.76
0.3436,0.6564	-5973.52
0.3582,0.6418	-5990.59
0.3265,0.6735	-5989.72
0.3672,0.6328	-5989.11
0.3356,0.6644	-5958.81
0.3707,0.6293	-5992.48
0.3159,0.6841	-5957.21
0.3492,0.6508	-5984.51
0.3515,0.6485	-5978.42
0.3409,0.6591	-5979.30
0.3710,0.6290	-5994.08
0.3375,0.6625	-5980.64
0.3236,0.6764	-5980.49
0.3322,0.6678	-5984.26
0.3298,0.6702	-5979.44
0.2959,0.7041	-5967.79
0.3187,0.6813	-5967.97
0.3650,0.6350	-5976.83
0.3142,0.6858	-5962.61
0.3481,0.6519	-5985.13
0.3245,0.6755	-5976.77
0.2953,0.7047	-5968.74
0.3596,0.6404	-5983.09
0.3185,0.6815	-5961.12
0.3354,0.6646	-5970.41
0.2980,0.7020	-5964.99
0.3617,0.6383	-5980.39
0.3047,0.6953	-5961.19
0.3461,0.6539	-5980.69
0.3264,0.6736	-5966.55
0.3407,0.6593	-5970.72
0.3129,0.6871	-5966.55
0.3467,0.6533	-5985.77
0.2884,0.7116	-5960.70
0.3152,0.6848	-5968.82
0.3512,0.6488	-5975.95
0.3052,0.6948	-5973.52
0.3082,0.6918	-5958.66
0.3536,0.6464	-5974.34
0.3175,0.6825	-5972.58
0.3657,0.6343	-6001.16
0.3560,0.6440	-5984.07
0.3053,0.6947	-5967.75
0.3197,0.6803	-5962.67
0.3106,0.6894	-5969.82
0.3565,0.6435	-5981.14
0.3585,0.6415	-5981.86
0.3390,0.6610	-5976.62
0.3523,0.6477	-5980.30
0.3220,0.6780	-5989.54
0.3323,0.6677	-5959.13
0.3385,0.6615	-5973.93
0.3257,0.6743	-5970.90
0.3490,0.6510	-5978.27
0.3823,0.6177	-5995.52
0.3336,0.6664	-5975.87
0.3464,0.6536	-5970.53
0.3277,0.6723	-5988.87
0.2997,0.7003	-5958.90
0.3046,0.6954	-5975.23
0.3221,0.6779	-5968.69
0.3325,0.6675	-5979.36
0.3524,0.6476	-5983.95
0.3252,0.6748	-5974.55
0.3477,0.6523	-5978.21
0.3293,0.6707	-5985.87
0.2954,0.7046	-5963.50
0.3514,0.6486	-5991.28
0.3695,0.6305	-5986.56
0.3720,0.6280	-5990.43
0.3555,0.6445	-5988.81
0.3324,0.6676	-5967.51
0.3190,0.6810	-5972.51
0.3427,0.6573	-5970.86
0.3589,0.6411	-5991.75
0.3171,0.6829	-5964.93
0.3185,0.6815	-5958.84
0.3273,0.6727	-5971.62
0.3263,0.6737	-5968.72
0.3455,0.6545	-5983.23
0.3691,0.6309	-5982.78
0.3606,0.6394	-5987.16
0.3652,0.6348	-5986.26
0.3065,0.6935	-5963.58
0.3150,0.6850	-5962.61
0.3414,0.6586	-5975.37
0.3385,0.6615	-5977.95
0.3280,0.6720	-5973.06
0.3475,0.6525	-5980.09
0.3086,0.6914	-5982.05
0.2980,0.7020	-5974.42
0.3198,0.6802	-5975.50
0.3825,0.6175	-5997.45
0.3097,0.6903	-5970.68
0.3435,0.6565	-5970.92
0.3221,0.6779	-5964.97
0.3132,0.6868	-5947.70
0.3343,0.6657	-5982.08
0.3612,0.6388	-5985.48
0.3473,0.6527	-5983.87
0.3381,0.6619	-5973.24
0.3313,0.6687	-5977.28
0.3358,0.6642	-5970.43
0.3306,0.6694	-5971.65
0.3124,0.6876	-5971.30
0.3317,0.6683	-5979.38
0.3466,0.6534	-5981.97
0.3444,0.6556	-5964.56
0.3223,0.6777	-5990.24
0.3221,0.6779	-5970.92
0.3539,0.6461	-5979.18
0.3357,0.6643	-5991.59
0.3530,0.6470	-5987.00
0.3280,0.6720	-5967.32
0.3284,0.6716	-5980.21
0.3440,0.6560	-5989.04
0.3450,0.6550	-5984.51
0.3011,0.6989	-5968.10
0.2926,0.7074	-5957.62
0.3248,0.6752	-5972.36
0.3262,0.6738	-5986.86
0.3440,0.6560	-5981.94
0.3387,0.6613	-5978.62
0.3188,0.6812	-5963.41
0.3573,0.6427	-5975.32
0.3197,0.6803	-5974.75
0.3451,0.6549	-5980.03
0.3067,0.6933	-5966.83
0.3447,0.6553	-5976.16
0.3399,0.6601	-5980.62
0.3559,0.6441	-5978.73
0.3306,0.6694	-5978.71
0.3028,0.6972	-5961.27
0.3465,0.6535	-5973.08
0.3666,0.6334	-5986.35
0.3397,0.6603	-5992.59
0.3433,0.6567	-5985.18
0.3152,0.6848	-5970.37
0.3211,0.6789	-5961.21
0.3377,0.6623	-5992.76
0.3362,0.6638	-5977.26
0.3069,0.6931	-5970.89
0.3261,0.6739	-5965.82
0.2978,0.7022	-5954.71
0.3606,0.6394	-5987.74
0.3456,0.6544	-5981.95
0.3375,0.6625	-5970.52
0.3397,0.6603	-5965.33
0.3326,0.6674	-5977.96
0.2938,0.7062	-5957.52
0.3321,0.6679	-5970.28
0.3480,0.6520	-5971.95
0.3486,0.6514	-5985.76
0.3091,0.6909	-5978.77
0.3229,0.6771	-5974.62
0.3133,0.6867	-5969.68
0.3504,0.6496	-5974.65
0.3684,0.6316	-5990.25
0.3583,0.6417	-5984.18
0.3389,0.6611	-5976.62
0.3492,0.6508	-5980.78
0.3514,0.6486	-5979.03
0.3763,0.6237	-5991.22
0.3549,0.6451	-5985.82
0.3443,0.6557	-5970.34
0.3354,0.6646	-5964.26
0.3466,0.6534	-5979.43
0.4151,0.5849	-6005.26
0.3512,0.6488	-5986.38
0.3289,0.6711	-5980.19
0.3443,0.6557	-5992.25
0.3055,0.6945	-5971.02
0.3266,0.6734	-5970.90
0.3493,0.6507	-5968.34
0.3465,0.6535	-5987.68
0.3158,0.6842	-5988.12
0.3523,0.6477	-5979.69
0.3195,0.6805	-5956.62
0.3227,0.6773	-5974.62
0.3420,0.6580	-5975.39
0.3608,0.6392	-5985.45
0.3492,0.6508	-5980.78
0.3078,0.6922	-5956.24
0.3543,0.6457	-5978.61
0.3449,0.6551	-5978.74
0.3155,0.6845	-5981.20
0.3545,0.6455	-5981.02
0.3758,0.6242	-5982.56
0.3191,0.6809	-5977.82
0.3779,0.6221	-5995.32
0.3441,0.6559	-5983.23
0.3351,0.6649	-5971.77
0.3430,0.6570	-5976.73
0.3760,0.6240	-5987.65
0.3498,0.6502	-5984.52
0.3559,0.6441	-5991.19
0.3622,0.6378	-5988.36
0.3334,0.6666	-5971.72
0.3377,0.6623	-5977.27
0.3851,0.6149	-5995.22
0.3601,0.6399	-5973.92
0.3329,0.6671	-5965.45
0.3429,0.6571	-5978.68
0.3177,0.6823	-5977.92
0.3501,0.6499	-5983.90
0.3697,0.6303	-5994.58
0.3704,0.6296	-5988.23
0.3064,0.6936	-5958.68
0.3270,0.6730	-6006.27
0.3263,0.6737	-5983.94
0.3138,0.6862	-5959.48
0.3140,0.6860	-5981.37
0.3824,0.6176	-5996.01
0.3134,0.6866	-5959.48
0.3449,0.6551	-5976.17
0.3570,0.6430	-5993.53
0.3256,0.6744	-5962.89
0.3495,0.6505	-5988.24
0.3537,0.6463	-5990.02
0.3430,0.6570	-5991.03
0.3895,0.6105	-5992.85
0.2998,0.7002	-5975.86
0.3316,0.6684	-5980.78
0.3395,0.6605	-5991.27
0.3272,0.6728	-5986.04
0.3256,0.6744	-5983.27
0.3915,0.6085	-6000.14
0.3319,0.6681	-5972.38
0.3249,0.6751	-5984.79
0.3326,0.6674	-5991.89
0.3217,0.6783	-5971.68
0.3286,0.6714	-5976.63
0.3848,0.6152	-5989.57
0.3286,0.6714	-5980.91
0.3277,0.6723	-5960.84
0.3484,0.6516	-5968.86
0.3376,0.6624	-5981.98
0.3022,0.6978	-5982.23
0.3748,0.6252	-5994.19
0.2866,0.7134	-5958.17
0.3302,0.6698	-5975.89
0.3086,0.6914	-5974.79
0.3534,0.6466	-5976.73
0.3288,0.6712	-5975.20
0.3480,0.6520	-5987.64
0.3127,0.6873	-5957.89
0.3187,0.6813	-5969.49
0.2772,0.7228	-5961.37
0.3318,0.6682	-5980.08
0.2975,0.7025	-5959.02
0.3379,0.6621	-5977.27
0.3310,0.6690	-5977.99
0.3704,0.6296	-5987.17
0.3145,0.6855	-5961.05
0.3487,0.6513	-5973.26
0.2855,0.7145	-5956.46
0.3538,0.6462	-5985.20
0.3129,0.6871	-5967.34
0.3474,0.6526	-5978.83
0.3071,0.6929	-5965.18
0.3394,0.6606	-5987.95
0.3055,0.6945	-5965.27
0.3014,0.6986	-5973.95
0.3531,0.6469	-5988.21
0.3179,0.6821	-5977.90
0.3423,0.6577	-5980.63
0.3511,0.6489	-5975.94
0.2979,0.7021	-5965.00
0.3053,0.6947	-5969.40
0.3632,0.6368	-5981.09
0.3428,0.6572	-5978.68
0.3328,0.6672	-5980.05
0.3676,0.6324	-5999.44
0.3414,0.6586	-5999.01
0.3377,0.6623	-5982.66
0.3241,0.6759	-5971.64
0.3494,0.6506	-5987.00
0.3358,0.6642	-5977.25
0.3346,0.6654	-5984.81
0.3653,0.6347	-5991.79
0.3430,0.6570	-5988.43
0.3085,0.6915	-5949.78
0.3367,0.6633	-5984.04
0.3046,0.6954	-5976.06
0.3231,0.6769	-5970.17
0.3327,0.6673	-5981.44
0.3409,0.6591	-5971.39
0.3232,0.6768	-5979.04
0.3393,0.6607	-5982.62
0.3258,0.6742	-5969.44
0.3509,0.6491	-5976.54
0.3322,0.6678	-5966.10
0.3552,0.6448	-5981.06
0.3483,0.6517	-5977.61
0.3185,0.6815	-5976.34
0.3185,0.6815	-5974.81
0.3305,0.6695	-5957.53
0.3372,0.6628	-5987.40
0.3023,0.6977	-5963.81
0.3317,0.6683	-5985.69
0.3303,0.6697	-5970.94
0.3563,0.6437	-5972.84
0.3545,0.6455	-5977.42
0.3550,0.6450	-5987.02
0.3076,0.6924	-5964.35
0.3476,0.6524	-5984.50
0.3361,0.6639	-5982.02
0.3453,0.6547	-5977.47
0.3725,0.6275	-5994.63
0.3856,0.6144	-5992.93
0.3137,0.6863	-5960.26
0.3622,0.6378	-5985.53
0.3480,0.6520	-5988.90
0.3540,0.6460	-5979.19
0.3395,0.6605	-5970.64
0.3620,0.6380	-5973.05
0.3076,0.6924	-5957.86
0.3280,0.6720	-5981.66
0.3536,0.6464	-5985.20
0.3590,0.6410	-5987.11
0.3430,0.6570	-5982.58
0.3572,0.6428	-5981.77
0.3461,0.6539	-5976.23
0.3053,0.6947	-5954.59
0.3653,0.6347	-5982.96
0.3442,0.6558	-5981.29
0.3524,0.6476	-5976.65
0.3265,0.6735	-5957.86
0.3447,0.6553	-5983.23
0.3098,0.6902	-5971.48
0.3404,0.6596	-5971.36
0.3291,0.6709	-5977.33
0.3650,0.6350	-5984.59
0.3553,0.6447	-5986.43
0.3105,0.6895	-5988.97
0.3419,0.6581	-5991.76
0.3366,0.6634	-5967.76
0.3333,0.6667	-5985.58
0.3238,0.6762	-5979.74
0.3629,0.6371	-5982.75
0.2944,0.7056	-5960.98
0.3483,0.6517	-5984.51
0.3454,0.6546	-5979.39
0.3152,0.6848	-5986.66
0.3646,0.6354	-5989.56
0.3763,0.6237	-5979.08
0.3365,0.6635	-5979.29
0.3564,0.6436	-5985.86
0.3616,0.6384	-5984.93
0.3054,0.6946	-5986.65
0.3575,0.6425	-5977.69
0.3771,0.6229	-5992.27
0.3693,0.6307	-5989.76
0.3843,0.6157	-5989.04
0.3637,0.6363	-5992.89
0.3225,0.6775	-5964.98
0.3172,0.6828	-5964.16
0.3443,0.6557	-5980.65
0.3473,0.6527	-5988.29
0.4023,0.5977	-5998.87
0.3842,0.6158	-5993.74
0.3061,0.6939	-5965.23
0.3389,0.6611	-5979.96
0.3403,0.6597	-5965.40
0.3356,0.6644	-5979.30
0.3654,0.6346	-5980.20
0.3856,0.6144	-5998.98
0.3034,0.6966	-5967.07
0.3571,0.6429	-5981.77
0.3463,0.6537	-5982.60
0.3337,0.6663	-5975.18
0.3535,0.6465	-5986.40
0.3620,0.6380	-5982.69
0.3136,0.6864	-5977.49
0.3445,0.6555	-5983.87
0.3086,0.6914	-5973.99
0.3206,0.6794	-5973.96
0.3644,0.6356	-5982.32
0.3441,0.6559	-5990.97
0.3393,0.6607	-5966.63
