#isoforms=['ENSG00000110080.SE.2.A.up_ENSG00000110080.SE.2.A.SE1_ENSG00000110080.SE.2.A.dn','ENSG00000110080.SE.2.B.up_ENSG00000110080.SE.2.B.dn']	exon_lens=('ENSG00000110080.SE.2.A.up',61),('ENSG00000110080.SE.2.A.SE1',96),('ENSG00000110080.SE.2.A.dn',190),('ENSG00000110080.SE.2.B.up',61),('ENSG00000110080.SE.2.B.dn',190)	iters=5000	burn_in=500	lag=10	percent_accept=95.61	proposal_type=drift	counts=(0,0):341,(1,0):400,(1,1):391	assigned_counts=0:788,1:3	chrom=chr11	strand=+	mRNA_starts=126407574,126407574	mRNA_ends=126408496,126408496
sampled_psi	log_score
0.9658,0.0342	-4493.70
0.9689,0.0311	-4483.31
0.9696,0.0304	-4497.09
0.9873,0.0127	-4446.39
0.9797,0.0203	-4460.06
0.9786,0.0214	-4471.72
0.9601,0.0399	-4494.18
0.9660,0.0340	-4483.65
0.9719,0.0281	-4493.71
0.9884,0.0116	-4450.63
0.9764,0.0236	-4490.48
0.9813,0.0187	-4447.94
0.9594,0.0406	-4484.77
0.9603,0.0397	-4510.09
0.9765,0.0235	-4471.87
0.9894,0.0106	-4450.57
0.9765,0.0235	-4464.40
0.9842,0.0158	-4442.98
0.9658,0.0342	-4480.33
0.9563,0.0437	-4476.19
0.9736,0.0264	-4475.81
0.9900,0.0100	-4441.37
0.9748,0.0252	-4472.04
0.9812,0.0188	-4467.73
0.9634,0.0366	-4497.12
0.9602,0.0398	-4490.98
0.9693,0.0307	-4462.55
0.9917,0.0083	-4436.29
0.9767,0.0233	-4460.64
0.9811,0.0189	-4467.74
0.9666,0.0334	-4480.21
0.9697,0.0303	-4465.91
0.9712,0.0288	-4451.45
0.9924,0.0076	-4436.08
0.9759,0.0241	-4464.51
0.9853,0.0147	-4446.83
0.9590,0.0410	-4506.93
0.9678,0.0322	-4483.43
0.9714,0.0286	-4483.11
0.9936,0.0064	-4435.82
0.9769,0.0231	-4453.12
0.9844,0.0156	-4467.78
0.9640,0.0360	-4490.52
0.9693,0.0307	-4479.82
0.9704,0.0296	-4476.20
0.9940,0.0060	-4435.75
0.9763,0.0237	-4464.45
0.9843,0.0157	-4451.22
0.9655,0.0345	-4487.05
0.9725,0.0275	-4472.35
0.9703,0.0297	-4497.13
0.9945,0.0055	-4430.47
0.9736,0.0264	-4461.38
0.9831,0.0169	-4451.46
0.9674,0.0326	-4473.30
0.9691,0.0309	-4459.16
0.9721,0.0279	-4458.22
0.9949,0.0051	-4440.89
0.9740,0.0260	-4475.77
0.9793,0.0207	-4448.54
0.9717,0.0283	-4497.23
0.9732,0.0268	-4479.44
0.9749,0.0251	-4457.40
0.9954,0.0046	-4435.57
0.9789,0.0211	-4456.37
0.9762,0.0238	-4486.75
0.9756,0.0244	-4468.26
0.9723,0.0277	-4461.72
0.9749,0.0251	-4464.70
0.9952,0.0048	-4435.58
0.9808,0.0192	-4452.01
0.9770,0.0230	-4460.57
0.9749,0.0251	-4464.72
0.9641,0.0359	-4487.22
0.9709,0.0291	-4469.12
0.9929,0.0071	-4455.72
0.9723,0.0277	-4468.82
0.9782,0.0218	-4467.94
0.9777,0.0223	-4479.33
0.9623,0.0377	-4481.00
0.9667,0.0333	-4470.08
0.9937,0.0063	-4430.75
0.9779,0.0221	-4445.23
0.9796,0.0204	-4456.20
0.9771,0.0229	-4471.82
0.9659,0.0341	-4480.33
0.9681,0.0319	-4459.50
0.9912,0.0088	-4441.14
0.9746,0.0254	-4468.41
0.9800,0.0200	-4456.10
0.9779,0.0221	-4460.39
0.9652,0.0348	-4473.79
0.9717,0.0283	-4500.77
0.9891,0.0109	-4450.58
0.9751,0.0249	-4464.67
0.9794,0.0206	-4483.28
0.9793,0.0207	-4448.56
0.9722,0.0278	-4458.17
0.9714,0.0286	-4472.53
0.9893,0.0107	-4450.58
0.9786,0.0214	-4467.90
0.9850,0.0150	-4455.27
0.9788,0.0212	-4464.05
0.9685,0.0315	-4497.05
0.9648,0.0352	-4477.20
0.9894,0.0106	-4436.95
0.9797,0.0203	-4456.18
0.9853,0.0147	-4451.04
0.9739,0.0261	-4479.39
0.9697,0.0303	-4479.77
0.9553,0.0447	-4510.18
0.9894,0.0106	-4446.04
0.9836,0.0164	-4451.37
0.9840,0.0160	-4463.63
0.9732,0.0268	-4486.62
0.9680,0.0320	-4493.63
0.9430,0.0570	-4517.11
0.9893,0.0107	-4427.96
0.9824,0.0176	-4447.62
0.9848,0.0152	-4446.94
0.9676,0.0324	-4473.25
0.9557,0.0443	-4494.80
0.9374,0.0626	-4515.20
0.9890,0.0110	-4459.59
0.9850,0.0150	-4459.46
0.9831,0.0169	-4459.59
0.9748,0.0252	-4475.70
0.9628,0.0372	-4477.63
0.9418,0.0582	-4525.62
0.9905,0.0095	-4441.26
0.9864,0.0136	-4463.71
0.9852,0.0148	-4459.45
0.9780,0.0220	-4452.78
0.9691,0.0309	-4486.73
0.9473,0.0527	-4507.99
0.9907,0.0093	-4441.22
0.9901,0.0099	-4445.96
0.9862,0.0138	-4455.15
0.9718,0.0282	-4479.55
0.9620,0.0380	-4490.75
0.9488,0.0512	-4504.87
0.9903,0.0097	-4450.56
0.9886,0.0114	-4459.54
0.9852,0.0148	-4451.05
0.9687,0.0313	-4486.76
0.9619,0.0381	-4490.75
0.9529,0.0471	-4531.38
0.9878,0.0122	-4450.69
0.9896,0.0104	-4436.90
0.9849,0.0151	-4459.46
0.9763,0.0237	-4457.00
0.9642,0.0358	-4500.38
0.9532,0.0468	-4495.24
0.9832,0.0168	-4451.44
0.9882,0.0118	-4441.78
0.9875,0.0125	-4468.20
0.9720,0.0280	-4461.80
0.9571,0.0429	-4500.79
0.9488,0.0512	-4519.47
0.9815,0.0185	-4471.70
0.9880,0.0120	-4455.08
0.9869,0.0131	-4433.49
0.9671,0.0329	-4497.03
0.9578,0.0422	-4485.12
0.9443,0.0557	-4511.30
0.9763,0.0237	-4479.32
0.9895,0.0105	-4455.11
0.9850,0.0150	-4463.64
0.9595,0.0405	-4500.58
0.9597,0.0403	-4487.89
0.9408,0.0592	-4517.40
0.9794,0.0206	-4463.97
0.9900,0.0100	-4445.97
0.9876,0.0124	-4437.59
0.9619,0.0381	-4471.39
0.9600,0.0400	-4475.14
0.9434,0.0566	-4505.81
0.9825,0.0175	-4455.63
0.9910,0.0090	-4441.18
0.9885,0.0115	-4437.26
0.9632,0.0368	-4493.87
0.9640,0.0360	-4503.67
0.9518,0.0482	-4504.45
0.9800,0.0200	-4471.68
0.9918,0.0082	-4436.25
0.9893,0.0107	-4450.58
0.9731,0.0269	-4465.08
0.9636,0.0364	-4467.62
0.9572,0.0428	-4503.89
0.9828,0.0172	-4463.67
0.9931,0.0069	-4445.87
0.9889,0.0111	-4432.63
0.9736,0.0264	-4483.02
0.9613,0.0387	-4503.68
0.9631,0.0369	-4493.88
0.9842,0.0158	-4455.38
0.9929,0.0071	-4450.80
0.9846,0.0154	-4446.99
0.9716,0.0284	-4490.16
0.9595,0.0405	-4500.59
0.9660,0.0340	-4480.30
0.9810,0.0190	-4463.80
0.9911,0.0089	-4431.72
0.9821,0.0179	-4455.70
0.9714,0.0286	-4476.06
0.9668,0.0332	-4500.40
0.9689,0.0311	-4459.23
0.9854,0.0146	-4459.44
0.9922,0.0078	-4450.68
0.9806,0.0194	-4456.00
0.9767,0.0233	-4456.91
0.9643,0.0357	-4474.01
0.9608,0.0392	-4497.30
0.9831,0.0169	-4467.72
0.9919,0.0081	-4426.58
0.9809,0.0191	-4463.80
0.9839,0.0161	-4447.18
0.9646,0.0354	-4480.55
0.9617,0.0383	-4474.67
0.9862,0.0138	-4450.89
0.9922,0.0078	-4436.15
0.9792,0.0208	-4456.29
0.9838,0.0162	-4471.85
0.9739,0.0261	-4464.91
0.9624,0.0376	-4510.15
0.9861,0.0139	-4450.90
0.9926,0.0074	-4445.84
0.9760,0.0240	-4464.50
0.9819,0.0181	-4451.74
0.9751,0.0249	-4475.67
0.9629,0.0371	-4477.60
0.9828,0.0172	-4459.62
0.9917,0.0083	-4431.49
0.9713,0.0287	-4483.12
0.9834,0.0166	-4463.65
0.9665,0.0335	-4476.86
0.9590,0.0410	-4494.31
0.9861,0.0139	-4442.39
0.9924,0.0076	-4426.37
0.9663,0.0337	-4476.89
0.9828,0.0172	-4455.59
0.9646,0.0354	-4473.94
0.9606,0.0394	-4500.51
0.9839,0.0161	-4447.19
0.9928,0.0072	-4455.71
0.9674,0.0326	-4490.25
0.9828,0.0172	-4451.53
0.9553,0.0447	-4501.00
0.9659,0.0341	-4476.98
0.9838,0.0162	-4463.64
0.9921,0.0079	-4436.16
0.9639,0.0361	-4483.95
0.9830,0.0170	-4471.78
0.9547,0.0453	-4479.72
0.9775,0.0225	-4475.56
0.9847,0.0153	-4467.80
0.9926,0.0074	-4450.73
0.9698,0.0302	-4490.16
0.9808,0.0192	-4455.94
0.9596,0.0404	-4487.90
0.9729,0.0271	-4479.46
0.9842,0.0158	-4451.24
0.9935,0.0065	-4445.90
0.9724,0.0276	-4479.49
0.9888,0.0112	-4446.12
0.9546,0.0454	-4482.80
0.9771,0.0229	-4475.57
0.9860,0.0140	-4459.43
0.9946,0.0054	-4435.66
0.9743,0.0257	-4472.11
0.9866,0.0134	-4446.53
0.9510,0.0490	-4498.62
0.9794,0.0206	-4452.38
0.9825,0.0175	-4443.56
0.9934,0.0066	-4450.91
0.9694,0.0306	-4472.90
0.9852,0.0148	-4442.64
0.9569,0.0431	-4519.41
0.9812,0.0188	-4463.78
0.9865,0.0135	-4459.43
0.9929,0.0071	-4440.91
0.9698,0.0302	-4483.22
0.9842,0.0158	-4447.10
0.9534,0.0466	-4501.23
0.9778,0.0222	-4471.76
0.9883,0.0117	-4450.64
0.9908,0.0092	-4427.16
0.9774,0.0226	-4471.79
0.9830,0.0170	-4467.72
0.9576,0.0424	-4494.51
0.9825,0.0175	-4447.58
0.9906,0.0094	-4441.25
0.9927,0.0073	-4445.84
0.9774,0.0226	-4486.86
0.9865,0.0135	-4463.72
0.9526,0.0474	-4516.35
0.9806,0.0194	-4463.83
0.9942,0.0058	-4435.72
0.9926,0.0074	-4445.84
0.9799,0.0201	-4479.46
0.9846,0.0154	-4463.63
0.9447,0.0553	-4528.27
0.9839,0.0161	-4459.53
0.9940,0.0060	-4440.86
0.9929,0.0071	-4445.86
0.9745,0.0255	-4479.36
0.9894,0.0106	-4464.19
0.9326,0.0674	-4524.02
0.9840,0.0160	-4451.28
0.9953,0.0047	-4430.23
0.9924,0.0076	-4440.97
0.9772,0.0228	-4464.29
0.9906,0.0094	-4431.92
0.9440,0.0560	-4502.87
0.9867,0.0133	-4446.52
0.9931,0.0069	-4435.93
0.9929,0.0071	-4450.80
0.9814,0.0186	-4432.02
0.9924,0.0076	-4431.23
0.9425,0.0575	-4514.38
0.9872,0.0128	-4455.10
0.9938,0.0062	-4440.86
0.9932,0.0068	-4445.87
0.9839,0.0161	-4459.52
0.9917,0.0083	-4460.20
0.9313,0.0687	-4532.06
0.9828,0.0172	-4463.67
0.9924,0.0076	-4445.84
0.9938,0.0062	-4445.94
0.9821,0.0179	-4475.73
0.9911,0.0089	-4455.29
0.9314,0.0686	-4521.60
0.9815,0.0185	-4479.63
0.9926,0.0074	-4431.14
0.9938,0.0062	-4440.86
0.9829,0.0171	-4467.72
0.9912,0.0088	-4441.13
0.9478,0.0522	-4510.83
0.9813,0.0187	-4459.81
0.9908,0.0092	-4445.89
0.9927,0.0073	-4460.59
0.9859,0.0141	-4463.68
0.9885,0.0115	-4441.71
0.9497,0.0503	-4516.49
0.9797,0.0203	-4452.31
0.9920,0.0080	-4436.19
0.9923,0.0077	-4431.27
0.9887,0.0113	-4459.55
0.9889,0.0111	-4428.14
0.9597,0.0403	-4494.23
0.9849,0.0151	-4467.82
0.9930,0.0070	-4445.86
0.9914,0.0086	-4426.87
0.9890,0.0110	-4441.60
0.9879,0.0121	-4441.86
0.9630,0.0370	-4513.44
0.9847,0.0153	-4459.47
0.9930,0.0070	-4445.86
0.9936,0.0064	-4425.73
0.9901,0.0099	-4459.76
0.9835,0.0165	-4467.73
0.9694,0.0306	-4483.26
0.9873,0.0127	-4429.00
0.9927,0.0073	-4440.93
0.9929,0.0071	-4435.97
0.9908,0.0092	-4445.89
0.9834,0.0166	-4451.40
0.9650,0.0350	-4480.47
0.9884,0.0116	-4459.52
0.9922,0.0078	-4445.83
0.9916,0.0084	-4441.08
0.9921,0.0079	-4436.18
0.9797,0.0203	-4463.93
0.9717,0.0283	-4472.49
0.9882,0.0118	-4446.23
0.9919,0.0081	-4455.46
0.9922,0.0078	-4436.15
0.9917,0.0083	-4441.06
0.9836,0.0164	-4463.64
0.9745,0.0255	-4497.58
0.9905,0.0095	-4445.91
0.9917,0.0083	-4450.62
0.9929,0.0071	-4435.97
0.9917,0.0083	-4441.06
0.9860,0.0140	-4446.66
0.9806,0.0194	-4455.98
0.9894,0.0106	-4464.18
0.9909,0.0091	-4441.19
0.9933,0.0067	-4430.89
0.9919,0.0081	-4441.03
0.9875,0.0125	-4450.72
0.9804,0.0196	-4463.85
0.9879,0.0121	-4446.28
0.9919,0.0081	-4450.65
0.9926,0.0074	-4445.84
0.9920,0.0080	-4426.56
0.9914,0.0086	-4431.61
0.9794,0.0206	-4463.97
0.9895,0.0105	-4436.92
0.9929,0.0071	-4450.80
0.9912,0.0088	-4445.86
0.9920,0.0080	-4431.39
0.9936,0.0064	-4440.87
0.9843,0.0157	-4442.93
0.9915,0.0085	-4445.85
0.9929,0.0071	-4431.03
0.9908,0.0092	-4445.88
0.9913,0.0087	-4441.12
0.9923,0.0077	-4436.12
0.9870,0.0130	-4446.44
0.9902,0.0098	-4441.33
0.9946,0.0054	-4456.51
0.9909,0.0091	-4450.57
0.9903,0.0097	-4436.68
0.9903,0.0097	-4450.56
0.9888,0.0112	-4450.60
0.9925,0.0075	-4431.18
0.9956,0.0044	-4440.97
0.9916,0.0084	-4436.29
0.9917,0.0083	-4436.27
0.9891,0.0109	-4455.09
0.9894,0.0106	-4436.97
0.9929,0.0071	-4435.97
0.9955,0.0045	-4451.73
0.9918,0.0082	-4441.04
0.9914,0.0086	-4445.85
0.9870,0.0130	-4450.78
0.9910,0.0090	-4445.88
0.9932,0.0068	-4440.89
0.9960,0.0040	-4430.02
0.9936,0.0064	-4440.87
0.9921,0.0079	-4465.14
0.9874,0.0126	-4463.81
0.9896,0.0104	-4450.56
0.9911,0.0089	-4441.15
0.9958,0.0042	-4435.54
0.9939,0.0061	-4425.56
0.9938,0.0062	-4456.10
0.9886,0.0114	-4446.15
0.9912,0.0088	-4445.86
0.9928,0.0072	-4431.07
0.9966,0.0034	-4441.25
0.9940,0.0060	-4440.86
0.9960,0.0040	-4441.06
0.9901,0.0099	-4450.56
0.9899,0.0101	-4445.97
0.9936,0.0064	-4430.79
0.9963,0.0037	-4446.74
0.9934,0.0066	-4430.84
0.9961,0.0039	-4424.46
0.9902,0.0098	-4450.56
0.9912,0.0088	-4436.42
0.9941,0.0059	-4461.34
0.9960,0.0040	-4430.04
0.9944,0.0056	-4425.33
0.9955,0.0045	-4435.56
0.9904,0.0096	-4450.56
0.9916,0.0084	-4436.31
0.9947,0.0053	-4446.10
0.9961,0.0039	-4441.07
0.9933,0.0067	-4435.89
0.9951,0.0049	-4440.91
0.9881,0.0119	-4468.32
0.9920,0.0080	-4445.84
0.9947,0.0053	-4435.65
0.9962,0.0038	-4441.10
0.9937,0.0063	-4445.93
0.9964,0.0036	-4429.94
0.9917,0.0083	-4450.63
0.9910,0.0090	-4445.87
0.9961,0.0039	-4430.00
0.9967,0.0033	-4435.57
0.9938,0.0062	-4440.86
0.9953,0.0047	-4435.57
0.9893,0.0107	-4441.52
0.9902,0.0098	-4441.32
0.9962,0.0038	-4429.98
0.9970,0.0030	-4429.81
0.9924,0.0076	-4426.34
0.9952,0.0048	-4424.89
0.9911,0.0089	-4445.87
0.9911,0.0089	-4450.58
0.9964,0.0036	-4429.92
0.9976,0.0024	-4429.72
0.9933,0.0067	-4450.89
0.9950,0.0050	-4440.89
0.9902,0.0098	-4441.32
0.9902,0.0098	-4441.32
0.9971,0.0029	-4423.94
0.9972,0.0028	-4429.77
0.9941,0.0059	-4440.86
0.9942,0.0058	-4430.59
0.9921,0.0079	-4450.67
0.9909,0.0091	-4445.88
0.9972,0.0028	-4423.89
0.9969,0.0031	-4429.81
0.9945,0.0055	-4440.86
0.9946,0.0054	-4440.87
0.9923,0.0077	-4436.12
0.9871,0.0129	-4459.44
0.9973,0.0027	-4429.75
0.9961,0.0039	-4429.99
0.9932,0.0068	-4440.89
0.9967,0.0033	-4441.27
0.9915,0.0085	-4479.14
0.9876,0.0124	-4446.32
0.9971,0.0029	-4441.46
0.9935,0.0065	-4440.88
0.9935,0.0065	-4450.92
0.9960,0.0040	-4446.57
0.9931,0.0069	-4435.93
0.9883,0.0117	-4437.34
0.9973,0.0027	-4429.75
0.9937,0.0063	-4435.81
0.9929,0.0071	-4435.98
0.9954,0.0046	-4440.94
0.9921,0.0079	-4431.33
0.9875,0.0125	-4437.62
0.9974,0.0026	-4435.70
0.9933,0.0067	-4440.88
0.9935,0.0065	-4445.90
0.9944,0.0056	-4425.32
0.9912,0.0088	-4436.41
0.9874,0.0126	-4459.45
0.9980,0.0020	-4429.70
0.9933,0.0067	-4430.90
0.9940,0.0060	-4435.76
0.9941,0.0059	-4435.73
0.9902,0.0098	-4436.70
0.9879,0.0121	-4437.46
0.9978,0.0022	-4435.82
0.9925,0.0075	-4436.07
0.9939,0.0061	-4430.67
0.9929,0.0071	-4460.67
0.9922,0.0078	-4445.83
0.9849,0.0151	-4446.92
0.9974,0.0026	-4429.74
0.9917,0.0083	-4445.84
0.9929,0.0071	-4431.02
0.9944,0.0056	-4425.35
0.9924,0.0076	-4440.97
0.9863,0.0137	-4467.98
0.9972,0.0028	-4429.76
0.9894,0.0106	-4455.11
0.9927,0.0073	-4431.11
0.9945,0.0055	-4435.67
0.9927,0.0073	-4431.11
0.9848,0.0152	-4442.77
0.9969,0.0031	-4441.36
0.9871,0.0129	-4437.76
0.9932,0.0068	-4445.87
0.9955,0.0045	-4424.78
0.9916,0.0084	-4436.30
0.9799,0.0201	-4475.57
0.9970,0.0030	-4429.80
0.9855,0.0145	-4451.01
0.9941,0.0059	-4461.39
0.9941,0.0059	-4435.73
0.9893,0.0107	-4441.52
0.9808,0.0192	-4459.88
0.9966,0.0034	-4429.89
0.9862,0.0138	-4455.16
0.9942,0.0058	-4430.58
0.9941,0.0059	-4445.98
0.9898,0.0102	-4441.42
0.9784,0.0216	-4448.84
0.9976,0.0024	-4423.67
0.9852,0.0148	-4442.64
0.9947,0.0053	-4435.64
0.9918,0.0082	-4436.24
0.9927,0.0073	-4450.76
0.9787,0.0213	-4460.23
0.9983,0.0017	-4429.71
0.9840,0.0160	-4447.15
0.9945,0.0055	-4425.28
0.9910,0.0090	-4441.18
0.9922,0.0078	-4450.68
0.9742,0.0258	-4464.85
0.9986,0.0014	-4429.76
0.9841,0.0159	-4447.14
0.9955,0.0045	-4430.17
0.9909,0.0091	-4441.19
0.9915,0.0085	-4450.61
0.9786,0.0214	-4460.26
0.9987,0.0013	-4429.77
0.9881,0.0119	-4455.08
0.9958,0.0042	-4430.08
0.9909,0.0091	-4436.49
0.9936,0.0064	-4435.82
0.9797,0.0203	-4452.29
0.9988,0.0012	-4423.08
0.9854,0.0146	-4467.87
0.9966,0.0034	-4429.88
0.9906,0.0094	-4450.56
0.9934,0.0066	-4430.86
0.9784,0.0216	-4460.29
0.9986,0.0014	-4423.16
0.9814,0.0186	-4455.84
0.9969,0.0031	-4435.60
0.9887,0.0113	-4437.21
0.9930,0.0070	-4431.00
0.9809,0.0191	-4467.74
0.9986,0.0014	-4436.33
0.9810,0.0190	-4463.80
0.9972,0.0028	-4429.78
0.9866,0.0134	-4437.92
0.9928,0.0072	-4436.00
0.9860,0.0140	-4450.92
0.9987,0.0013	-4423.14
0.9816,0.0184	-4451.81
0.9966,0.0034	-4424.22
0.9864,0.0136	-4450.86
0.9930,0.0070	-4445.86
0.9872,0.0128	-4442.06
0.9987,0.0013	-4423.11
0.9835,0.0165	-4455.47
0.9963,0.0037	-4429.94
0.9875,0.0125	-4450.72
0.9931,0.0069	-4435.93
0.9873,0.0127	-4442.04
0.9991,0.0009	-4422.95
0.9813,0.0187	-4451.88
0.9961,0.0039	-4435.54
0.9896,0.0104	-4455.12
0.9940,0.0060	-4456.21
0.9852,0.0148	-4459.45
0.9990,0.0010	-4429.90
0.9824,0.0176	-4487.82
0.9955,0.0045	-4424.76
0.9886,0.0114	-4441.69
0.9952,0.0048	-4451.59
0.9878,0.0122	-4455.08
0.9989,0.0011	-4429.83
0.9821,0.0179	-4455.70
0.9960,0.0040	-4435.54
0.9871,0.0129	-4442.09
0.9956,0.0044	-4457.26
0.9900,0.0100	-4445.96
0.9992,0.0008	-4429.97
0.9823,0.0177	-4451.64
0.9958,0.0042	-4451.93
0.9821,0.0179	-4451.69
0.9953,0.0047	-4440.93
0.9918,0.0082	-4441.04
0.9990,0.0010	-4429.91
0.9830,0.0170	-4447.42
0.9950,0.0050	-4425.04
0.9835,0.0165	-4459.56
0.9947,0.0053	-4440.88
0.9918,0.0082	-4431.44
0.9989,0.0011	-4423.01
0.9836,0.0164	-4459.55
0.9954,0.0046	-4430.18
0.9830,0.0170	-4443.36
0.9940,0.0060	-4430.63
0.9888,0.0112	-4450.60
0.9989,0.0011	-4423.04
0.9814,0.0186	-4467.73
0.9959,0.0041	-4430.05
0.9827,0.0173	-4467.71
0.9955,0.0045	-4430.15
0.9868,0.0132	-4463.75
0.9989,0.0011	-4429.83
0.9743,0.0257	-4483.01
0.9947,0.0053	-4435.64
0.9856,0.0144	-4450.98
0.9952,0.0048	-4424.91
0.9868,0.0132	-4442.17
0.9990,0.0010	-4429.88
0.9766,0.0234	-4471.85
0.9947,0.0053	-4440.87
0.9881,0.0119	-4441.82
0.9956,0.0044	-4424.73
0.9864,0.0136	-4442.28
0.9990,0.0010	-4422.99
0.9793,0.0207	-4467.84
0.9936,0.0064	-4435.82
0.9868,0.0132	-4437.85
0.9959,0.0041	-4441.04
0.9854,0.0146	-4434.18
0.9991,0.0009	-4422.90
0.9756,0.0244	-4475.64
0.9927,0.0073	-4431.11
0.9844,0.0156	-4451.21
0.9962,0.0038	-4429.98
0.9855,0.0145	-4438.35
0.9990,0.0010	-4429.90
0.9780,0.0220	-4456.58
0.9910,0.0090	-4445.87
0.9856,0.0144	-4459.44
0.9964,0.0036	-4424.29
0.9865,0.0135	-4468.01
0.9991,0.0009	-4422.93
0.9805,0.0195	-4452.09
0.9906,0.0094	-4441.25
0.9879,0.0121	-4433.08
0.9960,0.0040	-4430.02
0.9862,0.0138	-4446.61
0.9990,0.0010	-4422.96
0.9774,0.0226	-4456.74
0.9913,0.0087	-4445.86
0.9841,0.0159	-4467.76
0.9964,0.0036	-4429.93
0.9858,0.0142	-4446.71
0.9992,0.0008	-4422.88
0.9809,0.0191	-4463.80
0.9899,0.0101	-4436.80
0.9795,0.0205	-4475.56
0.9961,0.0039	-4430.00
0.9863,0.0137	-4438.04
0.9992,0.0008	-4422.85
0.9825,0.0175	-4455.63
0.9901,0.0099	-4441.35
0.9785,0.0215	-4456.47
0.9956,0.0044	-4430.14
0.9867,0.0133	-4450.82
0.9993,0.0007	-4430.05
0.9830,0.0170	-4459.60
0.9919,0.0081	-4450.65
0.9804,0.0196	-4456.02
0.9945,0.0055	-4435.67
0.9911,0.0089	-4478.88
0.9993,0.0007	-4422.84
0.9824,0.0176	-4471.74
0.9927,0.0073	-4431.10
0.9823,0.0177	-4455.66
0.9957,0.0043	-4440.99
0.9903,0.0097	-4445.93
0.9991,0.0009	-4429.97
0.9810,0.0190	-4487.47
0.9937,0.0063	-4450.99
0.9821,0.0179	-4451.69
0.9945,0.0055	-4430.47
0.9880,0.0120	-4441.85
0.9992,0.0008	-4422.88
0.9823,0.0177	-4455.66
0.9939,0.0061	-4435.77
0.9825,0.0175	-4471.74
0.9953,0.0047	-4424.89
0.9865,0.0135	-4450.84
0.9990,0.0010	-4429.89
0.9830,0.0170	-4479.90
0.9938,0.0062	-4440.86
0.9799,0.0201	-4440.60
0.9937,0.0063	-4445.93
0.9876,0.0124	-4450.71
0.9992,0.0008	-4422.85
0.9853,0.0147	-4442.63
0.9933,0.0067	-4450.88
0.9791,0.0209	-4467.85
0.9944,0.0056	-4440.86
0.9865,0.0135	-4442.27
0.9993,0.0007	-4422.82
0.9866,0.0134	-4446.52
0.9922,0.0078	-4431.30
0.9764,0.0236	-4453.27
0.9954,0.0046	-4430.20
0.9855,0.0145	-4438.33
0.9993,0.0007	-4422.84
0.9855,0.0145	-4463.66
0.9929,0.0071	-4431.03
0.9815,0.0185	-4447.87
0.9955,0.0045	-4424.77
0.9843,0.0157	-4455.36
0.9994,0.0006	-4422.78
0.9887,0.0113	-4450.61
0.9933,0.0067	-4465.87
0.9801,0.0199	-4467.78
0.9970,0.0030	-4441.42
0.9820,0.0180	-4467.71
0.9992,0.0008	-4422.88
0.9907,0.0093	-4436.57
0.9939,0.0061	-4456.15
0.9817,0.0183	-4471.70
0.9968,0.0032	-4429.85
0.9814,0.0186	-4455.84
0.9993,0.0007	-4422.85
0.9904,0.0096	-4441.28
0.9937,0.0063	-4435.80
0.9803,0.0197	-4456.04
0.9959,0.0041	-4430.04
0.9817,0.0183	-4471.70
0.9992,0.0008	-4422.90
0.9903,0.0097	-4450.56
0.9952,0.0048	-4430.24
0.9815,0.0185	-4455.81
0.9965,0.0035	-4441.21
0.9823,0.0177	-4455.67
0.9991,0.0009	-4422.94
0.9903,0.0097	-4445.93
0.9951,0.0049	-4435.60
0.9831,0.0169	-4443.35
0.9963,0.0037	-4429.95
0.9824,0.0176	-4471.73
0.9990,0.0010	-4422.98
0.9932,0.0068	-4435.91
0.9955,0.0045	-4424.76
0.9818,0.0182	-4467.72
0.9962,0.0038	-4435.54
0.9843,0.0157	-4442.95
0.9990,0.0010	-4422.97
0.9935,0.0065	-4435.85
0.9957,0.0043	-4430.09
0.9810,0.0190	-4455.91
0.9972,0.0028	-4441.52
0.9799,0.0201	-4463.91
0.9987,0.0013	-4429.78
0.9942,0.0058	-4435.72
0.9952,0.0048	-4424.91
0.9828,0.0172	-4459.63
0.9965,0.0035	-4429.90
0.9780,0.0220	-4471.75
0.9989,0.0011	-4423.04
0.9951,0.0049	-4440.91
0.9935,0.0065	-4440.87
0.9840,0.0160	-4467.75
0.9970,0.0030	-4435.61
0.9753,0.0247	-4446.26
0.9990,0.0010	-4422.97
0.9945,0.0055	-4440.87
0.9930,0.0070	-4445.86
0.9862,0.0138	-4438.07
0.9961,0.0039	-4435.54
0.9698,0.0302	-4486.69
0.9989,0.0011	-4423.05
0.9938,0.0062	-4435.79
0.9945,0.0055	-4435.67
0.9874,0.0126	-4433.29
0.9958,0.0042	-4424.61
0.9705,0.0295	-4479.67
0.9987,0.0013	-4429.78
0.9927,0.0073	-4440.94
0.9944,0.0056	-4446.03
0.9901,0.0099	-4459.76
0.9954,0.0046	-4430.18
0.9690,0.0310	-4469.53
0.9987,0.0013	-4429.78
0.9919,0.0081	-4431.42
0.9937,0.0063	-4461.12
0.9887,0.0113	-4446.14
0.9955,0.0045	-4446.35
0.9683,0.0317	-4493.63
0.9989,0.0011	-4423.05
0.9922,0.0078	-4426.44
0.9922,0.0078	-4450.68
0.9890,0.0110	-4450.59
0.9959,0.0041	-4446.52
0.9723,0.0277	-4490.18
0.9986,0.0014	-4423.20
0.9919,0.0081	-4441.03
0.9930,0.0070	-4435.96
0.9888,0.0112	-4455.08
0.9951,0.0049	-4424.96
0.9780,0.0220	-4456.57
0.9988,0.0012	-4429.80
0.9934,0.0066	-4440.88
0.9922,0.0078	-4436.15
0.9878,0.0122	-4463.87
0.9953,0.0047	-4430.23
0.9809,0.0191	-4459.87
0.9989,0.0011	-4423.01
0.9933,0.0067	-4430.90
0.9914,0.0086	-4441.11
0.9872,0.0128	-4450.76
0.9956,0.0044	-4435.55
0.9758,0.0242	-4468.23
0.9989,0.0011	-4429.84
0.9930,0.0070	-4440.91
0.9872,0.0128	-4446.40
0.9867,0.0133	-4442.21
0.9964,0.0036	-4429.94
0.9627,0.0373	-4477.66
0.9990,0.0010	-4422.97
0.9941,0.0059	-4445.99
0.9861,0.0139	-4450.91
0.9875,0.0125	-4446.34
0.9966,0.0034	-4429.87
0.9624,0.0376	-4467.99
0.9991,0.0009	-4422.93
0.9943,0.0057	-4430.55
0.9863,0.0137	-4433.75
0.9876,0.0124	-4455.09
0.9967,0.0033	-4435.58
0.9694,0.0306	-4479.81
0.9990,0.0010	-4422.98
0.9958,0.0042	-4424.62
0.9859,0.0141	-4459.43
0.9843,0.0157	-4442.95
0.9967,0.0033	-4435.58
0.9687,0.0313	-4473.02
0.9988,0.0012	-4423.07
0.9961,0.0039	-4441.08
0.9852,0.0148	-4442.65
0.9833,0.0167	-4484.02
0.9968,0.0032	-4424.09
0.9645,0.0355	-4490.47
0.9989,0.0011	-4429.86
0.9963,0.0037	-4435.54
0.9866,0.0134	-4455.13
0.9801,0.0199	-4444.42
0.9965,0.0035	-4429.91
0.9678,0.0322	-4490.23
0.9989,0.0011	-4423.02
0.9963,0.0037	-4429.95
0.9897,0.0103	-4441.44
0.9800,0.0200	-4479.47
0.9969,0.0031	-4429.83
0.9708,0.0292	-4490.15
0.9987,0.0013	-4429.77
0.9967,0.0033	-4435.57
0.9915,0.0085	-4436.34
0.9799,0.0201	-4444.47
0.9962,0.0038	-4424.41
0.9705,0.0295	-4455.24
0.9988,0.0012	-4423.06
0.9969,0.0031	-4424.04
0.9930,0.0070	-4435.95
0.9788,0.0212	-4456.39
0.9963,0.0037	-4424.34
0.9792,0.0208	-4460.15
0.9988,0.0012	-4423.09
0.9976,0.0024	-4429.72
0.9905,0.0095	-4431.99
0.9808,0.0192	-4463.82
0.9968,0.0032	-4429.84
0.9735,0.0265	-4493.83
0.9990,0.0010	-4429.89
0.9978,0.0022	-4429.71
0.9911,0.0089	-4441.16
0.9811,0.0189	-4467.73
0.9968,0.0032	-4424.12
0.9754,0.0246	-4464.60
0.9987,0.0013	-4429.78
0.9976,0.0024	-4429.72
0.9911,0.0089	-4455.29
0.9806,0.0194	-4448.16
0.9975,0.0025	-4429.73
0.9753,0.0247	-4464.64
0.9989,0.0011	-4429.85
0.9974,0.0026	-4429.74
0.9918,0.0082	-4441.05
0.9839,0.0161	-4455.41
0.9974,0.0026	-4429.74
0.9793,0.0207	-4460.13
0.9989,0.0011	-4423.05
0.9976,0.0024	-4423.70
0.9922,0.0078	-4455.52
0.9854,0.0146	-4451.02
0.9969,0.0031	-4429.83
0.9803,0.0197	-4452.13
0.9989,0.0011	-4429.84
0.9979,0.0021	-4423.54
0.9936,0.0064	-4430.77
0.9864,0.0136	-4446.57
0.9975,0.0025	-4423.72
0.9842,0.0158	-4455.37
0.9988,0.0012	-4423.07
0.9974,0.0026	-4423.78
0.9931,0.0069	-4450.84
0.9882,0.0118	-4441.80
0.9982,0.0018	-4442.31
0.9846,0.0154	-4451.16
0.9991,0.0009	-4422.92
0.9975,0.0025	-4429.73
0.9941,0.0059	-4435.73
0.9881,0.0119	-4468.32
0.9981,0.0019	-4423.43
0.9817,0.0183	-4475.68
0.9988,0.0012	-4429.81
0.9975,0.0025	-4435.73
0.9935,0.0065	-4430.82
0.9884,0.0116	-4459.52
0.9981,0.0019	-4429.70
0.9796,0.0204	-4463.95
0.9990,0.0010	-4422.98
0.9978,0.0022	-4429.71
0.9940,0.0060	-4440.86
0.9880,0.0120	-4437.43
0.9982,0.0018	-4436.02
0.9792,0.0208	-4452.45
0.9990,0.0010	-4422.97
0.9981,0.0019	-4429.70
0.9937,0.0063	-4435.81
0.9884,0.0116	-4446.19
0.9975,0.0025	-4423.72
0.9804,0.0196	-4467.77
0.9991,0.0009	-4429.93
0.9977,0.0023	-4429.71
0.9928,0.0072	-4440.93
0.9901,0.0099	-4445.96
0.9970,0.0030	-4435.61
0.9772,0.0228	-4475.56
0.9989,0.0011	-4429.82
0.9984,0.0016	-4429.72
0.9914,0.0086	-4441.10
0.9885,0.0115	-4446.17
0.9971,0.0029	-4429.78
0.9757,0.0243	-4471.94
0.9988,0.0012	-4423.08
0.9976,0.0024	-4423.71
0.9921,0.0079	-4441.00
0.9861,0.0139	-4442.38
0.9975,0.0025	-4429.73
0.9811,0.0189	-4459.84
0.9988,0.0012	-4423.10
0.9979,0.0021	-4429.70
0.9905,0.0095	-4455.20
0.9862,0.0138	-4450.89
0.9973,0.0027	-4423.85
0.9825,0.0175	-4455.63
0.9987,0.0013	-4423.12
0.9977,0.0023	-4435.78
0.9910,0.0090	-4445.87
0.9848,0.0152	-4451.12
0.9977,0.0023	-4423.65
0.9795,0.0205	-4452.35
0.9988,0.0012	-4423.06
0.9978,0.0022	-4423.57
0.9910,0.0090	-4445.87
0.9854,0.0146	-4455.23
0.9976,0.0024	-4429.72
0.9810,0.0190	-4451.98
0.9990,0.0010	-4423.00
0.9978,0.0022	-4423.61
0.9913,0.0087	-4455.32
0.9836,0.0164	-4447.28
0.9978,0.0022	-4423.56
0.9808,0.0192	-4436.28
0.9990,0.0010	-4436.77
0.9980,0.0020	-4423.47
0.9937,0.0063	-4445.93
0.9798,0.0202	-4460.04
0.9979,0.0021	-4429.70
0.9795,0.0205	-4467.82
0.9991,0.0009	-4422.92
0.9975,0.0025	-4435.72
0.9930,0.0070	-4426.03
0.9770,0.0230	-4464.32
0.9980,0.0020	-4423.49
0.9723,0.0277	-4465.26
0.9990,0.0010	-4422.97
0.9980,0.0020	-4423.51
0.9931,0.0069	-4445.87
0.9825,0.0175	-4451.61
0.9978,0.0022	-4429.71
0.9725,0.0275	-4468.79
0.9991,0.0009	-4422.94
0.9982,0.0018	-4442.31
0.9935,0.0065	-4440.87
0.9807,0.0193	-4455.97
0.9978,0.0022	-4435.82
0.9744,0.0256	-4479.37
0.9992,0.0008	-4422.87
0.9983,0.0017	-4423.32
0.9942,0.0058	-4430.57
0.9803,0.0197	-4456.06
0.9971,0.0029	-4429.78
0.9695,0.0305	-4507.46
0.9991,0.0009	-4422.92
0.9984,0.0016	-4423.30
0.9946,0.0054	-4435.65
0.9815,0.0185	-4483.61
0.9976,0.0024	-4429.72
0.9629,0.0371	-4490.64
0.9992,0.0008	-4429.99
0.9984,0.0016	-4423.28
0.9953,0.0047	-4435.58
0.9849,0.0151	-4471.99
0.9981,0.0019	-4429.70
0.9584,0.0416	-4503.81
0.9992,0.0008	-4422.89
0.9986,0.0014	-4423.20
0.9961,0.0039	-4424.47
0.9848,0.0152	-4446.95
0.9981,0.0019	-4435.95
0.9621,0.0379	-4497.20
0.9989,0.0011	-4423.05
0.9982,0.0018	-4436.03
0.9958,0.0042	-4430.07
0.9853,0.0147	-4467.86
0.9978,0.0022	-4435.83
0.9645,0.0355	-4493.77
0.9989,0.0011	-4429.85
0.9981,0.0019	-4423.46
0.9965,0.0035	-4435.55
0.9815,0.0185	-4471.70
0.9969,0.0031	-4424.06
0.9698,0.0302	-4472.81
0.9989,0.0011	-4423.02
0.9976,0.0024	-4423.68
0.9963,0.0037	-4424.37
0.9812,0.0188	-4471.69
0.9970,0.0030	-4429.81
0.9604,0.0396	-4487.78
0.9988,0.0012	-4423.07
0.9980,0.0020	-4423.46
0.9955,0.0045	-4440.97
0.9830,0.0170	-4451.50
0.9976,0.0024	-4441.77
0.9656,0.0344	-4483.71
0.9991,0.0009	-4429.94
0.9979,0.0021	-4435.87
0.9947,0.0053	-4430.39
0.9828,0.0172	-4459.63
0.9977,0.0023	-4429.71
0.9725,0.0275	-4479.48
0.9992,0.0008	-4422.89
0.9977,0.0023	-4423.63
0.9936,0.0064	-4435.83
0.9843,0.0157	-4471.91
0.9972,0.0028	-4423.92
0.9720,0.0280	-4468.88
0.9990,0.0010	-4422.99
0.9976,0.0024	-4423.67
0.9942,0.0058	-4435.71
0.9840,0.0160	-4451.28
0.9967,0.0033	-4429.87
0.9815,0.0185	-4443.91
0.9991,0.0009	-4422.93
0.9972,0.0028	-4423.92
0.9949,0.0051	-4425.05
0.9826,0.0174	-4447.54
0.9969,0.0031	-4452.86
0.9801,0.0199	-4448.29
0.9991,0.0009	-4422.90
0.9978,0.0022	-4429.70
0.9939,0.0061	-4430.67
0.9800,0.0200	-4467.79
0.9967,0.0033	-4435.57
0.9777,0.0223	-4475.55
0.9990,0.0010	-4422.97
0.9971,0.0029	-4429.79
0.9954,0.0046	-4424.83
0.9776,0.0224	-4468.00
0.9963,0.0037	-4441.13
0.9743,0.0257	-4468.47
0.9989,0.0011	-4423.05
0.9968,0.0032	-4435.58
0.9960,0.0040	-4441.05
0.9842,0.0158	-4455.38
0.9965,0.0035	-4429.90
0.9797,0.0203	-4483.32
0.9992,0.0008	-4430.02
0.9971,0.0029	-4429.79
0.9967,0.0033	-4435.57
0.9846,0.0154	-4463.63
0.9963,0.0037	-4429.94
0.9845,0.0155	-4463.63
0.9990,0.0010	-4422.98
0.9970,0.0030	-4429.81
0.9955,0.0045	-4430.16
0.9876,0.0124	-4446.32
0.9958,0.0042	-4435.54
0.9828,0.0172	-4451.53
0.9988,0.0012	-4423.07
0.9971,0.0029	-4429.79
0.9952,0.0048	-4424.91
0.9872,0.0128	-4459.44
0.9964,0.0036	-4429.93
0.9832,0.0168	-4455.51
0.9987,0.0013	-4423.11
0.9976,0.0024	-4423.71
0.9957,0.0043	-4441.00
0.9888,0.0112	-4459.56
0.9960,0.0040	-4435.54
0.9794,0.0206	-4460.12
0.9987,0.0013	-4423.11
0.9979,0.0021	-4429.70
0.9965,0.0035	-4429.90
0.9885,0.0115	-4450.62
0.9963,0.0037	-4429.95
0.9780,0.0220	-4475.55
0.9987,0.0013	-4423.13
0.9980,0.0020	-4423.49
0.9964,0.0036	-4429.94
0.9899,0.0101	-4436.80
0.9949,0.0051	-4425.09
0.9781,0.0219	-4471.74
0.9988,0.0012	-4429.80
0.9980,0.0020	-4423.47
0.9964,0.0036	-4424.33
0.9913,0.0087	-4455.33
0.9945,0.0055	-4440.87
0.9840,0.0160	-4467.75
0.9986,0.0014	-4436.35
0.9979,0.0021	-4429.70
0.9956,0.0044	-4435.55
0.9926,0.0074	-4436.03
0.9953,0.0047	-4430.23
0.9856,0.0144	-4459.44
0.9987,0.0013	-4429.77
0.9983,0.0017	-4423.32
0.9970,0.0030	-4424.00
0.9942,0.0058	-4425.42
0.9952,0.0048	-4424.92
0.9824,0.0176	-4451.63
0.9988,0.0012	-4423.08
0.9984,0.0016	-4423.29
0.9968,0.0032	-4435.58
0.9934,0.0066	-4455.90
0.9943,0.0057	-4425.36
0.9834,0.0166	-4439.15
0.9987,0.0013	-4423.12
0.9985,0.0015	-4429.73
0.9969,0.0031	-4441.36
0.9949,0.0051	-4446.17
0.9943,0.0057	-4451.17
0.9828,0.0172	-4443.43
0.9981,0.0019	-4423.44
0.9985,0.0015	-4436.26
0.9977,0.0023	-4423.66
0.9949,0.0051	-4435.61
0.9941,0.0059	-4435.73
0.9831,0.0169	-4463.66
0.9981,0.0019	-4429.70
0.9985,0.0015	-4423.24
0.9984,0.0016	-4423.31
0.9950,0.0050	-4430.31
0.9944,0.0056	-4440.86
0.9861,0.0139	-4463.69
0.9977,0.0023	-4423.62
0.9988,0.0012	-4423.10
0.9979,0.0021	-4429.70
0.9948,0.0052	-4440.88
0.9947,0.0053	-4430.42
0.9897,0.0103	-4427.74
0.9976,0.0024	-4429.72
0.9989,0.0011	-4423.01
0.9982,0.0018	-4423.37
0.9935,0.0065	-4455.97
0.9948,0.0052	-4435.63
0.9892,0.0108	-4441.55
0.9974,0.0026	-4429.75
0.9988,0.0012	-4423.08
0.9984,0.0016	-4423.29
0.9937,0.0063	-4445.93
0.9957,0.0043	-4435.55
0.9905,0.0095	-4427.31
0.9978,0.0022	-4429.71
0.9987,0.0013	-4423.12
0.9983,0.0017	-4429.71
0.9947,0.0053	-4425.18
0.9953,0.0047	-4435.58
0.9908,0.0092	-4455.24
0.9974,0.0026	-4429.74
0.9985,0.0015	-4423.23
0.9986,0.0014	-4423.16
0.9949,0.0051	-4430.35
0.9954,0.0046	-4435.57
0.9917,0.0083	-4450.63
0.9970,0.0030	-4424.02
0.9984,0.0016	-4429.72
0.9986,0.0014	-4423.18
0.9957,0.0043	-4430.10
0.9961,0.0039	-4435.54
0.9883,0.0117	-4446.20
0.9955,0.0045	-4440.95
0.9980,0.0020	-4429.70
0.9983,0.0017	-4429.71
0.9959,0.0041	-4430.04
0.9961,0.0039	-4435.54
0.9883,0.0117	-4450.64
0.9960,0.0040	-4430.03
0.9984,0.0016	-4423.27
0.9985,0.0015	-4423.25
0.9958,0.0042	-4424.61
0.9971,0.0029	-4429.78
0.9886,0.0114	-4481.88
0.9955,0.0045	-4430.16
0.9985,0.0015	-4429.73
0.9982,0.0018	-4423.38
0.9960,0.0040	-4430.03
0.9973,0.0027	-4423.83
0.9870,0.0130	-4446.45
0.9954,0.0046	-4462.47
0.9984,0.0016	-4429.72
0.9985,0.0015	-4423.24
0.9957,0.0043	-4430.09
0.9972,0.0028	-4429.77
0.9854,0.0146	-4442.61
0.9960,0.0040	-4441.06
0.9984,0.0016	-4429.72
0.9983,0.0017	-4423.31
0.9956,0.0044	-4435.56
0.9973,0.0027	-4423.84
0.9878,0.0122	-4455.08
0.9962,0.0038	-4435.54
0.9985,0.0015	-4436.20
0.9985,0.0015	-4429.74
0.9948,0.0052	-4430.39
0.9972,0.0028	-4429.77
0.9896,0.0104	-4450.57
0.9967,0.0033	-4435.57
0.9984,0.0016	-4429.72
0.9985,0.0015	-4423.25
0.9954,0.0046	-4430.18
0.9971,0.0029	-4423.96
0.9909,0.0091	-4441.18
0.9964,0.0036	-4429.93
0.9988,0.0012	-4443.21
0.9983,0.0017	-4423.33
0.9940,0.0060	-4425.51
0.9971,0.0029	-4435.62
0.9931,0.0069	-4445.87
0.9971,0.0029	-4435.62
0.9987,0.0013	-4423.11
0.9980,0.0020	-4423.51
0.9937,0.0063	-4425.69
0.9968,0.0032	-4435.59
0.9939,0.0061	-4440.86
0.9972,0.0028	-4423.88
0.9984,0.0016	-4423.29
0.9984,0.0016	-4423.27
0.9942,0.0058	-4456.28
0.9968,0.0032	-4429.84
0.9935,0.0065	-4435.84
0.9966,0.0034	-4435.56
0.9980,0.0020	-4429.70
0.9985,0.0015	-4423.22
0.9947,0.0053	-4440.87
0.9972,0.0028	-4429.78
0.9949,0.0051	-4435.61
0.9975,0.0025	-4435.73
0.9981,0.0019	-4423.42
0.9986,0.0014	-4429.75
0.9945,0.0055	-4435.66
0.9969,0.0031	-4424.04
0.9958,0.0042	-4430.09
0.9971,0.0029	-4441.44
0.9983,0.0017	-4429.71
0.9987,0.0013	-4423.14
0.9937,0.0063	-4435.81
0.9969,0.0031	-4441.35
0.9959,0.0041	-4430.06
0.9980,0.0020	-4429.70
0.9981,0.0019	-4429.70
0.9989,0.0011	-4423.04
0.9938,0.0062	-4430.72
0.9973,0.0027	-4429.75
0.9949,0.0051	-4446.17
0.9978,0.0022	-4435.81
0.9981,0.0019	-4429.70
0.9988,0.0012	-4423.10
0.9949,0.0051	-4435.62
0.9974,0.0026	-4435.70
0.9949,0.0051	-4435.62
0.9977,0.0023	-4435.79
0.9982,0.0018	-4429.70
0.9982,0.0018	-4423.40
0.9954,0.0046	-4430.19
0.9971,0.0029	-4435.62
0.9953,0.0047	-4430.23
0.9974,0.0026	-4429.75
0.9981,0.0019	-4429.70
0.9980,0.0020	-4429.70
0.9956,0.0044	-4424.71
0.9967,0.0033	-4424.15
0.9938,0.0062	-4430.71
0.9975,0.0025	-4429.73
0.9980,0.0020	-4423.47
0.9978,0.0022	-4423.58
0.9961,0.0039	-4424.43
0.9960,0.0040	-4430.01
0.9922,0.0078	-4441.00
0.9973,0.0027	-4429.76
0.9983,0.0017	-4429.71
0.9977,0.0023	-4423.62
0.9957,0.0043	-4430.11
0.9962,0.0038	-4424.41
0.9927,0.0073	-4431.09
0.9980,0.0020	-4429.70
0.9981,0.0019	-4435.96
0.9982,0.0018	-4423.37
0.9955,0.0045	-4440.96
0.9957,0.0043	-4430.11
0.9925,0.0075	-4460.51
0.9982,0.0018	-4429.70
0.9981,0.0019	-4423.42
0.9983,0.0017	-4423.33
0.9952,0.0048	-4440.92
0.9951,0.0049	-4435.60
0.9917,0.0083	-4445.84
0.9985,0.0015	-4429.73
0.9977,0.0023	-4423.64
0.9980,0.0020	-4429.70
0.9944,0.0056	-4430.52
0.9954,0.0046	-4424.82
0.9895,0.0105	-4432.38
0.9985,0.0015	-4436.27
0.9976,0.0024	-4435.76
0.9982,0.0018	-4423.40
0.9941,0.0059	-4425.48
0.9959,0.0041	-4424.55
0.9922,0.0078	-4445.83
0.9982,0.0018	-4423.41
0.9971,0.0029	-4429.79
0.9981,0.0019	-4435.94
0.9947,0.0053	-4430.40
0.9957,0.0043	-4441.00
0.9921,0.0079	-4441.00
0.9983,0.0017	-4423.32
0.9969,0.0031	-4429.82
0.9982,0.0018	-4429.70
0.9957,0.0043	-4440.99
0.9961,0.0039	-4441.09
0.9928,0.0072	-4455.71
0.9983,0.0017	-4423.33
0.9973,0.0027	-4429.76
0.9986,0.0014	-4423.18
0.9960,0.0040	-4435.54
0.9948,0.0052	-4446.14
0.9939,0.0061	-4445.95
0.9980,0.0020	-4423.48
0.9970,0.0030	-4435.60
0.9984,0.0016	-4429.72
0.9956,0.0044	-4430.13
0.9936,0.0064	-4440.87
0.9950,0.0050	-4425.01
0.9980,0.0020	-4423.46
0.9973,0.0027	-4429.75
0.9984,0.0016	-4423.28
0.9963,0.0037	-4429.94
0.9935,0.0065	-4445.90
0.9953,0.0047	-4435.58
0.9981,0.0019	-4423.45
0.9974,0.0026	-4441.67
0.9986,0.0014	-4423.19
0.9960,0.0040	-4446.59
0.9913,0.0087	-4441.13
0.9952,0.0048	-4440.92
0.9975,0.0025	-4423.76
0.9973,0.0027	-4423.82
0.9986,0.0014	-4423.20
0.9946,0.0054	-4435.66
0.9904,0.0096	-4455.19
0.9956,0.0044	-4435.55
0.9969,0.0031	-4424.04
0.9970,0.0030	-4435.61
0.9982,0.0018	-4423.41
0.9948,0.0052	-4435.63
0.9878,0.0122	-4446.30
0.9955,0.0045	-4424.75
0.9963,0.0037	-4424.37
0.9969,0.0031	-4429.82
0.9977,0.0023	-4423.64
0.9944,0.0056	-4435.69
0.9875,0.0125	-4459.46
0.9955,0.0045	-4435.56
0.9967,0.0033	-4452.66
0.9975,0.0025	-4423.74
0.9970,0.0030	-4435.60
0.9924,0.0076	-4426.36
0.9873,0.0127	-4442.04
0.9957,0.0043	-4430.11
0.9963,0.0037	-4429.96
0.9968,0.0032	-4441.33
0.9961,0.0039	-4441.09
0.9942,0.0058	-4446.00
0.9859,0.0141	-4463.68
0.9963,0.0037	-4441.15
0.9967,0.0033	-4441.29
0.9966,0.0034	-4424.20
0.9957,0.0043	-4430.11
0.9937,0.0063	-4430.74
0.9847,0.0153	-4446.97
0.9953,0.0047	-4435.57
0.9969,0.0031	-4424.05
0.9972,0.0028	-4435.64
0.9955,0.0045	-4424.77
0.9945,0.0055	-4440.87
0.9858,0.0142	-4467.91
0.9951,0.0049	-4430.28
0.9971,0.0029	-4423.96
0.9971,0.0029	-4423.94
0.9956,0.0044	-4424.70
0.9962,0.0038	-4441.12
0.9862,0.0138	-4455.16
0.9948,0.0052	-4430.38
0.9970,0.0030	-4435.61
0.9976,0.0024	-4429.72
0.9962,0.0038	-4435.54
0.9959,0.0041	-4441.04
0.9848,0.0152	-4451.12
0.9964,0.0036	-4429.93
0.9969,0.0031	-4424.03
0.9972,0.0028	-4429.77
0.9959,0.0041	-4446.52
0.9952,0.0048	-4435.58
0.9864,0.0136	-4442.30
0.9952,0.0048	-4435.58
0.9971,0.0029	-4435.62
0.9979,0.0021	-4435.85
0.9956,0.0044	-4435.55
0.9939,0.0061	-4435.77
0.9875,0.0125	-4441.99
0.9950,0.0050	-4435.60
0.9972,0.0028	-4435.64
0.9976,0.0024	-4429.72
0.9968,0.0032	-4429.84
0.9948,0.0052	-4425.14
0.9881,0.0119	-4450.66
0.9956,0.0044	-4430.12
0.9968,0.0032	-4424.12
0.9976,0.0024	-4423.70
0.9966,0.0034	-4429.88
0.9946,0.0054	-4446.09
0.9863,0.0137	-4463.71
0.9956,0.0044	-4430.13
0.9968,0.0032	-4424.12
0.9975,0.0025	-4429.73
0.9968,0.0032	-4429.84
0.9948,0.0052	-4430.36
0.9867,0.0133	-4437.89
0.9959,0.0041	-4424.56
0.9970,0.0030	-4453.04
0.9979,0.0021	-4423.53
0.9964,0.0036	-4441.19
0.9952,0.0048	-4435.59
0.9903,0.0097	-4432.04
0.9971,0.0029	-4429.79
0.9973,0.0027	-4429.76
0.9979,0.0021	-4442.00
0.9941,0.0059	-4435.74
0.9948,0.0052	-4440.88
0.9908,0.0092	-4459.92
0.9978,0.0022	-4429.71
0.9973,0.0027	-4429.75
0.9975,0.0025	-4423.74
0.9947,0.0053	-4451.33
0.9949,0.0051	-4430.34
0.9926,0.0074	-4440.94
0.9982,0.0018	-4429.70
0.9972,0.0028	-4441.54
0.9978,0.0022	-4423.59
0.9945,0.0055	-4430.46
0.9948,0.0052	-4451.40
0.9925,0.0075	-4440.95
0.9982,0.0018	-4429.70
0.9976,0.0024	-4429.72
0.9978,0.0022	-4429.70
0.9944,0.0056	-4440.86
0.9951,0.0049	-4435.60
0.9912,0.0088	-4455.30
0.9975,0.0025	-4429.73
0.9971,0.0029	-4441.48
0.9982,0.0018	-4423.40
0.9951,0.0049	-4440.91
0.9948,0.0052	-4435.63
0.9929,0.0071	-4465.64
0.9972,0.0028	-4435.65
0.9971,0.0029	-4435.63
0.9985,0.0015	-4423.24
0.9944,0.0056	-4440.86
0.9950,0.0050	-4430.32
0.9920,0.0080	-4445.84
0.9973,0.0027	-4435.66
0.9974,0.0026	-4423.81
0.9987,0.0013	-4423.13
0.9928,0.0072	-4450.77
0.9950,0.0050	-4425.02
0.9918,0.0082	-4445.84
0.9970,0.0030	-4424.00
0.9972,0.0028	-4423.87
0.9988,0.0012	-4423.09
0.9933,0.0067	-4445.88
0.9954,0.0046	-4435.56
0.9914,0.0086	-4441.10
0.9969,0.0031	-4424.04
0.9977,0.0023	-4429.71
0.9987,0.0013	-4429.77
0.9924,0.0076	-4440.97
0.9952,0.0048	-4435.58
0.9929,0.0071	-4440.91
0.9965,0.0035	-4435.55
0.9976,0.0024	-4423.68
0.9986,0.0014	-4423.16
0.9919,0.0081	-4431.42
0.9959,0.0041	-4430.04
0.9901,0.0099	-4464.36
0.9970,0.0030	-4423.98
0.9976,0.0024	-4441.78
0.9988,0.0012	-4423.09
0.9914,0.0086	-4441.10
0.9951,0.0049	-4430.29
0.9896,0.0104	-4436.90
0.9971,0.0029	-4435.62
0.9980,0.0020	-4429.70
0.9985,0.0015	-4423.22
0.9890,0.0110	-4437.08
0.9951,0.0049	-4435.59
0.9899,0.0101	-4436.80
0.9961,0.0039	-4430.00
0.9984,0.0016	-4423.26
0.9986,0.0014	-4429.76
0.9912,0.0088	-4436.41
0.9932,0.0068	-4435.90
0.9902,0.0098	-4445.95
0.9959,0.0041	-4441.03
0.9982,0.0018	-4423.41
0.9985,0.0015	-4429.74
0.9920,0.0080	-4450.65
0.9922,0.0078	-4450.68
0.9899,0.0101	-4455.15
0.9957,0.0043	-4435.55
0.9983,0.0017	-4436.10
0.9984,0.0016	-4423.28
0.9926,0.0074	-4431.13
0.9926,0.0074	-4445.84
0.9919,0.0081	-4436.22
0.9962,0.0038	-4429.96
0.9985,0.0015	-4429.73
0.9985,0.0015	-4429.73
0.9906,0.0094	-4441.24
0.9922,0.0078	-4436.15
0.9912,0.0088	-4436.42
0.9960,0.0040	-4441.06
0.9986,0.0014	-4423.17
0.9982,0.0018	-4436.03
0.9920,0.0080	-4445.84
0.9906,0.0094	-4427.30
0.9896,0.0104	-4446.01
0.9958,0.0042	-4424.62
0.9988,0.0012	-4429.79
0.9978,0.0022	-4429.71
0.9916,0.0084	-4436.30
0.9912,0.0088	-4445.86
0.9902,0.0098	-4436.71
0.9969,0.0031	-4441.35
0.9989,0.0011	-4423.01
0.9979,0.0021	-4423.55
0.9910,0.0090	-4441.17
0.9903,0.0097	-4445.93
0.9918,0.0082	-4450.64
0.9975,0.0025	-4423.72
0.9989,0.0011	-4443.54
0.9976,0.0024	-4429.72
0.9891,0.0109	-4450.59
0.9868,0.0132	-4472.37
0.9906,0.0094	-4450.56
0.9980,0.0020	-4423.49
0.9991,0.0009	-4429.94
0.9972,0.0028	-4423.90
0.9926,0.0074	-4440.95
0.9878,0.0122	-4472.66
0.9913,0.0087	-4450.59
0.9979,0.0021	-4429.70
0.9993,0.0007	-4422.84
0.9970,0.0030	-4429.80
0.9909,0.0091	-4469.31
0.9884,0.0116	-4432.83
0.9910,0.0090	-4441.17
0.9980,0.0020	-4429.70
0.9992,0.0008	-4422.86
0.9975,0.0025	-4429.73
0.9887,0.0113	-4446.14
0.9873,0.0127	-4446.38
0.9903,0.0097	-4436.67
0.9979,0.0021	-4423.53
0.9989,0.0011	-4436.70
0.9979,0.0021	-4429.70
0.9897,0.0103	-4441.42
0.9858,0.0142	-4467.91
0.9847,0.0153	-4446.98
0.9982,0.0018	-4423.37
0.9990,0.0010	-4429.90
0.9982,0.0018	-4429.70
0.9871,0.0129	-4468.11
0.9889,0.0111	-4450.60
0.9836,0.0164	-4451.36
0.9983,0.0017	-4429.71
0.9990,0.0010	-4422.97
0.9984,0.0016	-4423.26
0.9841,0.0159	-4451.27
0.9887,0.0113	-4450.61
0.9828,0.0172	-4459.62
0.9978,0.0022	-4429.71
0.9989,0.0011	-4429.84
0.9979,0.0021	-4423.53
0.9843,0.0157	-4467.77
0.9885,0.0115	-4441.71
0.9838,0.0162	-4451.31
0.9973,0.0027	-4435.67
0.9988,0.0012	-4423.10
0.9981,0.0019	-4423.45
0.9859,0.0141	-4459.43
0.9884,0.0116	-4446.18
0.9857,0.0143	-4455.20
0.9975,0.0025	-4423.74
0.9990,0.0010	-4429.90
0.9982,0.0018	-4435.99
0.9874,0.0126	-4446.36
0.9870,0.0130	-4450.77
0.9874,0.0126	-4446.37
0.9980,0.0020	-4429.70
0.9993,0.0007	-4422.85
0.9984,0.0016	-4423.29
0.9873,0.0127	-4450.74
0.9905,0.0095	-4464.49
0.9874,0.0126	-4450.73
0.9979,0.0021	-4423.55
0.9992,0.0008	-4430.04
0.9985,0.0015	-4423.21
0.9874,0.0126	-4472.55
0.9905,0.0095	-4445.91
0.9873,0.0127	-4468.16
0.9981,0.0019	-4429.70
0.9992,0.0008	-4430.04
0.9988,0.0012	-4423.08
0.9855,0.0145	-4467.88
0.9908,0.0092	-4436.53
0.9866,0.0134	-4446.52
0.9977,0.0023	-4423.63
0.9993,0.0007	-4430.07
0.9988,0.0012	-4423.06
0.9868,0.0132	-4446.50
0.9927,0.0073	-4445.85
0.9865,0.0135	-4450.85
0.9973,0.0027	-4423.86
0.9991,0.0009	-4422.91
0.9989,0.0011	-4423.04
0.9870,0.0130	-4446.45
0.9930,0.0070	-4440.90
0.9854,0.0146	-4467.87
0.9972,0.0028	-4423.87
0.9992,0.0008	-4422.90
0.9990,0.0010	-4422.99
0.9853,0.0147	-4459.44
0.9934,0.0066	-4440.88
0.9841,0.0159	-4463.63
0.9967,0.0033	-4447.00
0.9992,0.0008	-4422.89
0.9991,0.0009	-4422.92
0.9819,0.0181	-4451.75
0.9943,0.0057	-4430.53
0.9824,0.0176	-4455.65
0.9972,0.0028	-4435.64
0.9992,0.0008	-4422.88
0.9991,0.0009	-4422.94
0.9761,0.0239	-4460.78
0.9942,0.0058	-4425.42
0.9827,0.0173	-4447.52
0.9971,0.0029	-4435.63
0.9990,0.0010	-4422.96
0.9989,0.0011	-4423.02
0.9762,0.0238	-4471.89
0.9940,0.0060	-4445.97
0.9832,0.0168	-4447.37
0.9975,0.0025	-4429.73
0.9990,0.0010	-4422.99
0.9989,0.0011	-4423.04
0.9740,0.0260	-4457.64
0.9948,0.0052	-4430.38
0.9846,0.0154	-4455.32
0.9975,0.0025	-4429.73
0.9988,0.0012	-4429.80
0.9988,0.0012	-4423.06
0.9688,0.0312	-4473.00
0.9951,0.0049	-4424.98
0.9858,0.0142	-4446.71
0.9975,0.0025	-4429.73
0.9987,0.0013	-4429.77
0.9989,0.0011	-4423.01
0.9623,0.0377	-4484.22
0.9941,0.0059	-4440.86
0.9883,0.0117	-4441.76
0.9975,0.0025	-4423.75
0.9990,0.0010	-4443.60
0.9986,0.0014	-4429.75
0.9551,0.0449	-4513.25
0.9930,0.0070	-4435.94
0.9920,0.0080	-4436.18
0.9980,0.0020	-4423.51
0.9990,0.0010	-4422.99
0.9986,0.0014	-4423.19
0.9689,0.0311	-4490.18
0.9936,0.0064	-4425.74
0.9920,0.0080	-4450.65
0.9978,0.0022	-4423.60
0.9990,0.0010	-4422.97
0.9989,0.0011	-4423.05
0.9712,0.0288	-4483.12
0.9931,0.0069	-4445.87
0.9894,0.0106	-4441.50
0.9976,0.0024	-4429.72
0.9989,0.0011	-4429.86
0.9987,0.0013	-4423.11
0.9741,0.0259	-4475.76
0.9920,0.0080	-4465.13
0.9910,0.0090	-4488.23
0.9975,0.0025	-4429.73
0.9991,0.0009	-4422.91
0.9989,0.0011	-4429.86
0.9757,0.0243	-4464.56
0.9914,0.0086	-4445.85
0.9916,0.0084	-4436.30
0.9977,0.0023	-4429.71
0.9992,0.0008	-4422.86
0.9991,0.0009	-4429.96
0.9784,0.0216	-4460.29
0.9889,0.0111	-4446.10
0.9907,0.0093	-4450.57
0.9978,0.0022	-4429.70
0.9990,0.0010	-4422.97
0.9992,0.0008	-4422.86
0.9749,0.0251	-4468.37
0.9903,0.0097	-4450.56
0.9906,0.0094	-4441.25
0.9977,0.0023	-4429.71
0.9989,0.0011	-4429.83
0.9993,0.0007	-4422.85
0.9777,0.0223	-4460.43
0.9907,0.0093	-4436.56
0.9900,0.0100	-4459.75
0.9976,0.0024	-4429.72
0.9989,0.0011	-4429.84
0.9993,0.0007	-4422.83
0.9789,0.0211	-4483.22
0.9924,0.0076	-4440.96
0.9900,0.0100	-4436.76
0.9976,0.0024	-4435.75
0.9984,0.0016	-4423.31
0.9993,0.0007	-4422.83
0.9741,0.0259	-4468.49
0.9919,0.0081	-4431.40
0.9910,0.0090	-4445.88
0.9977,0.0023	-4435.78
0.9978,0.0022	-4435.83
0.9990,0.0010	-4423.00
0.9745,0.0255	-4483.01
0.9921,0.0079	-4431.33
0.9915,0.0085	-4441.09
0.9973,0.0027	-4423.83
0.9974,0.0026	-4429.74
0.9989,0.0011	-4423.03
0.9716,0.0284	-4472.49
0.9924,0.0076	-4440.97
0.9932,0.0068	-4455.84
0.9975,0.0025	-4435.72
0.9978,0.0022	-4429.71
0.9993,0.0007	-4437.27
0.9730,0.0270	-4475.86
0.9916,0.0084	-4441.08
0.9917,0.0083	-4436.26
0.9972,0.0028	-4429.77
0.9981,0.0019	-4429.70
0.9993,0.0007	-4422.85
0.9696,0.0304	-4493.63
0.9926,0.0074	-4445.84
0.9913,0.0087	-4441.12
0.9976,0.0024	-4423.69
0.9980,0.0020	-4423.49
0.9993,0.0007	-4422.82
0.9728,0.0272	-4468.73
0.9931,0.0069	-4460.80
0.9918,0.0082	-4445.84
0.9972,0.0028	-4435.65
0.9975,0.0025	-4423.73
0.9992,0.0008	-4422.87
0.9747,0.0253	-4468.41
0.9939,0.0061	-4430.67
0.9912,0.0088	-4441.13
0.9974,0.0026	-4441.64
0.9977,0.0023	-4423.65
0.9988,0.0012	-4429.81
0.9756,0.0244	-4464.57
0.9920,0.0080	-4436.19
0.9906,0.0094	-4464.54
0.9968,0.0032	-4424.10
0.9981,0.0019	-4423.46
0.9990,0.0010	-4422.97
0.9722,0.0278	-4479.51
0.9908,0.0092	-4436.53
0.9921,0.0079	-4455.49
0.9962,0.0038	-4446.70
0.9983,0.0017	-4429.71
0.9990,0.0010	-4422.96
0.9769,0.0231	-4486.81
0.9892,0.0108	-4455.10
0.9934,0.0066	-4450.91
0.9959,0.0041	-4430.05
0.9990,0.0010	-4422.98
0.9992,0.0008	-4422.87
0.9846,0.0154	-4451.16
0.9867,0.0133	-4455.12
0.9926,0.0074	-4460.54
0.9963,0.0037	-4424.38
0.9989,0.0011	-4429.85
0.9993,0.0007	-4422.85
0.9859,0.0141	-4467.93
0.9874,0.0126	-4446.38
0.9928,0.0072	-4436.00
0.9961,0.0039	-4430.00
0.9990,0.0010	-4422.96
0.9994,0.0006	-4422.78
0.9871,0.0129	-4442.10
0.9864,0.0136	-4463.71
0.9922,0.0078	-4436.13
0.9945,0.0055	-4430.48
0.9989,0.0011	-4423.02
0.9994,0.0006	-4422.80
0.9886,0.0114	-4450.62
0.9859,0.0141	-4446.70
0.9921,0.0079	-4455.51
0.9962,0.0038	-4424.43
0.9992,0.0008	-4429.99
0.9993,0.0007	-4422.80
0.9871,0.0129	-4450.77
0.9886,0.0114	-4446.16
0.9876,0.0124	-4459.46
0.9956,0.0044	-4435.55
0.9992,0.0008	-4422.88
0.9993,0.0007	-4422.84
0.9869,0.0131	-4468.09
0.9890,0.0110	-4441.59
0.9882,0.0118	-4432.96
0.9960,0.0040	-4430.04
0.9991,0.0009	-4422.91
0.9992,0.0008	-4422.86
0.9908,0.0092	-4436.52
0.9881,0.0119	-4428.55
0.9845,0.0155	-4447.02
0.9949,0.0051	-4440.89
0.9992,0.0008	-4429.98
0.9993,0.0007	-4430.06
0.9879,0.0121	-4450.68
0.9876,0.0124	-4459.46
0.9822,0.0178	-4463.70
0.9958,0.0042	-4435.55
0.9994,0.0006	-4422.78
0.9993,0.0007	-4422.84
0.9889,0.0111	-4459.58
0.9844,0.0156	-4459.49
0.9878,0.0122	-4468.27
0.9959,0.0041	-4430.04
0.9992,0.0008	-4422.87
0.9994,0.0006	-4422.78
0.9876,0.0124	-4450.70
0.9835,0.0165	-4455.47
0.9898,0.0102	-4445.98
0.9964,0.0036	-4429.92
0.9992,0.0008	-4422.86
0.9993,0.0007	-4430.11
0.9879,0.0121	-4459.48
0.9858,0.0142	-4455.19
0.9929,0.0071	-4431.03
0.9965,0.0035	-4435.55
0.9990,0.0010	-4422.97
0.9992,0.0008	-4430.04
0.9893,0.0107	-4450.58
0.9851,0.0149	-4455.27
0.9933,0.0067	-4430.89
0.9954,0.0046	-4435.56
0.9989,0.0011	-4423.02
0.9993,0.0007	-4437.42
0.9897,0.0103	-4445.99
0.9877,0.0123	-4446.32
0.9942,0.0058	-4425.42
0.9952,0.0048	-4430.25
0.9986,0.0014	-4429.76
0.9993,0.0007	-4422.83
0.9911,0.0089	-4436.45
0.9889,0.0111	-4441.62
0.9927,0.0073	-4445.84
0.9949,0.0051	-4425.09
0.9987,0.0013	-4429.77
0.9992,0.0008	-4422.90
0.9927,0.0073	-4450.75
0.9912,0.0088	-4441.13
0.9940,0.0060	-4445.97
0.9937,0.0063	-4435.80
0.9985,0.0015	-4423.22
0.9990,0.0010	-4436.82
0.9928,0.0072	-4440.93
0.9905,0.0095	-4450.56
0.9930,0.0070	-4431.01
0.9944,0.0056	-4430.51
0.9984,0.0016	-4436.18
0.9993,0.0007	-4422.83
0.9918,0.0082	-4426.68
0.9903,0.0097	-4455.18
0.9930,0.0070	-4426.04
0.9932,0.0068	-4425.96
0.9980,0.0020	-4429.70
0.9992,0.0008	-4430.02
0.9912,0.0088	-4464.77
0.9917,0.0083	-4455.42
0.9933,0.0067	-4430.88
0.9929,0.0071	-4431.04
0.9979,0.0021	-4429.70
0.9992,0.0008	-4422.88
0.9921,0.0079	-4431.33
0.9909,0.0091	-4455.26
0.9934,0.0066	-4440.88
0.9940,0.0060	-4445.97
0.9978,0.0022	-4423.61
0.9993,0.0007	-4422.84
0.9917,0.0083	-4441.05
0.9929,0.0071	-4440.91
0.9923,0.0077	-4440.98
0.9931,0.0069	-4435.93
0.9980,0.0020	-4429.70
0.9990,0.0010	-4429.89
0.9918,0.0082	-4431.46
0.9933,0.0067	-4440.88
0.9927,0.0073	-4431.09
0.9928,0.0072	-4445.85
0.9979,0.0021	-4435.86
0.9992,0.0008	-4422.87
0.9897,0.0103	-4450.56
0.9923,0.0077	-4436.12
0.9899,0.0101	-4445.98
0.9934,0.0066	-4440.88
0.9979,0.0021	-4423.56
0.9993,0.0007	-4437.42
0.9910,0.0090	-4445.87
0.9917,0.0083	-4441.06
0.9865,0.0135	-4446.56
0.9950,0.0050	-4430.31
0.9978,0.0022	-4423.60
0.9992,0.0008	-4422.86
0.9914,0.0086	-4450.60
0.9927,0.0073	-4450.76
0.9857,0.0143	-4450.97
0.9937,0.0063	-4435.81
0.9976,0.0024	-4429.72
0.9992,0.0008	-4422.89
0.9909,0.0091	-4445.88
0.9914,0.0086	-4426.88
0.9858,0.0142	-4459.43
0.9926,0.0074	-4436.04
0.9975,0.0025	-4429.74
0.9992,0.0008	-4422.88
0.9921,0.0079	-4441.01
0.9922,0.0078	-4440.99
0.9865,0.0135	-4455.14
0.9925,0.0075	-4440.96
0.9974,0.0026	-4429.74
0.9990,0.0010	-4422.97
0.9924,0.0076	-4436.10
0.9918,0.0082	-4436.25
0.9873,0.0127	-4459.45
0.9925,0.0075	-4436.07
0.9973,0.0027	-4423.86
0.9991,0.0009	-4422.91
0.9919,0.0081	-4445.84
0.9909,0.0091	-4436.50
0.9872,0.0128	-4442.07
0.9914,0.0086	-4441.10
0.9977,0.0023	-4423.64
0.9992,0.0008	-4430.00
0.9905,0.0095	-4436.63
0.9904,0.0096	-4441.29
0.9873,0.0127	-4442.05
0.9929,0.0071	-4460.66
0.9979,0.0021	-4429.70
0.9992,0.0008	-4437.12
0.9914,0.0086	-4431.60
0.9896,0.0104	-4446.01
0.9885,0.0115	-4446.17
0.9927,0.0073	-4445.85
0.9980,0.0020	-4429.70
0.9992,0.0008	-4422.86
0.9913,0.0087	-4431.64
0.9908,0.0092	-4455.25
0.9885,0.0115	-4446.17
0.9915,0.0085	-4450.61
0.9974,0.0026	-4429.74
0.9993,0.0007	-4422.83
0.9900,0.0100	-4432.18
0.9927,0.0073	-4440.94
0.9878,0.0122	-4446.29
0.9908,0.0092	-4431.86
0.9972,0.0028	-4435.65
0.9993,0.0007	-4422.82
0.9899,0.0101	-4455.14
0.9933,0.0067	-4445.88
0.9856,0.0144	-4446.75
0.9929,0.0071	-4431.04
0.9972,0.0028	-4429.77
0.9992,0.0008	-4422.87
0.9903,0.0097	-4445.93
0.9937,0.0063	-4451.00
0.9834,0.0166	-4459.56
0.9905,0.0095	-4441.26
0.9975,0.0025	-4423.76
0.9992,0.0008	-4422.87
0.9899,0.0101	-4432.20
0.9929,0.0071	-4435.98
0.9819,0.0181	-4451.74
0.9927,0.0073	-4431.10
0.9972,0.0028	-4435.64
0.9991,0.0009	-4429.96
0.9920,0.0080	-4436.20
0.9927,0.0073	-4450.76
0.9817,0.0183	-4467.72
0.9915,0.0085	-4445.85
0.9968,0.0032	-4429.85
0.9991,0.0009	-4422.94
0.9923,0.0077	-4440.98
0.9923,0.0077	-4445.84
0.9787,0.0213	-4464.06
0.9924,0.0076	-4431.22
0.9968,0.0032	-4424.11
0.9991,0.0009	-4422.93
0.9894,0.0106	-4450.57
0.9925,0.0075	-4445.84
0.9763,0.0237	-4449.59
0.9934,0.0066	-4440.88
0.9962,0.0038	-4435.54
0.9992,0.0008	-4422.90
0.9875,0.0125	-4433.25
0.9903,0.0097	-4450.56
0.9742,0.0258	-4453.95
0.9933,0.0067	-4440.88
0.9956,0.0044	-4430.12
0.9992,0.0008	-4422.88
0.9866,0.0134	-4459.43
0.9849,0.0151	-4455.29
0.9739,0.0261	-4483.01
0.9940,0.0060	-4435.75
0.9963,0.0037	-4429.94
0.9993,0.0007	-4422.84
0.9828,0.0172	-4459.63
0.9849,0.0151	-4451.10
0.9771,0.0229	-4471.82
0.9933,0.0067	-4430.89
0.9971,0.0029	-4429.79
0.9993,0.0007	-4422.84
0.9833,0.0167	-4484.03
0.9874,0.0126	-4446.37
0.9790,0.0210	-4467.86
0.9917,0.0083	-4436.27
0.9972,0.0028	-4423.89
0.9992,0.0008	-4437.07
0.9817,0.0183	-4479.67
0.9907,0.0093	-4445.89
0.9823,0.0177	-4459.68
0.9930,0.0070	-4445.86
0.9972,0.0028	-4429.77
0.9992,0.0008	-4422.88
0.9841,0.0159	-4447.14
0.9931,0.0069	-4435.92
0.9837,0.0163	-4439.02
0.9949,0.0051	-4430.35
0.9972,0.0028	-4429.78
0.9993,0.0007	-4430.08
0.9847,0.0153	-4438.65
0.9930,0.0070	-4445.86
0.9802,0.0198	-4459.97
0.9950,0.0050	-4440.90
0.9977,0.0023	-4423.66
0.9991,0.0009	-4422.92
0.9855,0.0145	-4467.87
0.9946,0.0054	-4430.45
0.9799,0.0201	-4479.46
0.9942,0.0058	-4425.41
0.9974,0.0026	-4435.70
0.9989,0.0011	-4423.02
0.9856,0.0144	-4442.53
0.9944,0.0056	-4430.51
0.9787,0.0213	-4460.24
0.9950,0.0050	-4435.60
0.9974,0.0026	-4429.74
0.9988,0.0012	-4423.09
0.9875,0.0125	-4450.72
0.9945,0.0055	-4430.45
0.9767,0.0233	-4468.11
0.9948,0.0052	-4446.13
0.9967,0.0033	-4429.85
0.9985,0.0015	-4423.24
0.9867,0.0133	-4455.12
0.9948,0.0052	-4425.11
0.9732,0.0268	-4475.85
0.9945,0.0055	-4440.87
0.9970,0.0030	-4435.62
0.9981,0.0019	-4429.70
0.9874,0.0126	-4446.37
0.9940,0.0060	-4435.74
0.9727,0.0273	-4483.04
0.9948,0.0052	-4430.38
0.9969,0.0031	-4424.06
0.9980,0.0020	-4429.70
0.9865,0.0135	-4459.43
0.9941,0.0059	-4425.47
0.9694,0.0306	-4465.99
0.9937,0.0063	-4435.80
0.9971,0.0029	-4435.62
0.9982,0.0018	-4423.36
0.9860,0.0140	-4446.66
0.9949,0.0051	-4440.89
0.9684,0.0316	-4483.36
0.9935,0.0065	-4435.84
0.9970,0.0030	-4441.40
0.9985,0.0015	-4423.25
0.9845,0.0155	-4447.03
0.9946,0.0054	-4446.10
0.9701,0.0299	-4479.72
0.9929,0.0071	-4431.03
0.9977,0.0023	-4429.72
0.9986,0.0014	-4436.32
0.9855,0.0145	-4446.78
0.9941,0.0059	-4435.74
0.9722,0.0278	-4468.84
0.9909,0.0091	-4455.26
0.9976,0.0024	-4423.68
0.9986,0.0014	-4429.76
0.9885,0.0115	-4441.70
0.9944,0.0056	-4435.68
0.9680,0.0320	-4483.40
0.9921,0.0079	-4436.17
0.9982,0.0018	-4423.38
0.9983,0.0017	-4429.71
0.9897,0.0103	-4446.00
0.9939,0.0061	-4445.95
0.9675,0.0325	-4476.67
0.9913,0.0087	-4445.85
0.9979,0.0021	-4423.51
0.9980,0.0020	-4442.17
0.9903,0.0097	-4441.30
0.9932,0.0068	-4435.90
0.9693,0.0307	-4486.72
0.9926,0.0074	-4450.75
0.9976,0.0024	-4435.74
0.9978,0.0022	-4435.81
0.9901,0.0099	-4445.95
0.9927,0.0073	-4436.02
0.9696,0.0304	-4462.47
0.9937,0.0063	-4430.73
0.9974,0.0026	-4429.74
0.9975,0.0025	-4429.73
0.9902,0.0098	-4441.33
0.9939,0.0061	-4435.77
0.9742,0.0258	-4472.11
0.9940,0.0060	-4440.86
0.9976,0.0024	-4423.67
0.9969,0.0031	-4447.14
0.9896,0.0104	-4450.57
0.9954,0.0046	-4435.57
0.9721,0.0279	-4461.76
0.9937,0.0063	-4440.86
0.9975,0.0025	-4441.70
0.9967,0.0033	-4424.13
0.9916,0.0084	-4445.84
0.9945,0.0055	-4440.87
0.9726,0.0274	-4479.48
0.9941,0.0059	-4435.74
0.9972,0.0028	-4441.51
0.9958,0.0042	-4435.54
0.9919,0.0081	-4441.02
0.9943,0.0057	-4440.86
0.9778,0.0222	-4471.77
0.9944,0.0056	-4430.51
0.9966,0.0034	-4429.89
0.9958,0.0042	-4430.07
0.9932,0.0068	-4430.91
0.9957,0.0043	-4435.55
0.9800,0.0200	-4452.23
0.9940,0.0060	-4435.75
0.9963,0.0037	-4435.54
0.9956,0.0044	-4435.56
0.9932,0.0068	-4425.92
0.9945,0.0055	-4440.87
0.9781,0.0219	-4464.16
0.9942,0.0058	-4440.86
0.9948,0.0052	-4435.63
0.9954,0.0046	-4430.18
0.9932,0.0068	-4430.94
0.9941,0.0059	-4430.59
0.9753,0.0247	-4464.63
0.9943,0.0057	-4430.54
0.9951,0.0049	-4430.29
0.9941,0.0059	-4440.86
0.9923,0.0077	-4450.69
0.9925,0.0075	-4440.96
0.9736,0.0264	-4490.23
0.9942,0.0058	-4446.00
0.9954,0.0046	-4430.20
0.9942,0.0058	-4435.72
0.9922,0.0078	-4445.83
0.9905,0.0095	-4427.34
0.9746,0.0254	-4479.36
0.9924,0.0076	-4436.09
0.9945,0.0055	-4440.87
0.9937,0.0063	-4435.81
0.9918,0.0082	-4436.24
0.9915,0.0085	-4436.32
0.9748,0.0252	-4453.78
0.9907,0.0093	-4455.23
0.9963,0.0037	-4424.34
0.9938,0.0062	-4435.78
0.9929,0.0071	-4445.85
0.9914,0.0086	-4441.10
0.9816,0.0184	-4463.74
0.9914,0.0086	-4441.10
0.9971,0.0029	-4423.92
0.9930,0.0070	-4431.01
0.9930,0.0070	-4435.95
0.9884,0.0116	-4450.63
0.9823,0.0177	-4451.65
0.9913,0.0087	-4436.40
0.9977,0.0023	-4429.71
0.9917,0.0083	-4436.28
0.9935,0.0065	-4425.77
0.9869,0.0131	-4446.48
0.9825,0.0175	-4443.54
0.9910,0.0090	-4450.57
0.9980,0.0020	-4448.32
0.9910,0.0090	-4431.79
0.9941,0.0059	-4440.86
0.9858,0.0142	-4446.72
0.9853,0.0147	-4455.24
0.9886,0.0114	-4446.16
0.9982,0.0018	-4429.70
0.9913,0.0087	-4441.12
0.9953,0.0047	-4430.21
0.9846,0.0154	-4442.84
0.9836,0.0164	-4434.98
0.9897,0.0103	-4450.56
0.9981,0.0019	-4423.44
0.9907,0.0093	-4436.55
0.9957,0.0043	-4440.99
0.9867,0.0133	-4455.12
0.9867,0.0133	-4455.12
0.9906,0.0094	-4450.56
0.9979,0.0021	-4429.70
0.9933,0.0067	-4440.89
0.9960,0.0040	-4430.03
0.9895,0.0105	-4432.38
0.9866,0.0134	-4455.13
0.9908,0.0092	-4441.21
0.9979,0.0021	-4429.70
0.9939,0.0061	-4435.77
0.9945,0.0055	-4425.27
0.9908,0.0092	-4431.85
0.9866,0.0134	-4463.73
0.9896,0.0104	-4441.44
0.9985,0.0015	-4423.25
0.9947,0.0053	-4435.63
0.9910,0.0090	-4441.17
0.9921,0.0079	-4450.67
0.9847,0.0153	-4459.47
0.9872,0.0128	-4455.10
0.9988,0.0012	-4429.81
0.9960,0.0040	-4430.03
0.9926,0.0074	-4440.95
0.9937,0.0063	-4440.87
0.9858,0.0142	-4450.96
0.9896,0.0104	-4432.35
0.9985,0.0015	-4423.26
0.9959,0.0041	-4441.03
0.9922,0.0078	-4436.15
0.9917,0.0083	-4445.84
0.9863,0.0137	-4446.59
0.9874,0.0126	-4463.82
0.9985,0.0015	-4423.22
0.9962,0.0038	-4429.97
0.9923,0.0077	-4436.12
0.9930,0.0070	-4431.01
0.9876,0.0124	-4455.08
0.9853,0.0147	-4451.03
0.9986,0.0014	-4423.19
0.9960,0.0040	-4435.54
0.9936,0.0064	-4445.92
0.9919,0.0081	-4445.84
0.9881,0.0119	-4450.65
0.9847,0.0153	-4446.99
0.9986,0.0014	-4429.75
0.9958,0.0042	-4441.00
0.9945,0.0055	-4430.46
0.9907,0.0093	-4459.91
0.9898,0.0102	-4436.84
0.9824,0.0176	-4471.74
0.9986,0.0014	-4423.17
0.9958,0.0042	-4441.02
0.9928,0.0072	-4426.16
0.9887,0.0113	-4446.14
0.9879,0.0121	-4455.08
0.9828,0.0172	-4479.86
0.9987,0.0013	-4429.79
0.9962,0.0038	-4429.98
0.9947,0.0053	-4435.63
0.9890,0.0110	-4464.09
0.9884,0.0116	-4450.63
0.9829,0.0171	-4471.76
0.9990,0.0010	-4429.89
0.9973,0.0027	-4435.66
0.9960,0.0040	-4430.02
0.9881,0.0119	-4459.50
0.9871,0.0129	-4450.77
0.9805,0.0195	-4456.02
0.9991,0.0009	-4422.94
0.9972,0.0028	-4429.76
0.9961,0.0039	-4430.00
0.9886,0.0114	-4464.00
0.9880,0.0120	-4463.90
0.9731,0.0269	-4475.85
0.9990,0.0010	-4436.77
0.9967,0.0033	-4429.87
0.9943,0.0057	-4435.70
0.9885,0.0115	-4472.91
0.9887,0.0113	-4450.61
0.9762,0.0238	-4468.17
0.9991,0.0009	-4422.90
0.9966,0.0034	-4424.20
0.9933,0.0067	-4435.88
0.9876,0.0124	-4441.95
0.9867,0.0133	-4446.52
0.9726,0.0274	-4479.48
0.9989,0.0011	-4423.02
0.9969,0.0031	-4424.03
0.9927,0.0073	-4460.58
0.9885,0.0115	-4450.63
0.9894,0.0106	-4441.49
0.9768,0.0232	-4468.09
0.9992,0.0008	-4422.90
0.9970,0.0030	-4435.60
0.9925,0.0075	-4445.84
0.9875,0.0125	-4441.98
0.9874,0.0126	-4463.82
0.9744,0.0256	-4464.80
0.9992,0.0008	-4422.89
0.9963,0.0037	-4424.35
0.9929,0.0071	-4440.92
0.9860,0.0140	-4446.66
0.9885,0.0115	-4441.71
0.9714,0.0286	-4472.54
0.9992,0.0008	-4422.87
0.9962,0.0038	-4435.54
0.9945,0.0055	-4435.66
0.9882,0.0118	-4437.36
0.9887,0.0113	-4441.67
0.9725,0.0275	-4461.66
0.9991,0.0009	-4422.94
0.9963,0.0037	-4441.14
0.9955,0.0045	-4424.76
0.9915,0.0085	-4436.32
0.9876,0.0124	-4455.09
0.9703,0.0297	-4476.21
0.9990,0.0010	-4422.96
0.9970,0.0030	-4424.01
0.9954,0.0046	-4440.94
0.9890,0.0110	-4455.09
0.9882,0.0118	-4432.93
0.9726,0.0274	-4475.90
0.9989,0.0011	-4429.85
0.9974,0.0026	-4423.78
0.9965,0.0035	-4424.24
0.9896,0.0104	-4446.02
0.9871,0.0129	-4446.44
0.9718,0.0282	-4479.54
0.9987,0.0013	-4423.14
0.9972,0.0028	-4423.89
0.9964,0.0036	-4429.93
0.9891,0.0109	-4450.58
0.9856,0.0144	-4442.53
0.9765,0.0235	-4456.96
0.9986,0.0014	-4423.17
0.9974,0.0026	-4423.79
0.9959,0.0041	-4424.56
0.9890,0.0110	-4459.59
0.9832,0.0168	-4459.58
0.9691,0.0309	-4469.50
0.9981,0.0019	-4423.43
0.9980,0.0020	-4429.70
0.9946,0.0054	-4446.10
0.9887,0.0113	-4450.61
0.9820,0.0180	-4471.71
0.9731,0.0269	-4468.68
0.9980,0.0020	-4429.70
0.9983,0.0017	-4423.32
0.9936,0.0064	-4440.87
0.9898,0.0102	-4445.99
0.9830,0.0170	-4443.37
0.9739,0.0261	-4475.78
0.9977,0.0023	-4435.78
0.9984,0.0016	-4423.31
0.9944,0.0056	-4430.49
0.9857,0.0143	-4467.90
0.9866,0.0134	-4446.53
0.9787,0.0213	-4456.40
0.9969,0.0031	-4429.82
0.9985,0.0015	-4423.24
0.9935,0.0065	-4435.85
0.9846,0.0154	-4471.95
0.9866,0.0134	-4450.83
0.9843,0.0157	-4471.91
0.9961,0.0039	-4435.54
0.9989,0.0011	-4423.03
0.9925,0.0075	-4450.73
0.9877,0.0123	-4459.47
0.9857,0.0143	-4463.67
0.9767,0.0233	-4471.85
0.9966,0.0034	-4441.23
0.9990,0.0010	-4429.89
0.9934,0.0066	-4450.91
0.9885,0.0115	-4455.08
0.9847,0.0153	-4467.80
0.9780,0.0220	-4475.55
0.9972,0.0028	-4447.36
0.9991,0.0009	-4422.91
0.9950,0.0050	-4435.60
0.9904,0.0096	-4445.92
0.9866,0.0134	-4455.13
0.9781,0.0219	-4490.74
0.9978,0.0022	-4423.61
0.9993,0.0007	-4422.84
0.9942,0.0058	-4446.01
0.9916,0.0084	-4436.30
0.9858,0.0142	-4463.67
0.9840,0.0160	-4459.52
0.9973,0.0027	-4423.85
0.9993,0.0007	-4422.81
0.9956,0.0044	-4440.98
0.9923,0.0077	-4440.97
0.9858,0.0142	-4467.91
0.9822,0.0178	-4463.70
0.9977,0.0023	-4429.71
0.9993,0.0007	-4422.83
0.9948,0.0052	-4435.63
0.9914,0.0086	-4436.35
0.9868,0.0132	-4446.48
0.9800,0.0200	-4460.00
0.9982,0.0018	-4423.37
0.9992,0.0008	-4430.01
0.9950,0.0050	-4446.21
0.9897,0.0103	-4450.56
0.9846,0.0154	-4447.00
0.9819,0.0181	-4451.73
0.9984,0.0016	-4429.72
0.9994,0.0006	-4430.20
0.9957,0.0043	-4424.68
0.9891,0.0109	-4437.06
0.9889,0.0111	-4441.61
0.9849,0.0151	-4467.82
0.9983,0.0017	-4429.71
0.9993,0.0007	-4422.82
0.9950,0.0050	-4435.61
0.9887,0.0113	-4455.08
0.9915,0.0085	-4441.08
0.9836,0.0164	-4455.45
0.9984,0.0016	-4423.26
0.9992,0.0008	-4429.99
0.9954,0.0046	-4430.20
0.9901,0.0099	-4450.56
0.9920,0.0080	-4455.47
0.9842,0.0158	-4451.24
0.9985,0.0015	-4429.74
0.9991,0.0009	-4422.91
0.9938,0.0062	-4440.86
0.9906,0.0094	-4445.90
0.9925,0.0075	-4431.17
0.9818,0.0182	-4463.73
0.9987,0.0013	-4423.13
0.9991,0.0009	-4429.96
0.9945,0.0055	-4425.30
0.9914,0.0086	-4450.60
0.9910,0.0090	-4455.28
0.9843,0.0157	-4471.91
0.9988,0.0012	-4429.82
0.9990,0.0010	-4423.00
0.9939,0.0061	-4435.76
0.9898,0.0102	-4450.56
0.9916,0.0084	-4436.30
0.9855,0.0145	-4459.44
0.9992,0.0008	-4422.86
0.9991,0.0009	-4429.95
0.9933,0.0067	-4435.88
0.9907,0.0093	-4450.56
0.9913,0.0087	-4441.12
0.9838,0.0162	-4463.64
0.9994,0.0006	-4430.14
0.9992,0.0008	-4422.85
0.9936,0.0064	-4425.75
0.9929,0.0071	-4455.75
0.9924,0.0076	-4440.97
0.9797,0.0203	-4467.81
0.9992,0.0008	-4422.87
0.9993,0.0007	-4422.84
0.9929,0.0071	-4455.73
0.9936,0.0064	-4450.96
0.9929,0.0071	-4431.02
0.9800,0.0200	-4475.57
0.9993,0.0007	-4422.81
0.9993,0.0007	-4422.81
0.9919,0.0081	-4445.84
0.9947,0.0053	-4425.19
0.9931,0.0069	-4450.83
0.9831,0.0169	-4459.59
0.9995,0.0005	-4422.75
0.9992,0.0008	-4429.99
0.9919,0.0081	-4445.84
0.9950,0.0050	-4435.61
0.9938,0.0062	-4440.86
0.9861,0.0139	-4450.91
0.9996,0.0004	-4430.51
0.9991,0.0009	-4429.93
0.9923,0.0077	-4440.98
0.9950,0.0050	-4435.60
0.9938,0.0062	-4445.94
0.9866,0.0134	-4459.43
0.9994,0.0006	-4422.76
0.9993,0.0007	-4430.05
0.9914,0.0086	-4450.60
0.9952,0.0048	-4430.25
0.9933,0.0067	-4435.89
0.9865,0.0135	-4459.43
0.9993,0.0007	-4422.81
0.9992,0.0008	-4430.01
0.9917,0.0083	-4441.05
0.9954,0.0046	-4424.82
0.9920,0.0080	-4436.18
0.9864,0.0136	-4459.43
0.9993,0.0007	-4422.83
0.9993,0.0007	-4422.84
0.9933,0.0067	-4440.89
0.9948,0.0052	-4430.38
0.9918,0.0082	-4441.04
0.9879,0.0121	-4437.47
0.9990,0.0010	-4422.96
0.9990,0.0010	-4422.98
0.9940,0.0060	-4456.19
0.9943,0.0057	-4446.03
0.9919,0.0081	-4445.84
0.9884,0.0116	-4463.97
0.9992,0.0008	-4422.90
0.9992,0.0008	-4422.89
0.9946,0.0054	-4440.87
0.9929,0.0071	-4440.91
0.9928,0.0072	-4426.15
0.9885,0.0115	-4441.72
0.9994,0.0006	-4422.76
0.9994,0.0006	-4422.79
0.9948,0.0052	-4440.88
0.9923,0.0077	-4426.39
0.9939,0.0061	-4430.67
0.9881,0.0119	-4437.40
0.9994,0.0006	-4422.76
0.9995,0.0005	-4422.75
0.9965,0.0035	-4441.19
0.9924,0.0076	-4445.84
0.9932,0.0068	-4430.91
0.9886,0.0114	-4441.70
0.9993,0.0007	-4422.80
0.9995,0.0005	-4422.71
0.9971,0.0029	-4423.96
0.9926,0.0074	-4426.23
0.9919,0.0081	-4441.03
0.9900,0.0100	-4436.78
0.9993,0.0007	-4422.83
0.9995,0.0005	-4430.29
0.9971,0.0029	-4423.95
0.9927,0.0073	-4455.66
0.9935,0.0065	-4435.84
0.9890,0.0110	-4455.09
0.9992,0.0008	-4422.89
0.9994,0.0006	-4430.14
0.9972,0.0028	-4441.50
0.9938,0.0062	-4451.01
0.9943,0.0057	-4425.35
0.9870,0.0130	-4450.78
0.9992,0.0008	-4429.99
0.9995,0.0005	-4422.71
0.9970,0.0030	-4424.00
0.9933,0.0067	-4430.88
0.9949,0.0051	-4435.62
0.9857,0.0143	-4446.73
0.9992,0.0008	-4422.86
0.9995,0.0005	-4422.73
0.9975,0.0025	-4429.73
0.9929,0.0071	-4426.11
0.9952,0.0048	-4435.59
0.9872,0.0128	-4437.72
0.9991,0.0009	-4422.95
0.9994,0.0006	-4430.23
0.9982,0.0018	-4423.39
0.9924,0.0076	-4440.96
0.9951,0.0049	-4435.60
0.9875,0.0125	-4468.21
0.9991,0.0009	-4429.96
0.9994,0.0006	-4430.19
0.9977,0.0023	-4441.88
0.9919,0.0081	-4436.22
0.9955,0.0045	-4446.36
0.9875,0.0125	-4468.19
0.9992,0.0008	-4422.87
0.9994,0.0006	-4422.76
0.9971,0.0029	-4423.94
0.9916,0.0084	-4464.91
0.9940,0.0060	-4456.18
0.9887,0.0113	-4455.08
0.9994,0.0006	-4422.79
0.9995,0.0005	-4422.75
0.9966,0.0034	-4429.89
0.9897,0.0103	-4450.56
0.9926,0.0074	-4450.75
0.9899,0.0101	-4445.97
0.9993,0.0007	-4422.82
0.9994,0.0006	-4422.77
0.9954,0.0046	-4430.19
0.9891,0.0109	-4450.59
