#isoforms=['ENSG00000101294.SE.1.A.up_ENSG00000101294.SE.1.A.SE1_ENSG00000101294.SE.1.A.dn','ENSG00000101294.SE.1.B.up_ENSG00000101294.SE.1.B.dn']	exon_lens=('ENSG00000101294.SE.1.A.up',99),('ENSG00000101294.SE.1.A.SE1',376),('ENSG00000101294.SE.1.A.dn',89),('ENSG00000101294.SE.1.B.up',99),('ENSG00000101294.SE.1.B.dn',89)	iters=5000	burn_in=500	lag=10	percent_accept=88.90	proposal_type=drift	counts=(0,0):274,(1,0):128,(1,1):124	assigned_counts=0:185,1:67	chrom=chr20	strand=+	mRNA_starts=31527484,31527484	mRNA_ends=31545035,31545035
sampled_psi	log_score
0.4478,0.5522	-1645.63
0.4248,0.5752	-1640.84
0.4772,0.5228	-1644.18
0.4863,0.5137	-1644.02
0.4694,0.5306	-1643.73
0.4077,0.5923	-1639.93
0.4950,0.5050	-1644.21
0.4263,0.5737	-1640.56
0.4278,0.5722	-1642.93
0.4266,0.5734	-1644.71
0.4060,0.5940	-1639.15
0.3959,0.6041	-1640.72
0.5087,0.4913	-1644.87
0.3965,0.6035	-1640.71
0.4788,0.5212	-1643.58
0.4591,0.5409	-1641.23
0.4024,0.5976	-1639.49
0.4309,0.5691	-1644.29
0.4556,0.5444	-1641.38
0.3692,0.6308	-1640.24
0.4632,0.5368	-1642.81
0.4400,0.5600	-1641.91
0.3629,0.6371	-1640.99
0.4229,0.5771	-1641.43
0.4517,0.5483	-1643.33
0.3889,0.6111	-1644.42
0.5023,0.4977	-1644.45
0.4474,0.5526	-1641.42
0.3669,0.6331	-1640.85
0.4041,0.5959	-1641.06
0.4474,0.5526	-1642.69
0.4062,0.5938	-1644.09
0.4437,0.5563	-1641.52
0.4629,0.5371	-1644.14
0.3762,0.6238	-1640.58
0.4434,0.5566	-1641.52
0.4513,0.5487	-1642.54
0.3772,0.6228	-1632.03
0.4036,0.5964	-1640.68
0.4523,0.5477	-1641.03
0.3560,0.6440	-1641.28
0.4489,0.5511	-1640.66
0.3936,0.6064	-1639.01
0.3843,0.6157	-1639.94
0.3809,0.6191	-1643.87
0.4299,0.5701	-1643.19
0.3799,0.6201	-1638.05
0.4873,0.5127	-1643.99
0.4184,0.5816	-1642.72
0.3988,0.6012	-1639.87
0.3775,0.6225	-1637.05
0.4898,0.5102	-1644.04
0.3674,0.6326	-1639.20
0.5076,0.4924	-1644.52
0.4010,0.5990	-1641.49
0.4290,0.5710	-1643.20
0.3507,0.6493	-1644.01
0.4591,0.5409	-1642.38
0.4361,0.5639	-1643.39
0.5343,0.4657	-1645.87
0.3788,0.6212	-1640.52
0.4053,0.5947	-1643.74
0.4000,0.6000	-1640.28
0.4915,0.5085	-1644.08
0.4571,0.5429	-1643.00
0.5489,0.4511	-1646.00
0.4006,0.5994	-1642.70
0.4430,0.5570	-1644.03
0.3970,0.6030	-1642.80
0.4529,0.5471	-1643.90
0.4868,0.5132	-1643.97
0.5442,0.4558	-1644.35
0.3320,0.6680	-1634.34
0.4252,0.5748	-1645.37
0.3823,0.6177	-1643.81
0.4320,0.5680	-1641.53
0.4270,0.5730	-1642.64
0.5196,0.4804	-1644.71
0.3287,0.6713	-1639.42
0.4070,0.5930	-1640.67
0.4278,0.5722	-1640.89
0.4228,0.5772	-1643.60
0.4322,0.5678	-1642.07
0.5002,0.4998	-1644.31
0.3585,0.6415	-1643.50
0.4129,0.5871	-1643.51
0.4602,0.5398	-1643.05
0.4487,0.5513	-1642.50
0.4160,0.5840	-1642.42
0.5283,0.4717	-1643.96
0.3936,0.6064	-1640.74
0.4140,0.5860	-1642.09
0.4872,0.5128	-1643.57
0.4396,0.5604	-1642.63
0.4227,0.5773	-1640.18
0.5441,0.4559	-1642.93
0.3960,0.6040	-1644.94
0.4397,0.5603	-1642.87
0.4845,0.5155	-1644.12
0.4778,0.5222	-1643.11
0.4479,0.5521	-1645.21
0.5500,0.4500	-1643.65
0.4215,0.5785	-1642.37
0.3931,0.6069	-1643.35
0.4480,0.5520	-1641.44
0.4661,0.5339	-1643.16
0.3987,0.6013	-1641.93
0.4948,0.5052	-1644.24
0.4305,0.5695	-1641.50
0.4100,0.5900	-1647.23
0.4718,0.5282	-1642.62
0.4633,0.5367	-1644.28
0.3989,0.6011	-1641.93
0.4988,0.5012	-1644.26
0.4631,0.5369	-1643.70
0.3909,0.6091	-1640.77
0.4614,0.5386	-1644.47
0.4406,0.5594	-1643.83
0.3962,0.6038	-1641.98
0.4876,0.5124	-1643.84
0.4825,0.5175	-1644.10
0.4238,0.5762	-1640.51
0.4651,0.5349	-1644.12
0.4422,0.5578	-1641.72
0.3697,0.6303	-1639.16
0.4964,0.5036	-1644.15
0.4592,0.5408	-1643.69
0.4126,0.5874	-1643.17
0.4065,0.5935	-1641.43
0.4137,0.5863	-1639.66
0.3620,0.6380	-1643.86
0.5183,0.4817	-1643.43
0.4340,0.5660	-1641.29
0.4164,0.5836	-1641.06
0.4202,0.5798	-1640.77
0.4332,0.5668	-1642.89
0.3627,0.6373	-1641.56
0.5230,0.4770	-1645.55
0.4012,0.5988	-1642.28
0.4082,0.5918	-1638.45
0.4166,0.5834	-1644.09
0.5127,0.4873	-1644.74
0.4202,0.5798	-1643.02
0.5580,0.4420	-1645.32
0.4071,0.5929	-1639.55
0.4315,0.5685	-1642.62
0.4422,0.5578	-1644.97
0.4811,0.5189	-1643.72
0.4287,0.5713	-1640.91
0.5863,0.4137	-1646.27
0.4396,0.5604	-1641.17
0.4212,0.5788	-1640.78
0.4459,0.5541	-1642.67
0.5075,0.4925	-1644.46
0.4687,0.5313	-1643.72
0.5701,0.4299	-1647.22
0.4732,0.5268	-1643.98
0.4166,0.5834	-1643.76
0.4874,0.5126	-1644.09
0.5014,0.4986	-1644.37
0.5494,0.4506	-1645.82
0.5563,0.4437	-1643.68
0.4666,0.5334	-1643.84
0.4724,0.5276	-1643.76
0.4590,0.5410	-1644.02
0.5105,0.4895	-1644.53
0.5782,0.4218	-1645.56
0.4966,0.5034	-1644.28
0.4410,0.5590	-1643.59
0.4488,0.5512	-1644.35
0.4606,0.5394	-1642.74
0.4938,0.5062	-1643.74
0.6286,0.3714	-1644.77
0.5118,0.4882	-1644.76
0.4731,0.5269	-1643.66
0.4310,0.5690	-1641.79
0.3992,0.6008	-1641.51
0.4421,0.5579	-1640.78
0.5379,0.4621	-1645.02
0.5665,0.4335	-1645.12
0.4365,0.5635	-1640.83
0.3853,0.6147	-1640.40
0.4660,0.5340	-1643.57
0.4343,0.5657	-1642.88
0.4893,0.5107	-1644.11
0.5513,0.4487	-1644.68
0.4648,0.5352	-1642.86
0.4102,0.5898	-1645.41
0.4588,0.5412	-1644.35
0.4202,0.5798	-1643.66
0.4828,0.5172	-1644.17
0.5102,0.4898	-1644.20
0.4530,0.5470	-1643.14
0.3904,0.6096	-1639.44
0.4519,0.5481	-1642.94
0.4940,0.5060	-1643.95
0.4773,0.5227	-1643.45
0.4631,0.5369	-1643.11
0.3954,0.6046	-1641.57
0.3663,0.6337	-1638.68
0.4264,0.5736	-1644.42
0.4540,0.5460	-1643.70
0.4546,0.5454	-1643.52
0.5365,0.4635	-1645.56
0.3659,0.6341	-1637.03
0.3910,0.6090	-1642.10
0.3812,0.6188	-1641.92
0.5423,0.4577	-1647.37
0.4545,0.5455	-1644.25
0.5480,0.4520	-1644.03
0.3775,0.6225	-1634.04
0.3863,0.6137	-1639.46
0.3936,0.6064	-1638.58
0.5429,0.4571	-1645.53
0.4587,0.5413	-1642.86
0.5328,0.4672	-1646.45
0.3938,0.6062	-1636.86
0.4172,0.5828	-1642.74
0.3763,0.6237	-1640.57
0.5310,0.4690	-1643.70
0.4682,0.5318	-1645.12
0.4960,0.5040	-1644.34
0.3756,0.6244	-1637.54
0.4104,0.5896	-1641.77
0.4074,0.5926	-1636.93
0.5254,0.4746	-1644.88
0.4615,0.5385	-1642.61
0.4487,0.5513	-1642.70
0.4031,0.5969	-1641.07
0.4542,0.5458	-1642.05
0.3603,0.6397	-1638.23
0.5432,0.4568	-1643.47
0.4209,0.5791	-1641.42
0.4549,0.5451	-1641.53
0.4377,0.5623	-1641.37
0.4193,0.5807	-1642.39
0.3644,0.6356	-1632.59
0.5296,0.4704	-1645.97
0.4383,0.5617	-1645.11
0.4631,0.5369	-1643.40
0.4435,0.5565	-1643.34
0.4171,0.5829	-1641.40
0.3191,0.6809	-1636.24
0.5461,0.4539	-1645.67
0.4352,0.5648	-1644.70
0.4698,0.5302	-1643.61
0.3751,0.6249	-1636.01
0.4051,0.5949	-1636.06
0.2907,0.7093	-1637.25
0.5427,0.4573	-1645.86
0.4751,0.5249	-1643.69
0.4888,0.5112	-1644.02
0.3801,0.6199	-1640.00
0.4073,0.5927	-1641.43
0.3394,0.6606	-1638.21
0.5297,0.4703	-1645.02
0.4623,0.5377	-1643.39
0.4716,0.5284	-1643.29
0.4010,0.5990	-1641.49
0.4068,0.5932	-1641.43
0.3756,0.6244	-1641.61
0.5029,0.4971	-1644.32
0.4394,0.5606	-1643.60
0.4565,0.5435	-1644.56
0.4213,0.5787	-1637.61
0.5035,0.4965	-1644.33
0.3953,0.6047	-1642.00
0.4833,0.5167	-1643.30
0.3910,0.6090	-1639.44
0.4992,0.5008	-1644.29
0.3971,0.6029	-1639.45
0.4987,0.5013	-1644.27
0.4135,0.5865	-1641.05
0.5064,0.4936	-1644.38
0.4000,0.6000	-1642.31
0.5161,0.4839	-1644.94
0.3704,0.6296	-1642.33
0.4722,0.5278	-1643.20
0.4557,0.5443	-1644.05
0.5297,0.4703	-1645.26
0.3535,0.6465	-1637.18
0.4929,0.5071	-1644.14
0.3692,0.6308	-1643.45
0.5328,0.4672	-1645.79
0.4661,0.5339	-1643.30
0.5256,0.4744	-1644.89
0.3558,0.6442	-1635.36
0.4904,0.5096	-1643.98
0.3516,0.6484	-1640.27
0.5476,0.4524	-1644.21
0.4770,0.5230	-1643.99
0.4806,0.5194	-1644.95
0.3273,0.6727	-1634.46
0.4501,0.5499	-1643.72
0.3492,0.6508	-1642.87
0.5213,0.4787	-1644.85
0.4174,0.5826	-1643.07
0.4958,0.5042	-1644.26
0.3547,0.6453	-1635.96
0.4822,0.5178	-1644.03
0.3743,0.6257	-1637.54
0.5386,0.4614	-1644.43
0.4630,0.5370	-1643.84
0.4594,0.5406	-1643.20
0.3669,0.6331	-1644.67
0.4548,0.5452	-1642.79
0.3435,0.6565	-1639.36
0.5139,0.4861	-1645.01
0.4685,0.5315	-1643.72
0.4823,0.5177	-1643.25
0.3758,0.6242	-1641.09
0.4456,0.5544	-1641.36
0.3434,0.6566	-1640.66
0.4612,0.5388	-1644.47
0.4454,0.5546	-1643.33
0.4739,0.5261	-1643.98
0.3848,0.6152	-1635.72
0.4615,0.5385	-1642.61
0.3733,0.6267	-1639.10
0.4988,0.5012	-1644.26
0.4704,0.5296	-1643.62
0.5061,0.4939	-1644.43
0.4199,0.5801	-1642.38
0.4284,0.5716	-1642.05
0.3841,0.6159	-1638.53
0.4588,0.5412	-1642.54
0.4587,0.5413	-1643.86
0.5106,0.4894	-1644.66
0.3920,0.6080	-1644.27
0.4485,0.5515	-1642.70
0.3964,0.6036	-1639.03
0.4875,0.5125	-1644.24
0.5070,0.4930	-1644.79
0.5180,0.4820	-1644.74
0.4437,0.5563	-1642.20
0.4757,0.5243	-1644.67
0.3955,0.6045	-1638.60
0.4525,0.5475	-1642.57
0.4756,0.5244	-1644.08
0.4791,0.5209	-1643.17
0.4277,0.5723	-1640.01
0.4552,0.5448	-1641.72
0.4156,0.5844	-1645.49
0.4278,0.5722	-1643.51
0.4484,0.5516	-1644.57
0.4488,0.5512	-1642.71
0.3944,0.6056	-1640.30
0.4319,0.5681	-1642.62
0.4303,0.5697	-1640.38
0.4388,0.5612	-1643.86
0.4146,0.5854	-1642.43
0.4294,0.5706	-1641.77
0.3760,0.6240	-1638.05
0.4785,0.5215	-1643.40
0.4560,0.5440	-1641.05
0.4006,0.5994	-1642.70
0.3935,0.6065	-1639.01
0.4433,0.5567	-1641.74
0.3137,0.6863	-1640.42
0.4523,0.5477	-1642.94
0.4506,0.5494	-1642.33
0.3838,0.6162	-1638.53
0.4089,0.5911	-1640.68
0.4192,0.5808	-1640.43
0.3295,0.6705	-1640.08
0.4246,0.5754	-1639.01
0.4903,0.5097	-1644.13
0.3642,0.6358	-1638.16
0.4022,0.5978	-1639.89
0.4016,0.5984	-1642.28
0.3169,0.6831	-1628.66
0.4648,0.5352	-1643.84
0.4690,0.5310	-1643.23
0.3752,0.6248	-1644.17
0.3737,0.6263	-1634.96
0.4421,0.5579	-1644.97
0.3237,0.6763	-1636.77
0.4540,0.5460	-1642.41
0.4170,0.5830	-1643.08
0.3868,0.6132	-1639.46
0.4178,0.5822	-1641.73
0.4863,0.5137	-1644.24
0.3547,0.6453	-1635.96
0.3964,0.6036	-1646.18
0.4217,0.5783	-1643.31
0.4317,0.5683	-1642.35
0.4391,0.5609	-1641.89
0.4579,0.5421	-1643.35
0.3424,0.6576	-1638.10
0.3785,0.6215	-1641.52
0.3953,0.6047	-1637.75
0.4811,0.5189	-1643.27
0.4678,0.5322	-1642.94
0.4609,0.5391	-1643.38
0.3511,0.6489	-1637.22
0.4516,0.5484	-1644.30
0.3604,0.6396	-1635.93
0.4888,0.5112	-1644.20
0.4783,0.5217	-1644.17
0.4511,0.5489	-1643.91
0.3499,0.6501	-1641.59
0.4314,0.5686	-1642.34
0.3668,0.6332	-1644.13
0.4735,0.5265	-1643.98
0.5072,0.4928	-1644.22
0.4682,0.5318	-1642.83
0.3696,0.6304	-1637.56
0.3860,0.6140	-1640.85
0.3512,0.6488	-1638.45
0.4396,0.5604	-1640.44
0.4428,0.5572	-1642.65
0.4303,0.5697	-1641.22
0.3900,0.6100	-1641.24
0.4182,0.5818	-1643.71
0.4066,0.5934	-1643.32
0.4342,0.5658	-1642.62
0.4808,0.5192	-1643.87
0.3444,0.6556	-1632.88
0.3903,0.6097	-1641.68
0.4002,0.5998	-1641.50
0.4657,0.5343	-1645.08
0.4207,0.5793	-1642.37
0.4499,0.5501	-1645.13
0.4126,0.5874	-1641.05
0.4417,0.5583	-1640.53
0.3813,0.6187	-1637.56
0.4326,0.5674	-1642.62
0.4532,0.5468	-1641.83
0.4589,0.5411	-1643.36
0.3882,0.6118	-1644.91
0.3958,0.6042	-1639.87
0.3804,0.6196	-1638.53
0.4524,0.5476	-1644.66
0.4017,0.5983	-1638.69
0.4285,0.5715	-1641.77
0.3778,0.6222	-1641.54
0.4209,0.5791	-1643.33
0.3720,0.6280	-1641.21
0.4212,0.5788	-1644.91
0.3848,0.6152	-1639.47
0.4121,0.5879	-1639.27
0.3847,0.6153	-1637.12
0.3831,0.6169	-1639.48
0.4214,0.5786	-1638.88
0.4769,0.5231	-1643.53
0.4659,0.5341	-1641.93
0.4383,0.5617	-1643.37
0.3773,0.6227	-1644.06
0.3534,0.6466	-1632.95
0.4273,0.5727	-1641.76
0.4980,0.5020	-1644.27
0.4893,0.5107	-1644.20
0.4372,0.5628	-1643.63
0.3981,0.6019	-1638.63
0.3609,0.6391	-1639.36
0.3661,0.6339	-1637.58
0.5447,0.4553	-1646.33
0.5140,0.4860	-1644.74
0.4599,0.5401	-1644.66
0.4184,0.5816	-1642.06
0.3287,0.6713	-1635.85
0.3903,0.6097	-1644.35
0.4975,0.5025	-1644.21
0.4941,0.5059	-1644.05
0.4321,0.5679	-1643.71
0.4253,0.5747	-1642.05
0.3294,0.6706	-1645.77
0.4240,0.5760	-1644.50
0.4907,0.5093	-1643.95
0.5272,0.4728	-1644.50
0.4290,0.5710	-1642.06
0.3605,0.6395	-1642.81
0.3532,0.6468	-1637.18
0.4036,0.5964	-1642.63
0.5071,0.4929	-1644.22
0.5181,0.4819	-1644.82
0.4165,0.5835	-1642.07
0.3905,0.6095	-1642.12
0.3538,0.6462	-1639.58
0.4083,0.5917	-1635.86
0.4969,0.5031	-1644.23
0.4764,0.5236	-1642.29
0.3906,0.6094	-1639.44
0.2909,0.7091	-1630.99
0.3694,0.6306	-1645.04
0.4202,0.5798	-1643.67
0.4690,0.5310	-1643.35
0.4722,0.5278	-1643.42
0.4442,0.5558	-1643.56
0.3059,0.6941	-1632.88
0.3927,0.6073	-1636.83
0.3928,0.6072	-1644.67
0.4646,0.5354	-1644.84
0.3934,0.6066	-1642.91
0.4569,0.5431	-1644.90
0.3231,0.6769	-1642.72
0.3979,0.6021	-1640.70
0.3626,0.6374	-1638.19
0.4413,0.5587	-1642.17
0.3766,0.6234	-1647.12
0.4630,0.5370	-1644.44
0.3751,0.6249	-1639.58
0.3886,0.6114	-1635.82
0.3966,0.6034	-1639.87
0.4718,0.5282	-1643.98
0.3847,0.6153	-1642.29
0.4545,0.5455	-1642.79
0.3938,0.6062	-1640.31
0.3799,0.6201	-1638.54
0.3845,0.6155	-1639.94
0.4666,0.5334	-1643.44
0.3852,0.6148	-1641.34
0.4393,0.5607	-1642.14
0.4064,0.5936	-1639.54
0.3686,0.6314	-1640.79
0.3739,0.6261	-1640.12
0.3997,0.6003	-1644.35
0.3955,0.6045	-1643.69
0.4189,0.5811	-1641.73
0.3558,0.6442	-1636.54
0.4303,0.5697	-1642.34
0.3805,0.6195	-1642.43
0.3753,0.6247	-1640.09
0.3846,0.6154	-1641.35
0.4580,0.5420	-1641.33
0.3519,0.6481	-1639.04
0.4213,0.5787	-1642.37
0.4783,0.5217	-1643.04
0.3507,0.6493	-1639.08
0.3894,0.6106	-1639.90
0.4415,0.5585	-1641.47
0.3689,0.6311	-1638.64
0.4657,0.5343	-1644.26
0.4762,0.5238	-1644.94
0.3803,0.6197	-1641.46
0.4094,0.5906	-1637.75
0.4862,0.5138	-1643.96
0.3688,0.6312	-1635.95
0.4419,0.5581	-1641.94
0.4915,0.5085	-1644.25
0.3510,0.6490	-1637.84
0.3897,0.6103	-1637.65
0.5242,0.4758	-1644.46
0.3490,0.6510	-1638.52
0.4802,0.5198	-1643.70
0.4763,0.5237	-1643.80
0.3695,0.6305	-1643.44
0.3377,0.6623	-1642.32
0.4779,0.5221	-1644.88
0.3740,0.6260	-1638.06
0.4456,0.5544	-1643.76
0.4668,0.5332	-1644.38
0.4009,0.5991	-1640.68
0.3607,0.6393	-1636.50
0.4604,0.5396	-1641.63
0.3970,0.6030	-1640.71
0.4369,0.5631	-1643.38
0.4381,0.5619	-1641.88
0.4244,0.5756	-1640.22
0.3751,0.6249	-1639.58
0.4683,0.5317	-1641.69
0.4104,0.5896	-1637.79
0.4552,0.5448	-1641.90
0.3938,0.6062	-1639.01
0.5134,0.4866	-1644.61
0.3637,0.6363	-1640.40
0.4392,0.5608	-1643.61
0.4568,0.5432	-1643.17
0.4333,0.5667	-1641.28
0.3920,0.6080	-1638.13
0.5192,0.4808	-1644.78
0.3893,0.6107	-1638.55
0.4003,0.5997	-1639.88
0.4436,0.5564	-1642.43
0.4191,0.5809	-1641.08
0.4354,0.5646	-1640.80
0.4862,0.5138	-1643.85
0.4469,0.5531	-1640.98
0.4311,0.5689	-1641.23
0.4614,0.5386	-1643.69
0.4399,0.5601	-1643.60
0.4190,0.5810	-1643.04
0.4608,0.5392	-1643.38
0.4164,0.5836	-1639.37
0.4688,0.5312	-1643.10
0.4595,0.5405	-1642.88
0.4327,0.5673	-1642.62
0.4092,0.5908	-1640.68
0.4077,0.5923	-1638.81
0.4033,0.5967	-1637.15
0.4411,0.5589	-1641.69
0.4722,0.5278	-1644.20
0.4443,0.5557	-1641.77
0.3479,0.6521	-1637.30
0.3859,0.6141	-1641.79
0.3791,0.6209	-1640.02
0.5209,0.4791	-1644.41
0.4559,0.5441	-1644.05
0.4800,0.5200	-1643.37
0.3627,0.6373	-1641.56
0.4131,0.5869	-1642.81
0.3683,0.6317	-1639.18
0.5640,0.4360	-1645.81
0.4823,0.5177	-1643.82
0.4320,0.5680	-1640.43
0.3492,0.6508	-1639.76
0.4511,0.5489	-1644.11
0.4287,0.5713	-1642.06
0.5404,0.4596	-1644.45
0.4486,0.5514	-1642.91
0.3978,0.6022	-1639.46
0.4007,0.5993	-1639.88
0.4717,0.5283	-1643.18
0.3849,0.6151	-1641.81
0.5127,0.4873	-1644.59
0.3643,0.6357	-1640.94
0.4138,0.5862	-1641.05
0.4482,0.5518	-1644.16
0.4051,0.5949	-1643.36
0.3558,0.6442	-1641.89
0.4821,0.5179	-1643.89
0.4190,0.5810	-1641.41
0.4307,0.5693	-1641.23
0.4801,0.5199	-1643.62
0.4166,0.5834	-1643.76
0.3700,0.6300	-1639.68
0.4425,0.5575	-1642.65
0.3858,0.6142	-1638.53
0.4120,0.5880	-1642.83
0.4629,0.5371	-1643.25
0.4380,0.5620	-1640.38
0.3805,0.6195	-1636.58
0.4434,0.5566	-1644.02
0.3689,0.6311	-1638.64
0.4230,0.5770	-1640.81
0.4472,0.5528	-1641.63
0.4401,0.5599	-1642.63
0.4355,0.5645	-1644.69
0.4325,0.5675	-1644.25
0.3937,0.6063	-1642.47
0.3632,0.6368	-1638.73
0.4843,0.5157	-1643.80
0.4354,0.5646	-1640.54
0.4811,0.5189	-1644.17
0.4284,0.5716	-1642.34
0.3608,0.6392	-1631.92
0.3875,0.6125	-1638.08
0.4897,0.5103	-1643.75
0.4148,0.5852	-1641.74
0.5070,0.4930	-1644.31
0.4132,0.5868	-1642.45
0.4245,0.5755	-1640.53
0.3945,0.6055	-1641.59
0.5224,0.4776	-1644.34
0.4564,0.5436	-1642.64
0.4772,0.5228	-1643.17
0.4574,0.5426	-1642.84
0.3932,0.6068	-1641.61
0.4204,0.5796	-1641.41
0.4699,0.5301	-1644.46
0.4276,0.5724	-1643.22
0.4864,0.5136	-1643.47
0.4820,0.5180	-1644.24
0.4211,0.5789	-1643.33
0.3771,0.6229	-1642.56
0.5053,0.4947	-1644.54
0.4167,0.5833	-1641.74
0.4795,0.5205	-1644.34
0.4915,0.5085	-1643.50
0.4391,0.5609	-1642.63
0.3998,0.6002	-1641.91
0.4673,0.5327	-1643.45
0.3564,0.6436	-1634.17
0.4218,0.5782	-1642.05
0.4908,0.5092	-1643.99
0.3861,0.6139	-1640.39
0.3885,0.6115	-1642.17
0.4647,0.5353	-1644.55
0.3892,0.6108	-1636.74
0.3758,0.6242	-1639.07
0.4803,0.5197	-1644.01
0.4080,0.5920	-1641.42
0.3881,0.6119	-1638.09
0.4678,0.5322	-1644.10
0.4081,0.5919	-1640.30
0.3256,0.6744	-1637.42
0.4585,0.5415	-1643.52
0.4203,0.5797	-1641.09
0.4151,0.5849	-1642.09
0.4580,0.5420	-1644.03
0.3765,0.6235	-1640.07
0.3632,0.6368	-1642.10
0.5066,0.4934	-1644.44
0.4584,0.5416	-1643.19
0.4395,0.5605	-1640.68
0.4622,0.5378	-1643.39
0.3817,0.6183	-1634.67
0.4059,0.5941	-1639.91
0.4604,0.5396	-1643.53
0.4808,0.5192	-1643.64
0.4420,0.5580	-1642.18
0.4493,0.5507	-1643.53
0.4246,0.5754	-1645.09
0.4131,0.5869	-1641.75
0.4903,0.5097	-1643.94
0.5268,0.4732	-1644.82
0.4488,0.5512	-1641.88
0.5141,0.4859	-1644.97
0.4113,0.5887	-1641.76
0.3824,0.6176	-1640.45
0.4663,0.5337	-1643.44
0.5014,0.4986	-1644.28
0.4716,0.5284	-1642.27
0.5280,0.4720	-1644.29
0.4062,0.5938	-1643.33
0.3966,0.6034	-1640.71
0.4712,0.5288	-1644.09
0.4860,0.5140	-1644.13
0.4572,0.5428	-1643.69
0.4748,0.5252	-1644.49
0.3831,0.6169	-1640.91
0.3669,0.6331	-1639.76
0.4593,0.5407	-1642.71
0.5200,0.4800	-1644.00
0.4614,0.5386	-1643.54
0.4398,0.5602	-1642.39
0.4338,0.5662	-1642.88
0.3619,0.6381	-1640.46
0.5075,0.4925	-1644.55
0.4626,0.5374	-1642.20
0.4446,0.5554	-1642.66
0.4498,0.5502	-1642.31
0.4630,0.5370	-1643.55
0.3964,0.6036	-1639.03
0.4930,0.5070	-1644.12
0.3740,0.6260	-1640.63
0.4963,0.5037	-1644.23
0.3899,0.6101	-1642.58
0.4282,0.5718	-1641.19
0.4286,0.5714	-1643.49
0.4146,0.5854	-1641.74
0.3753,0.6247	-1639.07
0.5236,0.4764	-1645.02
0.4022,0.5978	-1643.06
0.4173,0.5827	-1643.41
0.3819,0.6181	-1640.46
0.3745,0.6255	-1637.54
0.4335,0.5665	-1643.69
0.5480,0.4520	-1644.80
0.4383,0.5617	-1640.89
0.4108,0.5892	-1641.77
0.3355,0.6645	-1640.43
0.4090,0.5910	-1642.89
0.4135,0.5865	-1643.50
0.4977,0.5023	-1644.30
0.4801,0.5199	-1643.70
0.3926,0.6074	-1642.50
0.3705,0.6295	-1642.32
0.4236,0.5764	-1641.43
0.4270,0.5730	-1644.11
0.5026,0.4974	-1644.37
0.4637,0.5363	-1643.55
0.3768,0.6232	-1641.07
0.4225,0.5775	-1643.30
0.4036,0.5964	-1639.50
0.3967,0.6033	-1641.13
0.4771,0.5229	-1644.36
0.4908,0.5092	-1644.03
0.3769,0.6231	-1641.57
0.4333,0.5667	-1642.89
0.4067,0.5933	-1642.94
0.3794,0.6206	-1638.54
0.4788,0.5212	-1644.34
0.4952,0.5048	-1644.00
0.4026,0.5974	-1639.49
0.3827,0.6173	-1642.36
0.4186,0.5814	-1639.76
0.3971,0.6029	-1638.20
0.4632,0.5368	-1643.40
0.5015,0.4985	-1644.33
0.4280,0.5720	-1642.63
0.3925,0.6075	-1640.32
0.4694,0.5306	-1643.36
0.4021,0.5979	-1639.49
0.4126,0.5874	-1643.17
0.4801,0.5199	-1644.73
0.4584,0.5416	-1642.19
0.4055,0.5945	-1640.29
0.4367,0.5633	-1641.35
0.4278,0.5722	-1643.22
0.4736,0.5264	-1644.09
0.4548,0.5452	-1641.53
0.5231,0.4769	-1645.18
0.4015,0.5985	-1643.08
0.4648,0.5352	-1642.01
0.4338,0.5662	-1640.75
0.4651,0.5349	-1642.59
0.4333,0.5667	-1643.42
0.5137,0.4863	-1644.56
0.4096,0.5904	-1640.68
0.4483,0.5517	-1645.40
0.3837,0.6163	-1640.43
0.4696,0.5304	-1643.12
0.4059,0.5941	-1640.67
0.4469,0.5531	-1642.26
0.4251,0.5749	-1642.95
0.3962,0.6038	-1641.56
0.4017,0.5983	-1641.48
0.4577,0.5423	-1641.66
0.4050,0.5950	-1645.67
0.3915,0.6085	-1642.97
0.4812,0.5188	-1643.87
0.3925,0.6075	-1639.01
0.3741,0.6259	-1642.18
0.4348,0.5652	-1643.67
0.4887,0.5113	-1644.15
0.3957,0.6043	-1639.87
0.4429,0.5571	-1642.42
0.4530,0.5470	-1645.40
0.3829,0.6171	-1639.01
0.3963,0.6037	-1641.98
0.4513,0.5487	-1643.52
0.4076,0.5924	-1635.81
0.4439,0.5561	-1642.88
0.4381,0.5619	-1642.87
0.4167,0.5833	-1642.07
0.3934,0.6066	-1639.44
0.4700,0.5300	-1643.49
0.4035,0.5965	-1640.68
0.3977,0.6023	-1639.04
0.3715,0.6285	-1638.60
0.4837,0.5163	-1643.98
0.4555,0.5445	-1644.77
0.4445,0.5555	-1644.67
0.3440,0.6560	-1634.17
0.4057,0.5943	-1641.06
0.3159,0.6841	-1638.71
0.4701,0.5299	-1644.33
0.4572,0.5428	-1642.83
0.4502,0.5498	-1640.13
0.3396,0.6604	-1635.55
0.4482,0.5518	-1643.32
0.3521,0.6479	-1631.11
0.5140,0.4860	-1644.74
0.4491,0.5509	-1645.37
0.4592,0.5408	-1643.36
0.3763,0.6237	-1640.07
0.4113,0.5887	-1643.56
0.3723,0.6277	-1636.50
0.5077,0.4923	-1644.68
0.4255,0.5745	-1641.75
0.4779,0.5221	-1643.82
0.3552,0.6448	-1641.92
0.4538,0.5462	-1643.52
0.4335,0.5665	-1642.62
0.5333,0.4667	-1646.08
0.4161,0.5839	-1640.04
0.4522,0.5478	-1643.71
0.3858,0.6142	-1639.00
0.4919,0.5081	-1644.02
0.4205,0.5795	-1642.38
0.5646,0.4354	-1645.06
0.3784,0.6216	-1637.55
0.4169,0.5831	-1641.40
0.3538,0.6462	-1640.79
0.4889,0.5111	-1644.29
0.3853,0.6147	-1640.87
0.5736,0.4264	-1645.38
0.3405,0.6595	-1642.14
0.4238,0.5762	-1641.13
0.3997,0.6003	-1644.76
0.4973,0.5027	-1644.19
0.3487,0.6513	-1632.28
0.5693,0.4307	-1644.38
0.3539,0.6461	-1640.18
0.3970,0.6030	-1638.62
0.4402,0.5598	-1641.91
0.4957,0.5043	-1644.22
0.3230,0.6770	-1638.29
0.5039,0.4961	-1644.38
0.3962,0.6038	-1640.72
0.4577,0.5423	-1643.52
0.4053,0.5947	-1643.36
0.4747,0.5253	-1642.97
0.3241,0.6759	-1638.22
0.5031,0.4969	-1644.44
0.4526,0.5474	-1642.95
0.5062,0.4938	-1644.38
0.4367,0.5633	-1643.89
0.5139,0.4861	-1644.29
0.3495,0.6505	-1634.15
0.5144,0.4856	-1644.23
0.3922,0.6078	-1640.76
0.4928,0.5072	-1644.34
0.4242,0.5758	-1642.66
0.4987,0.5013	-1644.31
0.3605,0.6395	-1643.38
0.5333,0.4667	-1645.15
0.3498,0.6502	-1635.39
0.5001,0.4999	-1644.31
0.4477,0.5523	-1643.32
0.4966,0.5034	-1644.26
0.3532,0.6468	-1635.97
0.5622,0.4378	-1646.23
0.3530,0.6470	-1632.95
0.4976,0.5024	-1644.27
0.4713,0.5287	-1643.86
0.4705,0.5295	-1643.50
0.3651,0.6349	-1644.23
0.5078,0.4922	-1644.31
0.3843,0.6157	-1642.30
0.5109,0.4891	-1644.28
0.3654,0.6346	-1637.59
0.5160,0.4840	-1645.26
0.3715,0.6285	-1639.13
0.5025,0.4975	-1644.29
0.4164,0.5836	-1644.10
0.4425,0.5575	-1639.64
0.3881,0.6119	-1638.54
0.5119,0.4881	-1645.14
0.4733,0.5267	-1643.44
0.5004,0.4996	-1644.33
0.4280,0.5720	-1641.47
0.5221,0.4779	-1644.16
0.4074,0.5926	-1642.92
0.5604,0.4396	-1642.74
0.4208,0.5792	-1643.01
0.5103,0.4897	-1644.53
0.4160,0.5840	-1642.42
0.5101,0.4899	-1644.52
0.3596,0.6404	-1639.97
0.5127,0.4873	-1644.69
0.3956,0.6044	-1641.57
0.4425,0.5575	-1643.34
0.4334,0.5666	-1644.49
0.4532,0.5468	-1642.95
0.3420,0.6580	-1642.70
0.4913,0.5087	-1644.60
0.3616,0.6384	-1631.38
0.4273,0.5727	-1640.30
0.4442,0.5558	-1642.21
0.4326,0.5674	-1641.26
0.3472,0.6528	-1637.31
0.4729,0.5271	-1644.09
0.4056,0.5944	-1638.76
0.4633,0.5367	-1642.37
0.3749,0.6251	-1640.10
0.4331,0.5669	-1641.00
0.3374,0.6626	-1632.90
0.4643,0.5357	-1641.99
0.4004,0.5996	-1641.90
0.3882,0.6118	-1643.09
0.3865,0.6135	-1637.61
0.4329,0.5671	-1642.08
0.3414,0.6586	-1634.85
0.4742,0.5258	-1642.95
0.3908,0.6092	-1638.56
0.4005,0.5995	-1641.49
0.4453,0.5547	-1644.43
0.4621,0.5379	-1641.72
0.3375,0.6625	-1638.97
0.4708,0.5292	-1643.97
0.4427,0.5573	-1641.73
0.4057,0.5943	-1638.77
0.4088,0.5912	-1642.52
0.4708,0.5292	-1643.27
0.3616,0.6384	-1634.79
0.4684,0.5316	-1643.09
0.4392,0.5608	-1640.92
0.4090,0.5910	-1641.05
0.3786,0.6214	-1642.51
0.4469,0.5531	-1643.11
0.3823,0.6177	-1639.49
0.4289,0.5711	-1641.77
0.4111,0.5889	-1644.64
0.4289,0.5711	-1644.35
0.3760,0.6240	-1638.05
0.4517,0.5483	-1643.52
0.3933,0.6067	-1636.84
0.4264,0.5736	-1640.86
0.3654,0.6346	-1638.69
0.4493,0.5507	-1643.12
0.3638,0.6362	-1638.72
0.4399,0.5601	-1640.46
0.3597,0.6403	-1635.93
0.4404,0.5596	-1641.68
0.3705,0.6295	-1646.03
0.4918,0.5082	-1644.05
0.3738,0.6262	-1639.09
0.4123,0.5877	-1642.47
0.3596,0.6404	-1641.70
0.4172,0.5828	-1640.40
0.4090,0.5910	-1643.62
0.4736,0.5264	-1643.56
0.3770,0.6230	-1642.07
0.3475,0.6525	-1638.57
0.2997,0.7003	-1635.71
0.3907,0.6093	-1639.44
0.4623,0.5377	-1643.84
0.4728,0.5272	-1643.87
0.3591,0.6409	-1638.83
0.3129,0.6871	-1642.84
0.3258,0.6742	-1632.32
0.3984,0.6016	-1640.29
0.4616,0.5384	-1644.92
0.5080,0.4920	-1644.51
0.2998,0.7002	-1636.55
0.3169,0.6831	-1633.27
0.4015,0.5985	-1640.68
0.3477,0.6523	-1639.19
0.4258,0.5742	-1642.35
0.4871,0.5129	-1644.39
0.2940,0.7060	-1646.62
0.3371,0.6629	-1639.66
0.3798,0.6202	-1642.46
0.4101,0.5899	-1641.05
0.4577,0.5423	-1644.71
0.4402,0.5598	-1641.19
0.3153,0.6847	-1637.20
0.3314,0.6686	-1640.67
0.3814,0.6186	-1639.02
0.4818,0.5182	-1643.88
0.4614,0.5386	-1644.16
0.4410,0.5590	-1640.98
0.3362,0.6638	-1638.35
0.3370,0.6630	-1643.05
0.3724,0.6276	-1640.16
0.4942,0.5058	-1644.26
0.4062,0.5938	-1641.05
0.4417,0.5583	-1639.83
0.3236,0.6764	-1636.04
0.3539,0.6461	-1631.75
0.3903,0.6097	-1639.89
0.4824,0.5176	-1643.61
0.4003,0.5997	-1638.26
0.4487,0.5513	-1641.06
0.3709,0.6291	-1637.02
0.3597,0.6403	-1645.16
0.4223,0.5777	-1643.62
0.4376,0.5624	-1642.37
0.4020,0.5980	-1638.69
0.4605,0.5395	-1642.42
0.3395,0.6605	-1635.55
0.4182,0.5818	-1641.07
0.4187,0.5813	-1642.72
0.4772,0.5228	-1644.18
0.4136,0.5864	-1643.50
0.4785,0.5215	-1643.06
0.4147,0.5853	-1641.40
0.4252,0.5748	-1637.53
0.4051,0.5949	-1642.98
0.4755,0.5245	-1643.20
0.4273,0.5727	-1643.22
0.4349,0.5651	-1644.45
0.4323,0.5677	-1643.98
0.4135,0.5865	-1640.35
0.3943,0.6057	-1638.59
0.4457,0.5543	-1641.58
0.4251,0.5749	-1639.63
0.4421,0.5579	-1642.18
0.4332,0.5668	-1643.42
0.3905,0.6095	-1640.34
0.3624,0.6376	-1632.54
0.4227,0.5773	-1642.05
0.4236,0.5764	-1642.66
0.4208,0.5792	-1644.93
0.4210,0.5790	-1641.42
0.3839,0.6161	-1642.31
0.3769,0.6231	-1646.09
0.4593,0.5407	-1641.89
0.4532,0.5468	-1642.39
0.4250,0.5750	-1642.05
0.4344,0.5656	-1641.83
0.3426,0.6574	-1638.75
0.3652,0.6348	-1638.70
0.4464,0.5536	-1643.76
0.4604,0.5396	-1644.48
0.3945,0.6055	-1640.30
0.4838,0.5162	-1643.14
0.3776,0.6224	-1636.55
0.3698,0.6302	-1640.22
0.4279,0.5721	-1641.76
0.4159,0.5841	-1639.70
0.3773,0.6227	-1638.05
0.4451,0.5549	-1644.21
0.3761,0.6239	-1640.07
0.3957,0.6043	-1641.57
0.3738,0.6262	-1637.54
0.4298,0.5702	-1644.61
0.3823,0.6177	-1638.05
0.4814,0.5186	-1643.58
0.3796,0.6204	-1641.49
0.3779,0.6221	-1640.04
0.3831,0.6169	-1639.96
0.4194,0.5806	-1640.11
0.3871,0.6129	-1640.83
0.4565,0.5435	-1644.39
0.3834,0.6166	-1636.16
0.4513,0.5487	-1643.72
0.4009,0.5991	-1636.27
0.3762,0.6238	-1636.03
0.3982,0.6018	-1641.11
0.4821,0.5179	-1643.96
0.4347,0.5653	-1641.83
0.4662,0.5338	-1644.11
0.3723,0.6277	-1641.73
0.3634,0.6366	-1639.85
0.3896,0.6104	-1637.65
0.4385,0.5615	-1640.65
0.4779,0.5221	-1643.38
0.4613,0.5387	-1643.07
0.3926,0.6074	-1642.50
0.3966,0.6034	-1635.67
0.3826,0.6174	-1643.79
0.4885,0.5115	-1644.10
0.4389,0.5611	-1643.12
0.4180,0.5820	-1640.41
0.4043,0.5957	-1646.10
0.4430,0.5570	-1644.02
0.3898,0.6102	-1639.89
0.5160,0.4840	-1644.94
0.3861,0.6139	-1642.24
0.4348,0.5652	-1641.57
0.3811,0.6189	-1639.99
0.4539,0.5461	-1644.63
0.4123,0.5877	-1637.86
0.4934,0.5066	-1644.05
0.3942,0.6058	-1641.59
0.3945,0.6055	-1643.30
0.4291,0.5709	-1639.49
0.4353,0.5647	-1642.62
0.4175,0.5825	-1641.07
0.4576,0.5424	-1645.73
0.3896,0.6104	-1638.10
0.4458,0.5542	-1642.89
0.4157,0.5843	-1643.10
0.4255,0.5745	-1643.55
0.4817,0.5183	-1643.95
0.5038,0.4962	-1644.30
0.3731,0.6269	-1636.51
0.4104,0.5896	-1641.77
0.4056,0.5944	-1639.15
0.4098,0.5902	-1641.05
0.4679,0.5321	-1642.18
0.5519,0.4481	-1646.15
0.3727,0.6273	-1637.03
0.4241,0.5759	-1643.27
0.3736,0.6264	-1640.13
0.4611,0.5389	-1642.60
0.4624,0.5376	-1645.20
0.5124,0.4876	-1644.68
0.3929,0.6071	-1637.70
0.4711,0.5289	-1643.86
0.4384,0.5616	-1642.63
0.4247,0.5753	-1643.87
0.4740,0.5260	-1643.46
0.5186,0.4814	-1644.16
0.4076,0.5924	-1644.79
0.4289,0.5711	-1640.91
0.4988,0.5012	-1644.24
0.3551,0.6449	-1641.33
0.4668,0.5332	-1643.31
0.4653,0.5347	-1644.12
0.4011,0.5989	-1642.69
0.4529,0.5471	-1642.95
0.4851,0.5149	-1643.22
0.3422,0.6578	-1637.46
0.3976,0.6024	-1642.37
0.4388,0.5612	-1642.63
0.3633,0.6367	-1638.73
0.4522,0.5478	-1644.86
0.4660,0.5340	-1644.39
0.3617,0.6383	-1635.93
0.3877,0.6123	-1637.17
0.4114,0.5886	-1639.61
0.3696,0.6304	-1640.76
0.4399,0.5601	-1642.39
0.4617,0.5383	-1642.62
0.4005,0.5995	-1638.27
0.3385,0.6615	-1639.59
0.4024,0.5976	-1641.47
0.4133,0.5867	-1639.65
0.4217,0.5783	-1641.74
0.4698,0.5302	-1643.61
0.4398,0.5602	-1641.66
0.3648,0.6352	-1637.60
0.4641,0.5359	-1643.56
0.4489,0.5511	-1643.53
0.4777,0.5223	-1642.39
0.4723,0.5277	-1643.09
0.4265,0.5735	-1642.35
0.3692,0.6308	-1643.45
0.4788,0.5212	-1643.24
0.4673,0.5327	-1643.32
0.5143,0.4857	-1645.03
0.4848,0.5152	-1643.94
0.4746,0.5254	-1644.19
0.3843,0.6157	-1639.00
0.4515,0.5485	-1642.94
0.5027,0.4973	-1644.32
0.5297,0.4703	-1644.79
0.4552,0.5448	-1642.98
0.4445,0.5555	-1643.33
0.3725,0.6275	-1638.59
0.3900,0.6100	-1642.58
0.4625,0.5375	-1642.64
0.5504,0.4496	-1645.27
0.5023,0.4977	-1644.44
0.4227,0.5773	-1642.98
0.4380,0.5620	-1644.12
0.3539,0.6461	-1637.77
0.4725,0.5275	-1643.98
0.5025,0.4975	-1644.30
0.5433,0.4567	-1645.38
0.4044,0.5956	-1637.96
0.4208,0.5792	-1640.14
0.4079,0.5921	-1638.81
0.4367,0.5633	-1646.18
0.5116,0.4884	-1644.14
0.5804,0.4196	-1645.01
0.4240,0.5760	-1642.66
0.3662,0.6338	-1637.03
0.3813,0.6187	-1643.86
0.4845,0.5155	-1643.93
0.5372,0.4628	-1646.64
0.5354,0.4646	-1644.94
0.4201,0.5799	-1641.09
0.3322,0.6678	-1639.92
0.4078,0.5922	-1641.79
0.4491,0.5509	-1640.87
0.5606,0.4394	-1643.71
0.4546,0.5454	-1643.52
0.3950,0.6050	-1636.46
0.3491,0.6509	-1637.89
0.3751,0.6249	-1636.52
0.4288,0.5712	-1638.04
0.4836,0.5164	-1643.98
0.4922,0.5078	-1644.13
0.3904,0.6096	-1640.78
0.4075,0.5925	-1641.05
0.4084,0.5916	-1638.08
0.4594,0.5406	-1642.71
0.4774,0.5226	-1643.00
0.5100,0.4900	-1644.64
0.4148,0.5852	-1641.06
0.4112,0.5888	-1645.71
0.3822,0.6178	-1635.17
0.3959,0.6041	-1641.14
0.4621,0.5379	-1642.63
0.4586,0.5414	-1643.36
0.4441,0.5559	-1641.31
0.3952,0.6048	-1644.55
0.3779,0.6221	-1643.03
0.3783,0.6217	-1641.03
0.4421,0.5579	-1640.78
0.4377,0.5623	-1641.37
0.4167,0.5833	-1640.73
0.3862,0.6138	-1642.24
0.4078,0.5922	-1642.92
0.4127,0.5873	-1637.52
0.4674,0.5326	-1642.28
0.4139,0.5861	-1636.88
0.3983,0.6017	-1643.17
0.3723,0.6277	-1637.55
0.4490,0.5510	-1641.28
0.3770,0.6230	-1642.57
0.4290,0.5710	-1643.49
0.4365,0.5635	-1640.07
0.4251,0.5749	-1640.84
0.3707,0.6293	-1637.02
0.4042,0.5958	-1639.90
0.3370,0.6630	-1637.63
0.4352,0.5648	-1640.01
0.3991,0.6009	-1639.88
0.4316,0.5684	-1644.27
0.3869,0.6131	-1641.30
0.4142,0.5858	-1643.13
0.3534,0.6466	-1637.18
0.4163,0.5837	-1644.44
0.4010,0.5990	-1641.08
0.4294,0.5706	-1640.92
0.4466,0.5534	-1641.18
0.4437,0.5563	-1642.88
0.4032,0.5968	-1644.20
0.4617,0.5383	-1643.85
0.3959,0.6041	-1639.87
0.4231,0.5769	-1640.50
0.4048,0.5952	-1642.99
0.4911,0.5089	-1644.03
0.4007,0.5993	-1640.69
0.4508,0.5492	-1641.35
0.4405,0.5595	-1641.68
0.4237,0.5763	-1638.66
0.3671,0.6329	-1637.03
0.4340,0.5660	-1641.56
0.3899,0.6101	-1638.55
0.3893,0.6107	-1644.85
0.3963,0.6037	-1641.56
0.4720,0.5280	-1643.75
0.3933,0.6067	-1639.44
0.4580,0.5420	-1641.84
0.3765,0.6235	-1634.52
0.3598,0.6402	-1639.39
0.3859,0.6141	-1638.07
0.4830,0.5170	-1643.70
0.3656,0.6344	-1643.10
0.4421,0.5579	-1643.11
0.3559,0.6441	-1638.32
0.4133,0.5867	-1642.45
0.3937,0.6063	-1640.31
0.4721,0.5279	-1644.76
0.3876,0.6124	-1639.91
0.4412,0.5588	-1640.98
0.3565,0.6435	-1638.31
0.4098,0.5902	-1641.78
0.4072,0.5928	-1639.92
0.4644,0.5356	-1643.27
0.4001,0.5999	-1639.07
0.4465,0.5535	-1641.61
0.3987,0.6013	-1643.98
0.4863,0.5137	-1643.58
0.4121,0.5879	-1640.34
0.4767,0.5233	-1643.52
0.4307,0.5693	-1642.34
0.4087,0.5913	-1643.26
0.3827,0.6173	-1636.62
0.5051,0.4949	-1644.61
0.3874,0.6126	-1638.08
0.4668,0.5332	-1643.71
0.3935,0.6065	-1637.71
0.3856,0.6144	-1643.66
0.3807,0.6193	-1634.64
0.5325,0.4675	-1644.99
0.4339,0.5661	-1642.09
0.4130,0.5870	-1641.40
0.3725,0.6275	-1642.76
0.3467,0.6533	-1641.76
0.4007,0.5993	-1643.10
0.5500,0.4500	-1643.85
0.4309,0.5691	-1645.13
0.4420,0.5580	-1641.71
0.3659,0.6341	-1641.43
0.4057,0.5943	-1640.29
0.3986,0.6014	-1646.87
0.4868,0.5132	-1644.45
0.4431,0.5569	-1643.57
0.3905,0.6095	-1641.23
0.4099,0.5901	-1640.32
0.4519,0.5481	-1641.20
0.3872,0.6128	-1636.70
0.4366,0.5634	-1643.13
0.4277,0.5723	-1640.01
0.4344,0.5656	-1642.35
0.3906,0.6094	-1640.33
0.3946,0.6054	-1638.16
0.3439,0.6561	-1639.34
0.3795,0.6205	-1642.96
0.4436,0.5564	-1642.20
0.4468,0.5532	-1641.19
0.3551,0.6449	-1636.55
0.3927,0.6073	-1643.37
0.3443,0.6557	-1639.97
0.3924,0.6076	-1643.82
0.4385,0.5615	-1644.11
0.4734,0.5266	-1642.92
0.3309,0.6691	-1631.55
0.3852,0.6148	-1639.00
0.3556,0.6444	-1635.36
0.4328,0.5672	-1641.81
0.4739,0.5261	-1643.14
0.4394,0.5606	-1640.93
0.3656,0.6344	-1641.45
0.4407,0.5593	-1645.49
0.3692,0.6308	-1639.70
0.4453,0.5547	-1640.69
0.5036,0.4964	-1644.42
0.5016,0.4984	-1644.30
0.3704,0.6296	-1639.15
0.4201,0.5799	-1643.67
0.4082,0.5918	-1641.42
0.4363,0.5637	-1641.08
0.4829,0.5171	-1644.04
0.5071,0.4929	-1644.28
0.3890,0.6110	-1643.96
0.3739,0.6261	-1641.15
0.3597,0.6403	-1640.55
0.4028,0.5972	-1640.68
0.4825,0.5175	-1643.54
0.5190,0.4810	-1644.62
0.3910,0.6090	-1640.33
0.3742,0.6258	-1639.09
0.3873,0.6127	-1639.45
0.4401,0.5599	-1642.87
0.3991,0.6009	-1640.69
0.4976,0.5024	-1644.32
0.3975,0.6025	-1641.95
0.3964,0.6036	-1638.19
0.3894,0.6106	-1639.45
0.4344,0.5656	-1645.26
0.3663,0.6337	-1639.22
0.5026,0.4974	-1644.42
0.4036,0.5964	-1637.94
0.3918,0.6082	-1641.64
0.4111,0.5889	-1639.61
0.4283,0.5717	-1641.48
0.3642,0.6358	-1645.40
0.4489,0.5511	-1642.50
0.3964,0.6036	-1639.03
0.3931,0.6069	-1644.65
0.3982,0.6018	-1638.22
0.3950,0.6050	-1638.17
0.3442,0.6558	-1639.97
0.4655,0.5345	-1643.01
0.4328,0.5672	-1643.97
0.4522,0.5478	-1642.94
0.4099,0.5901	-1640.68
0.3731,0.6269	-1640.66
0.3542,0.6458	-1640.17
0.5061,0.4939	-1644.48
0.4310,0.5690	-1641.51
0.4534,0.5466	-1642.96
0.4953,0.5047	-1644.29
0.3977,0.6023	-1638.21
0.3320,0.6680	-1640.64
0.4690,0.5310	-1643.11
0.4472,0.5528	-1643.32
0.4858,0.5142	-1644.01
0.4415,0.5585	-1644.29
0.3745,0.6255	-1644.21
0.3734,0.6266	-1635.99
0.4297,0.5703	-1641.21
0.4598,0.5402	-1644.34
0.4444,0.5556	-1643.78
0.4494,0.5506	-1643.12
0.3866,0.6134	-1633.92
0.4269,0.5731	-1640.58
0.4862,0.5138	-1644.18
0.4803,0.5197	-1644.64
0.4449,0.5551	-1642.00
0.4402,0.5598	-1642.39
0.4170,0.5830	-1643.41
0.4136,0.5864	-1642.45
0.4243,0.5757	-1642.05
0.4141,0.5859	-1642.09
0.4754,0.5246	-1643.40
0.4730,0.5270	-1642.57
0.4321,0.5679	-1640.71
0.4043,0.5957	-1639.90
0.4165,0.5835	-1643.09
0.3942,0.6058	-1642.88
0.4209,0.5791	-1640.78
0.4457,0.5543	-1642.02
0.3871,0.6129	-1642.21
0.3501,0.6499	-1636.63
0.4884,0.5116	-1644.43
0.3966,0.6034	-1637.35
0.4195,0.5805	-1645.31
0.4289,0.5711	-1642.63
0.3987,0.6013	-1636.18
0.3476,0.6524	-1639.19
0.4406,0.5594	-1642.87
0.4054,0.5946	-1640.67
0.3824,0.6176	-1644.28
0.4129,0.5871	-1640.70
0.4017,0.5983	-1639.09
0.3177,0.6823	-1633.24
0.3824,0.6176	-1637.09
0.4182,0.5818	-1637.77
0.3893,0.6107	-1639.00
0.3914,0.6086	-1643.42
0.4200,0.5800	-1642.38
0.3408,0.6592	-1641.46
0.4164,0.5836	-1642.08
0.4435,0.5565	-1643.34
0.4259,0.5741	-1639.36
0.3771,0.6229	-1643.07
0.4133,0.5867	-1640.70
0.3853,0.6147	-1637.13
0.3724,0.6276	-1640.68
0.4505,0.5495	-1642.53
0.4037,0.5963	-1640.29
0.4014,0.5986	-1641.08
0.3600,0.6400	-1639.96
0.4338,0.5662	-1643.15
0.3608,0.6392	-1639.36
0.4862,0.5138	-1644.13
0.4031,0.5969	-1640.28
0.4275,0.5725	-1641.47
0.3407,0.6593	-1638.16
0.4108,0.5892	-1639.60
0.4370,0.5630	-1642.37
0.5037,0.4963	-1644.33
0.3905,0.6095	-1636.77
0.4776,0.5224	-1643.73
0.3253,0.6747	-1636.70
0.3837,0.6163	-1638.53
0.4163,0.5837	-1643.77
0.4805,0.5195	-1643.47
0.4098,0.5902	-1641.41
0.4573,0.5427	-1644.72
0.3401,0.6599	-1642.83
0.3803,0.6197	-1640.98
0.4405,0.5595	-1641.68
0.4400,0.5600	-1643.84
0.4343,0.5657	-1641.03
0.4573,0.5427	-1643.18
0.3732,0.6268	-1640.66
0.3960,0.6040	-1642.41
0.4259,0.5741	-1640.56
0.4730,0.5270	-1643.76
0.4456,0.5544	-1641.80
0.4632,0.5368	-1642.96
0.3955,0.6045	-1640.30
0.3609,0.6391	-1635.36
0.4534,0.5466	-1640.90
0.4821,0.5179	-1644.03
0.4094,0.5906	-1641.78
0.4385,0.5615	-1641.88
0.3878,0.6122	-1639.91
0.4235,0.5765	-1639.89
0.4039,0.5961	-1640.68
0.4549,0.5451	-1642.61
0.4268,0.5732	-1642.64
0.4479,0.5521	-1642.90
0.4358,0.5642	-1642.36
0.4069,0.5931	-1642.18
0.3516,0.6484	-1636.60
0.4398,0.5602	-1642.15
0.4146,0.5854	-1640.36
0.4306,0.5694	-1642.06
0.4825,0.5175	-1643.96
0.4055,0.5945	-1641.44
0.3830,0.6170	-1644.25
0.3808,0.6192	-1636.10
0.3774,0.6226	-1638.55
0.4304,0.5696	-1642.62
0.4590,0.5410	-1642.05
0.4545,0.5455	-1642.24
0.3730,0.6270	-1641.18
0.3471,0.6529	-1633.53
0.3862,0.6138	-1639.00
0.4483,0.5517	-1642.08
0.4470,0.5530	-1641.62
0.4385,0.5615	-1643.62
0.3556,0.6444	-1640.11
0.4040,0.5960	-1641.45
0.3711,0.6289	-1633.33
0.4784,0.5216	-1644.43
0.4724,0.5276	-1643.65
0.4000,0.6000	-1638.66
0.3957,0.6043	-1642.84
0.4334,0.5666	-1641.55
0.3963,0.6037	-1637.77
0.4793,0.5207	-1644.01
0.4236,0.5764	-1643.90
0.4118,0.5882	-1636.77
0.3878,0.6122	-1639.45
0.4290,0.5710	-1642.91
0.4125,0.5875	-1642.46
0.5328,0.4672	-1645.53
0.4446,0.5554	-1642.44
0.4465,0.5535	-1643.54
0.3951,0.6049	-1642.00
0.4210,0.5790	-1644.28
0.3947,0.6053	-1645.00
0.5839,0.4161	-1647.17
0.4772,0.5228	-1643.99
0.4735,0.5265	-1644.30
0.4076,0.5924	-1640.68
0.3994,0.6006	-1643.95
0.3842,0.6158	-1639.47
0.5616,0.4384	-1642.98
0.3990,0.6010	-1639.47
0.4444,0.5556	-1642.88
0.3957,0.6043	-1641.57
0.4628,0.5372	-1643.25
0.3736,0.6264	-1645.29
0.5209,0.4791	-1644.66
0.4254,0.5746	-1640.54
0.3960,0.6040	-1641.14
0.3556,0.6444	-1640.71
0.4615,0.5385	-1642.92
0.4045,0.5955	-1643.77
0.5310,0.4690	-1643.58
0.4345,0.5655	-1642.09
0.3685,0.6315	-1640.80
0.3700,0.6300	-1641.28
0.4652,0.5348	-1644.68
0.4663,0.5337	-1642.36
0.5058,0.4942	-1644.38
0.4436,0.5564	-1643.11
0.3850,0.6150	-1639.47
0.4294,0.5706	-1642.63
0.5256,0.4744	-1643.66
0.4553,0.5447	-1644.59
0.4952,0.5048	-1644.31
0.4311,0.5689	-1643.18
0.4120,0.5880	-1640.34
0.4769,0.5231	-1643.44
0.5322,0.4678	-1645.37
0.4575,0.5425	-1644.20
0.4456,0.5544	-1643.33
0.3955,0.6045	-1643.27
0.4480,0.5520	-1641.86
0.4698,0.5302	-1643.25
0.5321,0.4679	-1643.95
0.4469,0.5531	-1642.04
0.4287,0.5713	-1642.34
0.4217,0.5783	-1644.26
0.4904,0.5096	-1644.05
0.4797,0.5203	-1643.69
0.5388,0.4612	-1646.61
0.4562,0.5438	-1641.41
0.4264,0.5736	-1640.86
0.3906,0.6094	-1640.78
0.5171,0.4829	-1645.12
0.4672,0.5328	-1643.19
0.5463,0.4537	-1644.75
0.4249,0.5751	-1641.44
0.3799,0.6201	-1638.54
0.4388,0.5612	-1640.66
0.4746,0.5254	-1644.49
0.5030,0.4970	-1644.44
0.5194,0.4806	-1644.09
0.4522,0.5478	-1642.37
0.3802,0.6198	-1635.60
0.4269,0.5731	-1644.11
0.4418,0.5582	-1642.64
0.4764,0.5236	-1643.33
0.4593,0.5407	-1644.67
0.4787,0.5213	-1642.30
0.3825,0.6175	-1639.49
0.4375,0.5625	-1645.14
0.4003,0.5997	-1641.50
0.4846,0.5154	-1644.42
0.4913,0.5087	-1644.04
0.4146,0.5854	-1642.09
0.3554,0.6446	-1638.93
0.4990,0.5010	-1644.29
0.4636,0.5364	-1643.55
0.5390,0.4610	-1645.21
0.5507,0.4493	-1644.06
0.3986,0.6014	-1636.58
0.3980,0.6020	-1637.80
0.4968,0.5032	-1644.18
0.4815,0.5185	-1643.80
0.4736,0.5264	-1643.56
0.5396,0.4604	-1644.60
0.3669,0.6331	-1639.21
0.3923,0.6077	-1638.13
0.5103,0.4897	-1644.57
0.5520,0.4480	-1645.74
0.4644,0.5356	-1644.13
0.5069,0.4931	-1644.53
0.3863,0.6137	-1641.31
0.3964,0.6036	-1641.13
0.4576,0.5424	-1643.18
0.5085,0.4915	-1644.86
0.4309,0.5691	-1642.62
0.4997,0.5003	-1644.31
0.3772,0.6228	-1637.04
0.3385,0.6615	-1636.91
0.4420,0.5580	-1642.41
0.4535,0.5465	-1641.28
0.4635,0.5365	-1642.23
0.4453,0.5547	-1642.23
0.3838,0.6162	-1639.48
0.3929,0.6071	-1638.57
0.4841,0.5159	-1643.99
0.4816,0.5184	-1643.95
0.4265,0.5735	-1642.94
0.4583,0.5417	-1644.36
0.3558,0.6442	-1638.33
0.4019,0.5981	-1642.67
0.5037,0.4963	-1644.39
0.4666,0.5334	-1643.44
0.4510,0.5490	-1643.32
0.4937,0.5063	-1644.46
0.3876,0.6124	-1639.45
0.4565,0.5435	-1643.34
0.4197,0.5803	-1642.06
0.5013,0.4987	-1644.36
0.4567,0.5433	-1642.48
0.4429,0.5571	-1641.50
0.3290,0.6710	-1634.41
0.4709,0.5291	-1642.57
0.3797,0.6203	-1639.52
0.4738,0.5262	-1643.35
0.4403,0.5597	-1645.03
0.3657,0.6343	-1639.24
0.3492,0.6508	-1639.76
0.4255,0.5745	-1642.65
0.3703,0.6297	-1635.96
0.4832,0.5168	-1644.11
0.4397,0.5603	-1641.90
0.4087,0.5913	-1637.72
0.3328,0.6672	-1637.11
0.4289,0.5711	-1641.48
0.3648,0.6352	-1638.15
0.4814,0.5186	-1643.80
0.5179,0.4821	-1644.81
0.4392,0.5608	-1641.41
0.4075,0.5925	-1642.17
0.4430,0.5570	-1643.57
0.4424,0.5576	-1644.27
0.4829,0.5171	-1644.31
0.5460,0.4540	-1645.12
0.5119,0.4881	-1644.52
0.3831,0.6169	-1640.91
0.3855,0.6145	-1635.73
0.4357,0.5643	-1643.65
0.5072,0.4928	-1644.34
0.5494,0.4506	-1643.84
0.4988,0.5012	-1644.32
0.3817,0.6183	-1641.91
0.4148,0.5852	-1641.74
0.4360,0.5640	-1641.08
0.5409,0.4591	-1643.81
0.5196,0.4804	-1644.87
0.5096,0.4904	-1644.32
0.4193,0.5807	-1638.48
0.3671,0.6329	-1641.38
0.3925,0.6075	-1641.19
0.5146,0.4854	-1644.53
0.5260,0.4740	-1644.28
0.4585,0.5415	-1643.36
0.3954,0.6046	-1639.02
0.4419,0.5581	-1641.47
0.3954,0.6046	-1641.57
0.5162,0.4838	-1644.82
0.4232,0.5768	-1641.12
0.4122,0.5878	-1640.69
0.4222,0.5778	-1639.85
0.4696,0.5304	-1644.10
0.3471,0.6529	-1640.48
0.5500,0.4500	-1645.25
0.4025,0.5975	-1643.44
0.3989,0.6011	-1639.05
0.4510,0.5490	-1642.34
0.4203,0.5797	-1638.84
0.3619,0.6381	-1639.90
0.5692,0.4308	-1644.10
0.3954,0.6046	-1638.17
0.4184,0.5816	-1643.38
0.4902,0.5098	-1643.69
0.3792,0.6208	-1642.48
0.3729,0.6271	-1638.59
0.5325,0.4675	-1645.51
0.3842,0.6158	-1640.89
0.4324,0.5676	-1642.07
0.5020,0.4980	-1644.34
0.3486,0.6514	-1637.91
0.4251,0.5749	-1639.63
0.5527,0.4473	-1642.81
0.4164,0.5836	-1640.73
0.4104,0.5896	-1642.50
0.4450,0.5550	-1642.23
0.3383,0.6617	-1640.27
0.4417,0.5583	-1644.52
0.5134,0.4866	-1644.82
0.4202,0.5798	-1640.12
0.3779,0.6221	-1643.53
0.4357,0.5643	-1643.91
0.3688,0.6312	-1638.10
0.4253,0.5747	-1637.23
0.4752,0.5248	-1644.78
0.3844,0.6156	-1636.17
0.3617,0.6383	-1637.63
0.4197,0.5803	-1639.79
0.3745,0.6255	-1640.11
0.4506,0.5494	-1642.13
0.4518,0.5482	-1644.68
0.3924,0.6076	-1639.01
0.3335,0.6665	-1639.85
0.4306,0.5694	-1640.11
0.4075,0.5925	-1640.68
0.4314,0.5686	-1642.90
0.4572,0.5428	-1644.04
0.3871,0.6129	-1640.37
0.3713,0.6287	-1636.50
0.4086,0.5914	-1636.24
0.4176,0.5824	-1642.40
0.4580,0.5420	-1642.51
0.5004,0.4996	-1644.31
0.4187,0.5813	-1641.08
0.3515,0.6485	-1640.28
0.4017,0.5983	-1637.10
0.4242,0.5758	-1639.30
0.4272,0.5728	-1641.76
0.4863,0.5137	-1644.02
0.4069,0.5931	-1642.18
0.3840,0.6160	-1642.31
0.4269,0.5731	-1641.76
0.4409,0.5591	-1642.64
0.4171,0.5829	-1641.74
0.5442,0.4558	-1645.06
0.4143,0.5857	-1643.13
0.3717,0.6283	-1634.40
0.4168,0.5832	-1642.74
0.4556,0.5444	-1641.92
0.3926,0.6074	-1641.63
0.5132,0.4868	-1644.50
0.4332,0.5668	-1643.69
0.3304,0.6696	-1639.32
0.4713,0.5287	-1644.32
0.4484,0.5516	-1641.04
0.4029,0.5971	-1641.86
0.5107,0.4893	-1644.67
0.4192,0.5808	-1642.06
0.3347,0.6653	-1640.47
0.4861,0.5139	-1644.07
0.4128,0.5872	-1641.40
0.4237,0.5763	-1640.51
0.4794,0.5206	-1643.84
0.3933,0.6067	-1639.01
0.3871,0.6129	-1638.08
0.4666,0.5334	-1643.98
0.3970,0.6030	-1639.45
0.3997,0.6003	-1640.28
0.5225,0.4775	-1644.70
0.4326,0.5674	-1641.26
0.3495,0.6505	-1640.37
0.4325,0.5675	-1639.09
0.4029,0.5971	-1643.04
0.3949,0.6051	-1645.42
0.4601,0.5399	-1644.17
0.4609,0.5391	-1642.44
0.3968,0.6032	-1643.22
0.4805,0.5195	-1644.33
0.4217,0.5783	-1641.42
0.3543,0.6457	-1639.56
0.4791,0.5209	-1643.92
0.4465,0.5535	-1642.47
0.3692,0.6308	-1642.38
0.4650,0.5350	-1641.32
0.4146,0.5854	-1643.12
0.3680,0.6320	-1635.95
0.4587,0.5413	-1643.69
0.4607,0.5393	-1643.38
0.4119,0.5881	-1639.98
0.3885,0.6115	-1641.26
0.4034,0.5966	-1638.72
0.3532,0.6468	-1639.60
0.4613,0.5387	-1643.54
0.5499,0.4501	-1645.45
0.3961,0.6039	-1641.56
0.3660,0.6340	-1640.33
0.3467,0.6533	-1644.29
0.3389,0.6611	-1638.90
0.4740,0.5260	-1644.08
0.5952,0.4048	-1643.66
0.3762,0.6238	-1640.58
0.3716,0.6284	-1637.55
0.3518,0.6482	-1638.43
0.3180,0.6820	-1635.53
0.5125,0.4875	-1644.68
0.5335,0.4665	-1644.35
0.4080,0.5920	-1642.54
0.3971,0.6029	-1641.96
0.3731,0.6269	-1640.66
0.3513,0.6487	-1637.83
0.5079,0.4921	-1644.25
0.4559,0.5441	-1643.34
0.3585,0.6415	-1634.77
0.3873,0.6127	-1641.75
0.4202,0.5798	-1641.73
0.3616,0.6384	-1640.48
0.4767,0.5233	-1643.90
0.4853,0.5147	-1644.06
0.3743,0.6257	-1641.14
0.3578,0.6422	-1637.11
0.4015,0.5985	-1641.88
0.4158,0.5842	-1638.00
0.4885,0.5115	-1644.10
0.4857,0.5143	-1643.90
0.3922,0.6078	-1642.51
0.3728,0.6272	-1636.51
0.3547,0.6453	-1641.35
0.3765,0.6235	-1645.11
0.4837,0.5163	-1644.05
0.5497,0.4503	-1643.05
0.3687,0.6313	-1637.56
0.3942,0.6058	-1640.73
0.3649,0.6351	-1638.15
0.4206,0.5794	-1644.30
0.4902,0.5098	-1644.01
0.5398,0.4602	-1646.36
0.4176,0.5824	-1641.40
0.3967,0.6033	-1640.71
0.4119,0.5881	-1640.69
0.4513,0.5487	-1643.52
0.3972,0.6028	-1642.79
0.5051,0.4949	-1644.35
0.4886,0.5114	-1644.10
0.3961,0.6039	-1641.56
0.4327,0.5673	-1644.78
0.3931,0.6069	-1640.75
0.4290,0.5710	-1640.06
0.4840,0.5160	-1643.73
0.4724,0.5276	-1644.42
0.3788,0.6212	-1640.52
0.4430,0.5570	-1642.65
0.4162,0.5838	-1643.43
0.3967,0.6033	-1638.62
0.4292,0.5708	-1642.34
0.5274,0.4726	-1645.93
0.4066,0.5934	-1640.30
0.4032,0.5968	-1639.50
0.4248,0.5752	-1640.53
0.3470,0.6530	-1643.01
0.4180,0.5820	-1641.73
0.5081,0.4919	-1644.60
0.4657,0.5343	-1642.88
0.3320,0.6680	-1639.24
0.4042,0.5958	-1641.45
0.3620,0.6380	-1641.03
0.4110,0.5890	-1639.97
0.4968,0.5032	-1644.36
0.4704,0.5296	-1643.14
0.3740,0.6260	-1639.60
0.4085,0.5915	-1636.61
0.3915,0.6085	-1638.56
0.3944,0.6056	-1640.73
0.4863,0.5137	-1644.24
0.4266,0.5734	-1639.68
0.3842,0.6158	-1639.95
0.3915,0.6085	-1642.53
0.3312,0.6688	-1635.77
0.4233,0.5767	-1643.90
0.4944,0.5056	-1644.42
0.3985,0.6015	-1640.70
0.3818,0.6182	-1642.39
0.4460,0.5540	-1642.89
0.4056,0.5944	-1640.29
0.3995,0.6005	-1641.10
0.5256,0.4744	-1645.40
0.4391,0.5609	-1640.91
0.3710,0.6290	-1644.94
0.4044,0.5956	-1643.39
0.4221,0.5779	-1639.54
0.3848,0.6152	-1644.16
0.4973,0.5027	-1644.20
0.4250,0.5750	-1643.86
0.3815,0.6185	-1640.47
0.4743,0.5257	-1643.98
0.4141,0.5859	-1642.09
0.4260,0.5740	-1642.35
0.4505,0.5495	-1642.13
0.4448,0.5552	-1641.34
0.3824,0.6176	-1638.05
0.4777,0.5223	-1644.35
0.3930,0.6070	-1640.31
0.4432,0.5568	-1639.91
0.4955,0.5045	-1644.02
0.4069,0.5931	-1641.05
0.3717,0.6283	-1636.50
0.4209,0.5791	-1641.42
0.3818,0.6182	-1639.50
0.4777,0.5223	-1643.55
0.4462,0.5538	-1642.03
0.3842,0.6158	-1640.89
0.4057,0.5943	-1641.06
0.4615,0.5385	-1643.23
0.3773,0.6227	-1639.55
0.4451,0.5549	-1642.01
0.4402,0.5598	-1642.63
0.3755,0.6245	-1640.09
0.4089,0.5911	-1638.84
0.4781,0.5219	-1642.51
0.3800,0.6200	-1638.54
0.4425,0.5575	-1641.26
0.4533,0.5467	-1642.96
0.3876,0.6124	-1644.94
0.4230,0.5770	-1641.74
0.5143,0.4857	-1644.46
0.4094,0.5906	-1641.05
0.4418,0.5582	-1645.45
0.4008,0.5992	-1643.90
0.3968,0.6032	-1642.80
0.4038,0.5962	-1638.73
0.4716,0.5284	-1644.89
0.4269,0.5731	-1639.69
0.4326,0.5674	-1642.62
0.4269,0.5731	-1642.05
0.4583,0.5417	-1643.86
0.3858,0.6142	-1640.86
0.4615,0.5385	-1641.84
0.4558,0.5442	-1643.87
0.5326,0.4674	-1643.69
0.4243,0.5757	-1644.18
0.4904,0.5096	-1643.94
0.3631,0.6369	-1640.99
0.3972,0.6028	-1643.63
0.4586,0.5414	-1642.36
0.5233,0.4767	-1644.63
0.4303,0.5697	-1641.50
0.4508,0.5492	-1643.13
0.3769,0.6231	-1639.05
0.4084,0.5916	-1642.16
0.4983,0.5017	-1644.27
0.5477,0.4523	-1643.26
0.4133,0.5867	-1640.35
0.5094,0.4906	-1644.21
0.3850,0.6150	-1639.94
0.3798,0.6202	-1639.03
0.5028,0.4972	-1644.37
0.5410,0.4590	-1644.79
0.3914,0.6086	-1639.44
0.5053,0.4947	-1644.35
0.4719,0.5281	-1643.98
0.3740,0.6260	-1642.18
0.4848,0.5152	-1644.36
0.4571,0.5429	-1643.00
0.3909,0.6091	-1640.78
0.4715,0.5285	-1642.49
0.5134,0.4866	-1644.88
0.3873,0.6127	-1640.83
0.4718,0.5282	-1643.86
0.4521,0.5479	-1642.17
0.3802,0.6198	-1640.49
0.3867,0.6133	-1642.22
0.5202,0.4798	-1644.97
0.4324,0.5676	-1643.16
0.4372,0.5628	-1640.60
0.4335,0.5665	-1642.62
0.3574,0.6426	-1641.22
0.3696,0.6304	-1640.76
0.4504,0.5496	-1643.12
0.4368,0.5632	-1642.62
0.4457,0.5543	-1643.11
0.4574,0.5426	-1642.32
0.3373,0.6627	-1638.97
0.4185,0.5815	-1639.76
0.4463,0.5537	-1641.82
0.4159,0.5841	-1639.36
0.4212,0.5788	-1641.73
0.4638,0.5362	-1643.70
0.3326,0.6674	-1634.33
0.3936,0.6064	-1644.20
0.4659,0.5341	-1643.30
0.4550,0.5450	-1643.16
0.4042,0.5958	-1639.12
0.4089,0.5911	-1645.47
0.3059,0.6941	-1638.61
0.3869,0.6131	-1637.15
0.4990,0.5010	-1644.30
0.4683,0.5317	-1644.86
0.3970,0.6030	-1641.96
0.4151,0.5849	-1641.74
0.3225,0.6775	-1634.60
0.4075,0.5925	-1640.30
0.4908,0.5092	-1644.14
0.4155,0.5845	-1640.38
0.4024,0.5976	-1640.68
0.4320,0.5680	-1642.62
0.3114,0.6886	-1628.70
0.4249,0.5751	-1641.75
0.4133,0.5867	-1642.10
0.4292,0.5708	-1644.05
0.3580,0.6420	-1641.78
0.4363,0.5637	-1643.90
0.3170,0.6830	-1633.27
0.3893,0.6107	-1639.90
0.4049,0.5951	-1641.83
0.4618,0.5382	-1643.69
0.3629,0.6371	-1633.68
0.4312,0.5688	-1642.62
0.3415,0.6585	-1629.60
0.3247,0.6753	-1643.32
0.4285,0.5715	-1641.77
0.4155,0.5845	-1639.35
0.3350,0.6650	-1634.28
0.4189,0.5811	-1643.37
0.3811,0.6189	-1637.56
0.3241,0.6759	-1638.96
0.4212,0.5788	-1644.28
0.4539,0.5461	-1643.89
0.3387,0.6613	-1639.58
0.4756,0.5244	-1643.01
0.3749,0.6251	-1642.14
0.3218,0.6782	-1638.35
0.4150,0.5850	-1644.49
0.4804,0.5196	-1644.17
0.3514,0.6486	-1645.80
0.5059,0.4941	-1644.26
0.3423,0.6577	-1643.99
0.3225,0.6775	-1638.31
0.3936,0.6064	-1640.31
0.4490,0.5510	-1642.30
0.3474,0.6526	-1637.94
0.5131,0.4869	-1644.13
0.3800,0.6200	-1640.98
0.3588,0.6412	-1637.68
0.4286,0.5714	-1641.48
0.3383,0.6617	-1638.93
0.3353,0.6647	-1638.38
0.4394,0.5606	-1641.90
0.4249,0.5751	-1642.35
0.3496,0.6504	-1636.64
0.4215,0.5785	-1642.37
0.3420,0.6580	-1635.50
0.4088,0.5912	-1640.68
0.4583,0.5417	-1642.85
0.4470,0.5530	-1643.11
0.3564,0.6436	-1633.58
0.4079,0.5921	-1640.30
0.3303,0.6697	-1640.74
0.3760,0.6240	-1639.57
0.4445,0.5555	-1641.10
0.4546,0.5454	-1644.25
0.4009,0.5991	-1644.30
0.4799,0.5201	-1643.77
0.3329,0.6671	-1642.67
0.4291,0.5709	-1640.63
0.4005,0.5995	-1643.11
0.3977,0.6023	-1638.21
0.3896,0.6104	-1643.49
0.4755,0.5245	-1643.69
0.4057,0.5943	-1637.24
0.4048,0.5952	-1642.99
0.4689,0.5311	-1642.11
0.3673,0.6327	-1644.10
0.4133,0.5867	-1641.75
0.4290,0.5710	-1640.05
0.4196,0.5804	-1641.73
0.4311,0.5689	-1640.96
0.4042,0.5958	-1641.84
0.3522,0.6478	-1637.20
0.4099,0.5901	-1642.14
0.4334,0.5666	-1638.33
0.4219,0.5781	-1644.57
0.4187,0.5813	-1642.06
0.3832,0.6168	-1641.39
0.3774,0.6226	-1640.05
0.4494,0.5506	-1641.90
0.4198,0.5802	-1640.76
0.4342,0.5658	-1642.62
0.3900,0.6100	-1646.16
0.3685,0.6315	-1639.18
0.3837,0.6163	-1643.74
0.4125,0.5875	-1641.40
0.4370,0.5630	-1642.37
0.4160,0.5840	-1637.67
0.3966,0.6034	-1643.65
0.3929,0.6071	-1643.80
0.4128,0.5872	-1640.34
0.3997,0.6003	-1638.66
0.4054,0.5946	-1642.59
0.4471,0.5529	-1643.11
0.3913,0.6087	-1642.10
0.4100,0.5900	-1643.23
0.3719,0.6281	-1638.60
0.4364,0.5636	-1640.83
0.3859,0.6141	-1639.00
0.4278,0.5722	-1640.89
0.3719,0.6281	-1642.26
0.4404,0.5596	-1640.96
0.3719,0.6281	-1639.64
0.4185,0.5815	-1643.38
0.3924,0.6076	-1636.82
0.4225,0.5775	-1641.42
0.4065,0.5935	-1641.81
0.4199,0.5801	-1641.73
0.3980,0.6020	-1644.84
0.4369,0.5631	-1641.86
0.4196,0.5804	-1641.41
0.4144,0.5856	-1643.82
0.3792,0.6208	-1641.00
0.4077,0.5923	-1641.05
0.3819,0.6181	-1634.68
0.4220,0.5780	-1641.11
0.4694,0.5306	-1643.36
0.4175,0.5825	-1645.07
0.3656,0.6344	-1639.79
0.3818,0.6182	-1640.46
0.3672,0.6328	-1643.56
0.4504,0.5496	-1642.13
0.4962,0.5038	-1644.40
0.3569,0.6431	-1640.66
0.3831,0.6169	-1639.01
0.4074,0.5926	-1644.05
0.3817,0.6183	-1634.67
0.4340,0.5660	-1642.62
0.5001,0.4999	-1644.31
0.3790,0.6210	-1636.07
0.4231,0.5769	-1642.98
0.3945,0.6055	-1638.16
0.3742,0.6258	-1640.63
0.4196,0.5804	-1645.30
0.5361,0.4639	-1646.13
0.3525,0.6475	-1637.80
0.4094,0.5906	-1640.31
0.3560,0.6440	-1637.73
0.4051,0.5949	-1639.91
0.4070,0.5930	-1639.55
0.5274,0.4726	-1644.51
0.3266,0.6734	-1643.88
0.4385,0.5615	-1642.63
0.3520,0.6480	-1644.53
0.4478,0.5522	-1643.53
0.3889,0.6111	-1639.45
0.6012,0.3988	-1642.17
0.3449,0.6551	-1630.32
0.3911,0.6089	-1639.44
0.3930,0.6070	-1638.57
0.4694,0.5306	-1644.46
0.4095,0.5905	-1640.31
0.5968,0.4032	-1642.52
0.3415,0.6585	-1636.82
0.4323,0.5677	-1643.71
0.4180,0.5820	-1641.73
0.4763,0.5237	-1643.70
0.4253,0.5747	-1643.25
0.6258,0.3742	-1644.66
0.3715,0.6285	-1633.87
0.5017,0.4983	-1644.39
0.4081,0.5919	-1638.44
0.5061,0.4939	-1644.45
0.3619,0.6381	-1638.20
0.6789,0.3211	-1640.30
0.3960,0.6040	-1639.45
0.5285,0.4715	-1644.53
0.3738,0.6262	-1643.22
0.5264,0.4736	-1645.23
0.3601,0.6399	-1638.81
0.6501,0.3499	-1645.24
0.4760,0.5240	-1643.12
0.4926,0.5074	-1644.05
0.4088,0.5912	-1638.10
0.4530,0.5470	-1644.46
0.3512,0.6488	-1640.90
0.6363,0.3637	-1646.81
0.4558,0.5442	-1642.28
0.5001,0.4999	-1644.31
0.4439,0.5561	-1642.43
0.4178,0.5822	-1641.07
0.3697,0.6303	-1641.29
0.6142,0.3858	-1647.00
0.4283,0.5717	-1640.90
0.4408,0.5592	-1644.30
0.4405,0.5595	-1643.35
0.4269,0.5731	-1644.11
0.4793,0.5207	-1643.01
0.5612,0.4388	-1645.93
0.4884,0.5116	-1644.01
0.4237,0.5763	-1640.51
0.4411,0.5589	-1641.93
0.4480,0.5520	-1644.37
0.4194,0.5806	-1641.73
0.5705,0.4295	-1645.83
0.4853,0.5147	-1644.24
0.4342,0.5658	-1643.41
0.4244,0.5756	-1644.18
0.4348,0.5652	-1643.14
0.4232,0.5768	-1642.05
0.5779,0.4221	-1643.98
0.5363,0.4637	-1645.99
0.4195,0.5805	-1643.36
0.4247,0.5753	-1644.17
0.3864,0.6136	-1639.92
0.3954,0.6046	-1637.32
0.5605,0.4395	-1645.17
0.4917,0.5083	-1644.25
0.4057,0.5943	-1638.38
0.3738,0.6262	-1641.67
0.4276,0.5724	-1642.05
0.4508,0.5492	-1640.36
0.5563,0.4437	-1648.88
0.5221,0.4779	-1643.63
0.4614,0.5386	-1643.38
0.4012,0.5988	-1645.89
0.4181,0.5819	-1644.71
0.4637,0.5363	-1644.13
0.5489,0.4511	-1644.23
0.5046,0.4954	-1644.41
0.4857,0.5143	-1644.30
0.4019,0.5981	-1639.89
0.4497,0.5503	-1642.72
0.4765,0.5235	-1643.24
0.5240,0.4760	-1644.74
0.4857,0.5143	-1644.52
0.4340,0.5660	-1642.62
0.3817,0.6183	-1639.01
0.3685,0.6315	-1635.41
0.4623,0.5377	-1642.49
0.5235,0.4765	-1645.10
0.4922,0.5078	-1644.25
0.4047,0.5953	-1641.06
0.3621,0.6379	-1636.49
0.3586,0.6414	-1638.26
0.4914,0.5086	-1644.11
0.5110,0.4890	-1644.85
0.4561,0.5439	-1643.52
0.4247,0.5753	-1639.32
0.3684,0.6316	-1639.72
0.3618,0.6382	-1637.63
0.4864,0.5136	-1643.64
0.4928,0.5072	-1644.08
0.4087,0.5913	-1639.57
0.3702,0.6298	-1640.21
0.3943,0.6057	-1639.87
0.3741,0.6259	-1640.12
0.4360,0.5640	-1640.56
0.5378,0.4622	-1645.02
0.4348,0.5652	-1641.04
0.4345,0.5655	-1641.04
0.3854,0.6146	-1636.66
0.4225,0.5775	-1641.42
0.4740,0.5260	-1643.98
0.4931,0.5069	-1644.17
0.4530,0.5470	-1644.84
0.4390,0.5610	-1641.16
0.3857,0.6143	-1640.86
0.4450,0.5550	-1641.34
0.4156,0.5844	-1645.15
0.4694,0.5306	-1643.12
0.4204,0.5796	-1643.34
0.4257,0.5743	-1639.65
0.3957,0.6043	-1640.30
0.4393,0.5607	-1644.09
0.4046,0.5954	-1645.31
0.4049,0.5951	-1639.13
0.3902,0.6098	-1641.23
0.3818,0.6182	-1639.01
0.4206,0.5794	-1640.13
0.3689,0.6311	-1633.26
0.3473,0.6527	-1642.99
0.4122,0.5878	-1642.82
0.3920,0.6080	-1638.57
0.4022,0.5978	-1642.26
0.3905,0.6095	-1641.23
0.4061,0.5939	-1641.43
0.3628,0.6372	-1638.18
0.4371,0.5629	-1644.90
0.4490,0.5510	-1643.32
0.3751,0.6249	-1642.14
0.3889,0.6111	-1641.26
0.4238,0.5762	-1639.59
0.3773,0.6227	-1639.05
0.4397,0.5603	-1640.69
0.4238,0.5762	-1642.66
0.4153,0.5847	-1639.69
0.4122,0.5878	-1643.53
0.4364,0.5636	-1641.09
0.3734,0.6266	-1635.47
0.4115,0.5885	-1639.97
0.4033,0.5967	-1641.85
0.3676,0.6324	-1637.03
0.4307,0.5693	-1641.23
0.4480,0.5520	-1641.45
0.3750,0.6250	-1640.10
0.3609,0.6391	-1641.64
0.4044,0.5956	-1642.22
0.4129,0.5871	-1640.70
0.4078,0.5922	-1643.29
0.4808,0.5192	-1643.94
0.3728,0.6272	-1643.79
0.3269,0.6731	-1638.08
0.4485,0.5515	-1644.15
0.4324,0.5676	-1642.35
0.4127,0.5873	-1641.05
0.4761,0.5239	-1643.89
0.4326,0.5674	-1642.62
0.3783,0.6217	-1641.52
0.4391,0.5609	-1642.63
0.4724,0.5276	-1642.43
0.4073,0.5927	-1643.30
0.4556,0.5444	-1643.16
0.4258,0.5742	-1640.85
0.3417,0.6583	-1642.72
0.4111,0.5889	-1642.12
0.4504,0.5496	-1642.93
0.4194,0.5806	-1640.43
0.4094,0.5906	-1642.51
0.4473,0.5527	-1640.15
0.4082,0.5918	-1642.16
0.4023,0.5977	-1644.24
0.4712,0.5288	-1643.86
0.4236,0.5764	-1639.59
0.4296,0.5704	-1644.04
0.3990,0.6010	-1644.79
0.4331,0.5669	-1643.97
0.4463,0.5537	-1644.19
0.4432,0.5568	-1643.11
0.4583,0.5417	-1644.03
0.4277,0.5723	-1641.47
0.4560,0.5440	-1642.81
0.4730,0.5270	-1644.30
0.3999,0.6001	-1640.69
0.4185,0.5815	-1641.73
0.4403,0.5597	-1643.59
0.3994,0.6006	-1639.47
0.4454,0.5546	-1643.33
0.4388,0.5612	-1641.64
0.4421,0.5579	-1642.18
0.4652,0.5348	-1643.42
0.4620,0.5380	-1644.45
0.4395,0.5605	-1642.63
0.5040,0.4960	-1644.34
0.4690,0.5310	-1642.98
0.4755,0.5245	-1643.89
0.4576,0.5424	-1642.84
0.4701,0.5299	-1644.09
0.4448,0.5552	-1641.33
0.4721,0.5279	-1644.20
0.4554,0.5446	-1643.70
0.4744,0.5256	-1642.96
0.4376,0.5624	-1642.87
0.4295,0.5705	-1643.48
0.4875,0.5125	-1644.44
0.4152,0.5848	-1640.71
0.4947,0.5053	-1644.18
0.5015,0.4985	-1644.35
0.4307,0.5693	-1644.30
0.4183,0.5817	-1638.44
0.5272,0.4728	-1645.05
0.4130,0.5870	-1642.10
0.4488,0.5512	-1642.50
0.4823,0.5177	-1643.89
0.3799,0.6201	-1640.50
0.4542,0.5458	-1643.33
0.5269,0.4731	-1646.01
0.4187,0.5813	-1641.41
0.4558,0.5442	-1641.92
0.5049,0.4951	-1644.50
0.4045,0.5955	-1642.61
0.4465,0.5535	-1643.11
0.4895,0.5105	-1643.91
0.4329,0.5671	-1642.89
0.4666,0.5334	-1644.92
0.4777,0.5223	-1643.73
0.3614,0.6386	-1633.65
0.4637,0.5363	-1644.28
0.4546,0.5454	-1643.70
0.4558,0.5442	-1642.28
0.4849,0.5151	-1643.70
0.4578,0.5422	-1643.52
0.3856,0.6144	-1638.07
0.4199,0.5801	-1641.09
0.4291,0.5709	-1643.48
0.4557,0.5443	-1643.34
0.4914,0.5086	-1644.01
0.4486,0.5514	-1643.12
0.3878,0.6122	-1643.11
0.4150,0.5850	-1640.37
0.4166,0.5834	-1640.39
0.4300,0.5700	-1640.37
0.4467,0.5533	-1643.11
0.4662,0.5338	-1642.22
0.3589,0.6411	-1639.99
0.4024,0.5976	-1640.28
0.4479,0.5521	-1644.16
0.4713,0.5287	-1642.94
0.4009,0.5991	-1638.68
0.4913,0.5087	-1644.18
0.3862,0.6138	-1642.24
0.3866,0.6134	-1647.31
0.4806,0.5194	-1644.41
0.4504,0.5496	-1644.92
0.4231,0.5769	-1640.19
0.4893,0.5107	-1643.98
0.3665,0.6335	-1636.48
0.4089,0.5911	-1639.21
0.4936,0.5064	-1644.31
0.3940,0.6060	-1637.72
0.4257,0.5743	-1643.55
0.4789,0.5211	-1644.09
0.3744,0.6256	-1640.62
0.4287,0.5713	-1642.63
0.5276,0.4724	-1644.95
0.3768,0.6232	-1644.59
0.4745,0.5255	-1643.98
0.4901,0.5099	-1644.05
0.3816,0.6184	-1637.57
0.4114,0.5886	-1644.27
0.4759,0.5241	-1644.57
0.3436,0.6564	-1641.30
0.4458,0.5542	-1644.63
0.4815,0.5185	-1643.14
0.4172,0.5828	-1642.07
0.4674,0.5326	-1643.72
0.4878,0.5122	-1644.14
0.3377,0.6623	-1638.96
0.4188,0.5812	-1640.75
0.4772,0.5228	-1643.36
0.3492,0.6508	-1639.76
0.4950,0.5050	-1644.23
0.4404,0.5596	-1643.11
0.3120,0.6880	-1634.23
0.5046,0.4954	-1644.42
0.5127,0.4873	-1644.79
0.3811,0.6189	-1640.96
0.4474,0.5526	-1641.00
0.4902,0.5098	-1644.09
0.3444,0.6556	-1637.39
0.5134,0.4866	-1644.13
0.4502,0.5498	-1643.12
0.4302,0.5698	-1642.62
0.4798,0.5202	-1643.85
0.4982,0.5018	-1644.18
0.3141,0.6859	-1641.95
0.5039,0.4961	-1644.38
0.4499,0.5501	-1641.71
0.4519,0.5481	-1644.68
0.4287,0.5713	-1641.48
0.4813,0.5187	-1643.95
0.3495,0.6505	-1635.40
0.4479,0.5521	-1641.23
0.4022,0.5978	-1641.47
0.4308,0.5692	-1644.57
0.4319,0.5681	-1641.80
0.4476,0.5524	-1643.11
0.3733,0.6267	-1637.54
0.4780,0.5220	-1643.91
0.3964,0.6036	-1637.35
0.4523,0.5477	-1643.71
0.3933,0.6067	-1641.18
0.4328,0.5672	-1643.70
0.3748,0.6252	-1643.17
0.5285,0.4715	-1645.10
0.3607,0.6393	-1637.07
0.4355,0.5645	-1641.06
0.4027,0.5973	-1644.62
0.4806,0.5194	-1643.71
0.3390,0.6610	-1639.56
0.4860,0.5140	-1644.35
0.3729,0.6271	-1646.38
0.4465,0.5535	-1645.04
0.4041,0.5959	-1642.23
0.5202,0.4798	-1644.73
0.3394,0.6606	-1639.55
0.5338,0.4662	-1645.03
0.4017,0.5983	-1643.07
0.4714,0.5286	-1642.83
0.4396,0.5604	-1641.90
0.5300,0.4700	-1644.19
0.3547,0.6453	-1639.55
0.4848,0.5152	-1643.63
0.4276,0.5724	-1642.05
0.4555,0.5445	-1643.52
0.4124,0.5876	-1641.05
0.4642,0.5358	-1641.69
0.3668,0.6332	-1639.21
0.4510,0.5490	-1641.95
0.4258,0.5742	-1642.35
0.4577,0.5423	-1643.18
0.4681,0.5319	-1643.98
0.4602,0.5398	-1643.85
0.3492,0.6508	-1642.25
0.4684,0.5316	-1642.45
0.4568,0.5432	-1645.08
0.4322,0.5678	-1640.71
0.4723,0.5277	-1643.64
0.3906,0.6094	-1643.45
0.3523,0.6477	-1641.46
0.5011,0.4989	-1644.33
0.5071,0.4929	-1644.65
0.4451,0.5549	-1640.90
0.4326,0.5674	-1639.91
0.3704,0.6296	-1638.61
0.3605,0.6395	-1635.36
0.4428,0.5572	-1641.96
0.4443,0.5557	-1643.78
0.4449,0.5551	-1642.00
0.4576,0.5424	-1643.35
0.4029,0.5971	-1639.50
0.4326,0.5674	-1639.36
0.4457,0.5543	-1642.89
0.4271,0.5729	-1641.76
0.4527,0.5473	-1643.71
0.4347,0.5653	-1643.14
0.3893,0.6107	-1643.50
0.4395,0.5605	-1640.44
0.4175,0.5825	-1643.73
0.4114,0.5886	-1641.76
0.4476,0.5524	-1642.48
0.4177,0.5823	-1641.40
0.3811,0.6189	-1640.47
0.4225,0.5775	-1641.74
0.3908,0.6092	-1642.11
0.3783,0.6217	-1636.56
0.4344,0.5656	-1641.83
0.4155,0.5845	-1642.08
0.3548,0.6452	-1639.55
0.4014,0.5986	-1643.08
0.3503,0.6497	-1641.57
0.3783,0.6217	-1645.99
0.4599,0.5401	-1642.89
0.4746,0.5254	-1643.58
0.3616,0.6384	-1640.48
0.4526,0.5474	-1643.14
0.3865,0.6135	-1642.23
0.4158,0.5842	-1636.98
0.4139,0.5861	-1641.05
0.4704,0.5296	-1644.21
0.3157,0.6843	-1635.63
0.4873,0.5127	-1644.19
0.3587,0.6413	-1634.77
0.4114,0.5886	-1644.63
0.3859,0.6141	-1643.18
0.4487,0.5513	-1642.50
0.3455,0.6545	-1643.11
0.4647,0.5353	-1642.99
0.3759,0.6241	-1640.59
0.4284,0.5716	-1642.05
0.4238,0.5762	-1646.04
0.3734,0.6266	-1641.68
0.3799,0.6201	-1640.50
0.4969,0.5031	-1644.19
0.3341,0.6659	-1641.89
0.4303,0.5697	-1641.22
0.4487,0.5513	-1641.27
0.4296,0.5704	-1640.08
0.4090,0.5910	-1638.10
0.4827,0.5173	-1643.55
0.3615,0.6385	-1639.91
0.4701,0.5299	-1644.21
0.4446,0.5554	-1642.22
0.4971,0.5029	-1644.19
0.3935,0.6065	-1642.04
0.5520,0.4480	-1643.86
0.3480,0.6520	-1641.06
0.4932,0.5068	-1644.20
0.3980,0.6020	-1643.18
0.5024,0.4976	-1644.43
0.3819,0.6181	-1639.01
0.5108,0.4892	-1644.37
0.2980,0.7020	-1643.53
0.5015,0.4985	-1644.43
0.4136,0.5864	-1642.45
0.4753,0.5247	-1644.78
0.3628,0.6372	-1634.80
0.4877,0.5123	-1644.39
0.2932,0.7068	-1634.41
0.4742,0.5258	-1644.39
0.4357,0.5643	-1639.77
0.4998,0.5002	-1644.30
0.4257,0.5743	-1644.44
0.4852,0.5148	-1644.36
0.3393,0.6607	-1640.22
0.4800,0.5200	-1644.09
0.4584,0.5416	-1644.36
0.5036,0.4964	-1644.46
0.4831,0.5169	-1643.97
0.4041,0.5959	-1640.67
0.3751,0.6249	-1639.59
0.4389,0.5611	-1643.12
0.4723,0.5277	-1643.75
0.4959,0.5041	-1644.26
0.4741,0.5259	-1645.54
0.4130,0.5870	-1640.35
0.3741,0.6259	-1639.60
0.4353,0.5647	-1642.88
0.4568,0.5432	-1643.52
0.4359,0.5641	-1643.13
0.4893,0.5107	-1644.50
0.3792,0.6208	-1642.98
0.3960,0.6040	-1639.45
0.3974,0.6026	-1641.95
0.4448,0.5552	-1641.11
0.4348,0.5652	-1642.88
0.4592,0.5408	-1642.55
0.3968,0.6032	-1642.80
0.3745,0.6255	-1641.13
0.4309,0.5691	-1641.23
0.4290,0.5710	-1642.34
0.4781,0.5219	-1643.12
0.5090,0.4910	-1644.24
0.4411,0.5589	-1640.27
0.3671,0.6329	-1637.57
0.4746,0.5254	-1643.58
0.3795,0.6205	-1639.03
0.4492,0.5508	-1642.91
0.5168,0.4832	-1644.70
0.4566,0.5434	-1642.82
0.3624,0.6376	-1635.93
0.4594,0.5406	-1643.69
0.3448,0.6552	-1636.74
0.3937,0.6063	-1638.58
0.5312,0.4688	-1645.45
0.4366,0.5634	-1643.13
0.4047,0.5953	-1641.45
0.4565,0.5435	-1643.87
0.3996,0.6004	-1641.10
0.3897,0.6103	-1637.65
0.5191,0.4809	-1644.47
0.4215,0.5785	-1636.35
0.4026,0.5974	-1639.89
0.4564,0.5436	-1642.82
0.4208,0.5792	-1644.61
0.4175,0.5825	-1640.40
0.4809,0.5191	-1644.02
0.4327,0.5673	-1642.89
0.4267,0.5733	-1641.46
0.4919,0.5081	-1644.02
0.4133,0.5867	-1643.15
0.4217,0.5783	-1642.37
0.4600,0.5400	-1643.37
0.4360,0.5640	-1641.85
0.4607,0.5393	-1643.22
