#isoforms=['ENSG00000186575.SE.4.A.up_ENSG00000186575.SE.4.A.SE1_ENSG00000186575.SE.4.A.dn','ENSG00000186575.SE.4.B.up_ENSG00000186575.SE.4.B.dn']	exon_lens=('ENSG00000186575.SE.4.A.up',128),('ENSG00000186575.SE.4.A.SE1',163),('ENSG00000186575.SE.4.A.dn',3847),('ENSG00000186575.SE.4.B.up',128),('ENSG00000186575.SE.4.B.dn',194)	iters=5000	burn_in=500	lag=10	percent_accept=95.98	proposal_type=drift	counts=(0,0):431,(1,0):5346,(1,1):193	assigned_counts=0:5538,1:1	chrom=chr22	strand=+	mRNA_starts=29678196,29678196	mRNA_ends=29698598,29694945
sampled_psi	log_score
0.9775,0.0225	-46040.78
0.9780,0.0220	-46067.24
0.9741,0.0259	-46041.55
0.9782,0.0218	-46036.85
0.9825,0.0175	-46047.89
0.9865,0.0135	-46043.55
0.9768,0.0232	-46044.67
0.9770,0.0230	-46033.38
0.9723,0.0277	-46073.98
0.9790,0.0210	-46040.49
0.9784,0.0216	-46036.79
0.9868,0.0132	-46047.85
0.9793,0.0207	-46067.42
0.9805,0.0195	-46032.36
0.9717,0.0283	-46042.10
0.9778,0.0222	-46044.51
0.9780,0.0220	-46044.47
0.9869,0.0131	-46043.53
0.9804,0.0196	-46032.37
0.9844,0.0156	-46035.38
0.9702,0.0298	-46045.94
0.9787,0.0213	-46040.53
0.9794,0.0206	-46036.53
0.9879,0.0121	-46039.12
0.9784,0.0216	-46055.85
0.9838,0.0162	-46047.83
0.9755,0.0245	-46044.91
0.9810,0.0190	-46036.16
0.9779,0.0221	-46048.28
0.9866,0.0134	-46034.95
0.9809,0.0191	-46044.05
0.9867,0.0133	-46039.24
0.9796,0.0204	-46044.23
0.9821,0.0179	-46035.90
0.9766,0.0234	-46059.64
0.9800,0.0200	-46040.28
0.9734,0.0266	-46056.09
0.9886,0.0114	-46034.59
0.9829,0.0171	-46039.77
0.9855,0.0145	-46039.37
0.9756,0.0244	-46052.27
0.9845,0.0155	-46031.21
0.9732,0.0268	-46052.52
0.9899,0.0101	-46029.80
0.9799,0.0201	-46059.74
0.9854,0.0146	-46030.97
0.9787,0.0213	-46048.19
0.9858,0.0142	-46035.10
0.9754,0.0246	-46037.55
0.9908,0.0092	-46029.60
0.9740,0.0260	-46045.19
0.9883,0.0117	-46039.08
0.9829,0.0171	-46051.92
0.9814,0.0186	-46044.00
0.9793,0.0207	-46051.99
0.9922,0.0078	-46038.99
0.9724,0.0276	-46052.62
0.9889,0.0111	-46039.04
0.9837,0.0163	-46043.73
0.9794,0.0206	-46044.26
0.9816,0.0184	-46039.99
0.9923,0.0077	-46029.28
0.9732,0.0268	-46041.74
0.9878,0.0122	-46039.12
0.9898,0.0102	-46034.41
0.9774,0.0226	-46040.81
0.9833,0.0167	-46043.77
0.9937,0.0063	-46029.00
0.9694,0.0306	-46059.94
0.9895,0.0105	-46029.91
0.9902,0.0098	-46043.59
0.9782,0.0218	-46040.64
0.9822,0.0178	-46047.90
0.9916,0.0084	-46034.20
0.9632,0.0368	-46057.35
0.9880,0.0120	-46039.10
0.9906,0.0094	-46029.66
0.9760,0.0240	-46041.11
0.9860,0.0140	-46035.06
0.9923,0.0077	-46034.13
0.9648,0.0352	-46063.73
0.9871,0.0129	-46034.84
0.9926,0.0074	-46024.31
0.9760,0.0240	-46041.11
0.9836,0.0164	-46039.66
0.9909,0.0091	-46024.87
0.9685,0.0315	-46049.75
0.9906,0.0094	-46034.30
0.9929,0.0071	-46029.16
0.9796,0.0204	-46040.36
0.9838,0.0162	-46027.30
0.9894,0.0106	-46029.93
0.9687,0.0313	-46056.57
0.9919,0.0081	-46024.54
0.9918,0.0082	-46029.39
0.9859,0.0141	-46035.09
0.9864,0.0136	-46043.55
0.9931,0.0069	-46034.09
0.9706,0.0294	-46066.85
0.9922,0.0078	-46038.99
0.9926,0.0074	-46024.33
0.9855,0.0145	-46030.94
0.9859,0.0141	-46039.33
0.9937,0.0063	-46029.01
0.9694,0.0306	-46042.66
0.9903,0.0097	-46038.97
0.9934,0.0066	-46039.09
0.9865,0.0135	-46030.67
0.9851,0.0149	-46035.23
0.9926,0.0074	-46039.01
0.9729,0.0271	-46045.39
0.9920,0.0080	-46029.35
0.9939,0.0061	-46034.07
0.9886,0.0114	-46034.59
0.9812,0.0188	-46047.97
0.9908,0.0092	-46029.61
0.9823,0.0177	-46027.80
0.9938,0.0062	-46023.91
0.9938,0.0062	-46023.91
0.9906,0.0094	-46029.64
0.9833,0.0167	-46047.85
0.9920,0.0080	-46029.35
0.9838,0.0162	-46039.63
0.9931,0.0069	-46024.16
0.9929,0.0071	-46024.22
0.9894,0.0106	-46025.41
0.9824,0.0176	-46043.87
0.9940,0.0060	-46023.86
0.9854,0.0146	-46035.18
0.9939,0.0061	-46034.07
0.9937,0.0063	-46034.07
0.9865,0.0135	-46034.97
0.9811,0.0189	-46044.02
0.9908,0.0092	-46024.93
0.9823,0.0177	-46051.91
0.9959,0.0041	-46028.70
0.9932,0.0068	-46029.09
0.9866,0.0134	-46034.94
0.9815,0.0185	-46032.05
0.9915,0.0085	-46029.44
0.9810,0.0190	-46055.87
0.9966,0.0034	-46028.66
0.9933,0.0067	-46034.08
0.9887,0.0113	-46030.12
0.9795,0.0205	-46044.25
0.9903,0.0097	-46029.73
0.9789,0.0211	-46036.67
0.9949,0.0051	-46034.09
0.9923,0.0077	-46024.41
0.9917,0.0083	-46034.19
0.9829,0.0171	-46047.87
0.9913,0.0087	-46024.76
0.9796,0.0204	-46048.10
0.9937,0.0063	-46039.13
0.9932,0.0068	-46024.11
0.9928,0.0072	-46029.17
0.9856,0.0144	-46052.04
0.9909,0.0091	-46024.89
0.9771,0.0229	-46059.64
0.9915,0.0085	-46038.96
0.9931,0.0069	-46039.06
0.9937,0.0063	-46023.95
0.9879,0.0121	-46034.71
0.9885,0.0115	-46034.61
0.9795,0.0205	-46032.64
0.9914,0.0086	-46034.22
0.9938,0.0062	-46028.98
0.9935,0.0065	-46029.04
0.9836,0.0164	-46035.56
0.9908,0.0092	-46038.96
0.9824,0.0176	-46035.84
0.9899,0.0101	-46029.82
0.9934,0.0066	-46024.05
0.9933,0.0067	-46034.08
0.9862,0.0138	-46047.83
0.9914,0.0086	-46034.21
0.9810,0.0190	-46044.04
0.9897,0.0103	-46029.86
0.9942,0.0058	-46023.77
0.9931,0.0069	-46024.15
0.9863,0.0137	-46047.83
0.9930,0.0070	-46029.13
0.9813,0.0187	-46040.05
0.9873,0.0127	-46034.81
0.9956,0.0044	-46028.74
0.9924,0.0076	-46029.26
0.9881,0.0119	-46030.26
0.9928,0.0072	-46029.17
0.9841,0.0159	-46043.70
0.9865,0.0135	-46043.55
0.9949,0.0051	-46023.55
0.9919,0.0081	-46034.17
0.9868,0.0132	-46034.90
0.9921,0.0079	-46038.98
0.9845,0.0155	-46043.67
0.9892,0.0108	-46043.53
0.9955,0.0045	-46023.34
0.9915,0.0085	-46024.69
0.9892,0.0108	-46043.53
0.9901,0.0099	-46029.76
0.9849,0.0151	-46047.82
0.9894,0.0106	-46039.00
0.9963,0.0037	-46023.07
0.9920,0.0080	-46034.16
0.9916,0.0084	-46024.66
0.9878,0.0122	-46047.91
0.9856,0.0144	-46035.13
0.9890,0.0110	-46034.52
0.9963,0.0037	-46023.06
0.9924,0.0076	-46039.00
0.9908,0.0092	-46034.28
0.9885,0.0115	-46025.70
0.9849,0.0151	-46035.28
0.9899,0.0101	-46029.82
0.9969,0.0031	-46022.88
0.9929,0.0071	-46034.10
0.9914,0.0086	-46024.73
0.9885,0.0115	-46047.97
0.9822,0.0178	-46051.91
0.9909,0.0091	-46038.96
0.9959,0.0041	-46028.71
0.9910,0.0090	-46024.84
0.9907,0.0093	-46034.29
0.9895,0.0105	-46057.17
0.9825,0.0175	-46035.81
0.9894,0.0106	-46029.94
0.9967,0.0033	-46022.94
0.9926,0.0074	-46024.30
0.9903,0.0097	-46043.60
0.9905,0.0095	-46029.67
0.9818,0.0182	-46047.93
0.9917,0.0083	-46029.41
0.9973,0.0027	-46022.74
0.9926,0.0074	-46039.01
0.9918,0.0082	-46038.97
0.9898,0.0102	-46043.56
0.9817,0.0183	-46051.92
0.9916,0.0084	-46024.66
0.9971,0.0029	-46022.80
0.9941,0.0059	-46034.07
0.9913,0.0087	-46029.50
0.9922,0.0078	-46029.29
0.9799,0.0201	-46044.19
0.9918,0.0082	-46034.18
0.9976,0.0024	-46028.67
0.9941,0.0059	-46023.82
0.9908,0.0092	-46038.96
0.9931,0.0069	-46034.09
0.9813,0.0187	-46044.00
0.9921,0.0079	-46029.31
0.9967,0.0033	-46028.65
0.9940,0.0060	-46023.85
0.9904,0.0096	-46029.69
0.9942,0.0058	-46028.92
0.9833,0.0167	-46039.70
0.9941,0.0059	-46023.81
0.9974,0.0026	-46022.70
0.9933,0.0067	-46024.09
0.9902,0.0098	-46043.59
0.9949,0.0051	-46034.09
0.9864,0.0136	-46030.69
0.9951,0.0049	-46034.10
0.9978,0.0022	-46022.58
0.9928,0.0072	-46024.24
0.9850,0.0150	-46031.07
0.9950,0.0050	-46023.52
0.9868,0.0132	-46030.59
0.9953,0.0047	-46028.77
0.9973,0.0027	-46034.58
0.9936,0.0064	-46029.03
0.9839,0.0161	-46039.60
0.9949,0.0051	-46023.54
0.9877,0.0123	-46034.75
0.9947,0.0053	-46028.84
0.9971,0.0029	-46022.82
0.9930,0.0070	-46034.09
0.9852,0.0148	-46035.21
0.9937,0.0063	-46029.01
0.9841,0.0159	-46031.31
0.9939,0.0061	-46028.98
0.9966,0.0034	-46034.34
0.9936,0.0064	-46034.07
0.9865,0.0135	-46047.84
0.9946,0.0054	-46028.87
0.9855,0.0145	-46039.38
0.9910,0.0090	-46034.26
0.9958,0.0042	-46028.72
0.9937,0.0063	-46034.07
0.9895,0.0105	-46025.36
0.9961,0.0039	-46023.13
0.9827,0.0173	-46035.76
0.9911,0.0089	-46043.67
0.9951,0.0049	-46039.43
0.9940,0.0060	-46034.07
0.9859,0.0141	-46047.82
0.9970,0.0030	-46028.65
0.9812,0.0188	-46036.10
0.9896,0.0104	-46038.99
0.9954,0.0046	-46028.76
0.9951,0.0049	-46023.49
0.9866,0.0134	-46039.25
0.9970,0.0030	-46022.84
0.9809,0.0191	-46044.05
0.9905,0.0095	-46025.04
0.9946,0.0054	-46028.87
0.9966,0.0034	-46028.66
0.9873,0.0127	-46043.52
0.9969,0.0031	-46022.88
0.9806,0.0194	-46044.09
0.9887,0.0113	-46039.05
0.9941,0.0059	-46023.80
0.9967,0.0033	-46022.95
0.9859,0.0141	-46030.83
0.9971,0.0029	-46028.65
0.9768,0.0232	-46040.93
0.9902,0.0098	-46034.35
0.9949,0.0051	-46023.54
0.9967,0.0033	-46022.94
0.9892,0.0108	-46039.02
0.9965,0.0035	-46023.02
0.9712,0.0288	-46045.75
0.9909,0.0091	-46024.87
0.9940,0.0060	-46028.96
0.9959,0.0041	-46028.71
0.9873,0.0127	-46047.88
0.9974,0.0026	-46028.66
0.9727,0.0273	-46045.44
0.9894,0.0106	-46043.54
0.9935,0.0065	-46029.04
0.9962,0.0038	-46028.68
0.9849,0.0151	-46031.10
0.9973,0.0027	-46022.76
0.9700,0.0300	-46045.99
0.9882,0.0118	-46030.22
0.9950,0.0050	-46028.81
0.9975,0.0025	-46034.65
0.9857,0.0143	-46043.58
0.9974,0.0026	-46022.69
0.9689,0.0311	-46049.68
0.9891,0.0109	-46034.51
0.9957,0.0043	-46028.72
0.9977,0.0023	-46022.62
0.9877,0.0123	-46034.75
0.9977,0.0023	-46028.68
0.9677,0.0323	-46043.10
0.9881,0.0119	-46030.26
0.9963,0.0037	-46023.06
0.9969,0.0031	-46022.88
0.9852,0.0148	-46026.81
0.9980,0.0020	-46022.52
0.9652,0.0348	-46063.69
0.9912,0.0088	-46029.51
0.9970,0.0030	-46028.65
0.9960,0.0040	-46023.18
0.9857,0.0143	-46030.90
0.9980,0.0020	-46022.52
0.9666,0.0334	-46066.94
0.9917,0.0083	-46029.40
0.9969,0.0031	-46022.89
0.9962,0.0038	-46023.12
0.9883,0.0117	-46030.21
0.9977,0.0023	-46022.60
0.9667,0.0333	-46056.83
0.9914,0.0086	-46034.22
0.9964,0.0036	-46034.29
0.9966,0.0034	-46028.66
0.9889,0.0111	-46043.52
0.9975,0.0025	-46022.69
0.9658,0.0342	-46053.62
0.9903,0.0097	-46034.34
0.9959,0.0041	-46023.21
0.9956,0.0044	-46039.56
0.9881,0.0119	-46039.09
0.9972,0.0028	-46022.77
0.9713,0.0287	-46073.89
0.9886,0.0114	-46043.52
0.9954,0.0046	-46023.36
0.9963,0.0037	-46028.67
0.9917,0.0083	-46034.18
0.9975,0.0025	-46022.66
0.9686,0.0314	-46053.16
0.9899,0.0101	-46038.98
0.9950,0.0050	-46023.51
0.9953,0.0047	-46028.77
0.9917,0.0083	-46024.62
0.9981,0.0019	-46022.47
0.9556,0.0444	-46080.20
0.9883,0.0117	-46039.07
0.9934,0.0066	-46039.09
0.9941,0.0059	-46034.07
0.9903,0.0097	-46034.34
0.9979,0.0021	-46034.84
0.9510,0.0490	-46065.60
0.9887,0.0113	-46034.58
0.9939,0.0061	-46028.98
0.9932,0.0068	-46024.13
0.9897,0.0103	-46038.99
0.9973,0.0027	-46028.65
0.9541,0.0459	-46046.89
0.9850,0.0150	-46031.08
0.9921,0.0079	-46034.15
0.9930,0.0070	-46024.18
0.9909,0.0091	-46034.26
0.9973,0.0027	-46028.66
0.9531,0.0469	-46074.27
0.9850,0.0150	-46052.00
0.9934,0.0066	-46024.05
0.9898,0.0102	-46029.85
0.9905,0.0095	-46048.26
0.9977,0.0023	-46022.62
0.9530,0.0470	-46065.26
0.9888,0.0112	-46034.55
0.9931,0.0069	-46034.09
0.9895,0.0105	-46034.45
0.9886,0.0114	-46039.06
0.9973,0.0027	-46022.75
0.9632,0.0368	-46063.88
0.9887,0.0113	-46043.52
0.9927,0.0073	-46024.27
0.9894,0.0106	-46034.47
0.9898,0.0102	-46038.99
0.9970,0.0030	-46022.83
0.9670,0.0330	-46056.80
0.9885,0.0115	-46025.70
0.9925,0.0075	-46034.12
0.9909,0.0091	-46029.58
0.9883,0.0117	-46043.51
0.9970,0.0030	-46022.84
0.9710,0.0290	-46049.30
0.9888,0.0112	-46043.52
0.9937,0.0063	-46029.01
0.9897,0.0103	-46034.43
0.9901,0.0099	-46038.98
0.9957,0.0043	-46034.16
0.9719,0.0281	-46042.06
0.9900,0.0100	-46029.78
0.9938,0.0062	-46028.99
0.9890,0.0110	-46034.53
0.9913,0.0087	-46038.96
0.9967,0.0033	-46028.65
0.9726,0.0274	-46045.45
0.9887,0.0113	-46052.45
0.9942,0.0058	-46028.92
0.9903,0.0097	-46034.35
0.9915,0.0085	-46034.21
0.9965,0.0035	-46023.02
0.9625,0.0375	-46067.20
0.9894,0.0106	-46039.00
0.9956,0.0044	-46023.32
0.9900,0.0100	-46038.98
0.9920,0.0080	-46024.53
0.9972,0.0028	-46022.79
0.9624,0.0376	-46038.02
0.9893,0.0107	-46025.44
0.9966,0.0034	-46022.99
0.9914,0.0086	-46038.96
0.9910,0.0090	-46029.57
0.9971,0.0029	-46022.80
0.9637,0.0363	-46057.28
0.9896,0.0104	-46029.89
0.9966,0.0034	-46028.66
0.9902,0.0098	-46034.35
0.9900,0.0100	-46034.38
0.9969,0.0031	-46034.43
0.9600,0.0400	-46067.43
0.9928,0.0072	-46024.25
0.9969,0.0031	-46034.41
0.9894,0.0106	-46034.47
0.9888,0.0112	-46039.04
0.9972,0.0028	-46022.78
0.9615,0.0385	-46051.21
0.9938,0.0062	-46028.98
0.9970,0.0030	-46022.83
0.9891,0.0109	-46025.51
0.9859,0.0141	-46026.59
0.9977,0.0023	-46022.61
0.9613,0.0387	-46080.15
0.9928,0.0072	-46034.10
0.9969,0.0031	-46022.89
0.9896,0.0104	-46048.10
0.9855,0.0145	-46047.82
0.9980,0.0020	-46028.72
0.9614,0.0386	-46060.86
0.9925,0.0075	-46024.34
0.9966,0.0034	-46028.65
0.9908,0.0092	-46043.64
0.9884,0.0116	-46030.17
0.9980,0.0020	-46022.51
0.9637,0.0363	-46057.27
0.9940,0.0060	-46034.07
0.9968,0.0032	-46028.65
0.9904,0.0096	-46029.69
0.9917,0.0083	-46034.19
0.9978,0.0022	-46022.59
0.9661,0.0339	-46050.22
0.9941,0.0059	-46023.80
0.9966,0.0034	-46028.66
0.9902,0.0098	-46025.12
0.9917,0.0083	-46038.97
0.9973,0.0027	-46022.74
0.9641,0.0359	-46047.35
0.9956,0.0044	-46028.73
0.9958,0.0042	-46028.71
0.9890,0.0110	-46039.03
0.9910,0.0090	-46024.85
0.9972,0.0028	-46022.77
0.9623,0.0377	-46060.74
0.9939,0.0061	-46034.07
0.9951,0.0049	-46028.79
0.9900,0.0100	-46038.98
0.9913,0.0087	-46034.23
0.9973,0.0027	-46028.65
0.9575,0.0425	-46067.69
0.9920,0.0080	-46034.16
0.9946,0.0054	-46023.66
0.9904,0.0096	-46038.97
0.9922,0.0078	-46038.99
0.9972,0.0028	-46034.51
0.9615,0.0385	-46070.50
0.9926,0.0074	-46039.01
0.9934,0.0066	-46024.05
0.9896,0.0104	-46034.44
0.9915,0.0085	-46024.68
0.9970,0.0030	-46022.86
0.9618,0.0382	-46054.35
0.9918,0.0082	-46029.38
0.9898,0.0102	-46029.84
0.9893,0.0107	-46039.01
0.9926,0.0074	-46024.32
0.9969,0.0031	-46022.87
0.9583,0.0417	-46073.87
0.9928,0.0072	-46039.03
0.9904,0.0096	-46025.07
0.9872,0.0128	-46030.49
0.9908,0.0092	-46034.28
0.9972,0.0028	-46022.76
0.9629,0.0371	-46054.14
0.9946,0.0054	-46028.86
0.9894,0.0106	-46029.93
0.9849,0.0151	-46031.09
0.9903,0.0097	-46025.10
0.9969,0.0031	-46022.88
0.9634,0.0366	-46060.59
0.9959,0.0041	-46023.22
0.9867,0.0133	-46039.23
0.9859,0.0141	-46043.58
0.9888,0.0112	-46030.07
0.9970,0.0030	-46028.65
0.9634,0.0366	-46054.04
0.9962,0.0038	-46023.11
0.9887,0.0113	-46034.58
0.9873,0.0127	-46043.52
0.9904,0.0096	-46034.33
0.9973,0.0027	-46022.73
0.9715,0.0285	-46052.74
0.9968,0.0032	-46028.65
0.9911,0.0089	-46029.53
0.9889,0.0111	-46030.04
0.9897,0.0103	-46029.85
0.9969,0.0031	-46034.41
0.9695,0.0305	-46039.18
0.9975,0.0025	-46022.68
0.9908,0.0092	-46029.60
0.9899,0.0101	-46029.81
0.9885,0.0115	-46043.52
0.9969,0.0031	-46028.65
0.9688,0.0312	-46063.43
0.9974,0.0026	-46022.71
0.9922,0.0078	-46029.31
0.9883,0.0117	-46034.64
0.9869,0.0131	-46030.56
0.9972,0.0028	-46028.65
0.9652,0.0348	-46053.73
0.9977,0.0023	-46028.69
0.9915,0.0085	-46043.72
0.9890,0.0110	-46030.03
0.9847,0.0153	-46035.32
0.9971,0.0029	-46040.32
0.9734,0.0266	-46041.70
0.9980,0.0020	-46022.52
0.9899,0.0101	-46029.81
0.9845,0.0155	-46043.67
0.9853,0.0147	-46035.21
0.9976,0.0024	-46022.66
0.9658,0.0342	-46056.97
0.9979,0.0021	-46022.54
0.9898,0.0102	-46029.84
0.9850,0.0150	-46039.45
0.9846,0.0154	-46039.50
0.9983,0.0017	-46022.42
0.9725,0.0275	-46049.05
0.9977,0.0023	-46022.62
0.9907,0.0093	-46038.96
0.9818,0.0182	-46055.90
0.9844,0.0156	-46039.53
0.9985,0.0015	-46022.33
0.9803,0.0197	-46040.22
0.9974,0.0026	-46034.61
0.9926,0.0074	-46029.22
0.9819,0.0181	-46035.93
0.9840,0.0160	-46051.95
0.9981,0.0019	-46022.49
0.9851,0.0149	-46043.63
0.9973,0.0027	-46022.74
0.9908,0.0092	-46034.28
0.9850,0.0150	-46039.45
0.9839,0.0161	-46043.72
0.9976,0.0024	-46028.67
0.9880,0.0120	-46034.69
0.9969,0.0031	-46028.65
0.9940,0.0060	-46023.85
0.9834,0.0166	-46043.77
0.9841,0.0159	-46027.19
0.9972,0.0028	-46022.77
0.9879,0.0121	-46025.90
0.9971,0.0029	-46028.65
0.9930,0.0070	-46034.09
0.9809,0.0191	-46044.05
0.9866,0.0134	-46039.24
0.9973,0.0027	-46022.75
0.9897,0.0103	-46038.99
0.9979,0.0021	-46028.70
0.9923,0.0077	-46034.14
0.9771,0.0229	-46044.62
0.9874,0.0126	-46034.81
0.9972,0.0028	-46040.40
0.9876,0.0124	-46043.52
0.9978,0.0022	-46022.57
0.9919,0.0081	-46024.55
0.9815,0.0185	-46032.06
0.9851,0.0149	-46035.24
0.9972,0.0028	-46034.54
0.9878,0.0122	-46025.95
0.9978,0.0022	-46034.80
0.9929,0.0071	-46029.15
0.9819,0.0181	-46051.92
0.9896,0.0104	-46034.44
0.9964,0.0036	-46023.03
0.9875,0.0125	-46030.41
0.9980,0.0020	-46022.51
0.9934,0.0066	-46029.05
0.9807,0.0193	-46032.29
0.9922,0.0078	-46024.47
0.9971,0.0029	-46028.65
0.9896,0.0104	-46029.88
0.9984,0.0016	-46022.39
0.9943,0.0057	-46034.07
0.9772,0.0228	-46048.37
0.9905,0.0095	-46043.61
0.9970,0.0030	-46022.83
0.9894,0.0106	-46025.39
0.9985,0.0015	-46022.35
0.9925,0.0075	-46029.23
0.9823,0.0177	-46039.86
0.9926,0.0074	-46039.02
0.9973,0.0027	-46022.74
0.9892,0.0108	-46029.99
0.9984,0.0016	-46028.81
0.9935,0.0065	-46024.03
0.9763,0.0237	-46044.77
0.9920,0.0080	-46024.51
0.9976,0.0024	-46028.67
0.9883,0.0117	-46034.64
0.9985,0.0015	-46028.84
0.9952,0.0048	-46023.44
0.9807,0.0193	-46040.15
0.9926,0.0074	-46029.22
0.9979,0.0021	-46022.54
0.9901,0.0099	-46034.38
0.9983,0.0017	-46022.40
0.9945,0.0055	-46023.68
0.9804,0.0196	-46036.30
0.9935,0.0065	-46034.07
0.9981,0.0019	-46022.47
0.9894,0.0106	-46039.00
0.9986,0.0014	-46028.88
0.9946,0.0054	-46028.86
0.9838,0.0162	-46039.62
0.9948,0.0052	-46028.83
0.9983,0.0017	-46022.41
0.9884,0.0116	-46034.63
0.9983,0.0017	-46022.41
0.9952,0.0048	-46023.44
0.9841,0.0159	-46039.57
0.9932,0.0068	-46029.09
0.9983,0.0017	-46022.40
0.9903,0.0097	-46048.22
0.9985,0.0015	-46028.83
0.9959,0.0041	-46034.19
0.9780,0.0220	-46048.27
0.9927,0.0073	-46039.02
0.9976,0.0024	-46028.67
0.9904,0.0096	-46029.70
0.9989,0.0011	-46022.23
0.9966,0.0034	-46028.66
0.9756,0.0244	-46041.20
0.9910,0.0090	-46029.57
0.9977,0.0023	-46028.68
0.9926,0.0074	-46048.82
0.9990,0.0010	-46022.19
0.9966,0.0034	-46034.34
0.9775,0.0225	-46044.56
0.9913,0.0087	-46029.50
0.9979,0.0021	-46028.71
0.9931,0.0069	-46039.06
0.9989,0.0011	-46022.22
0.9971,0.0029	-46022.79
0.9806,0.0194	-46048.02
0.9922,0.0078	-46024.46
0.9977,0.0023	-46022.60
0.9940,0.0060	-46023.83
0.9983,0.0017	-46022.41
0.9970,0.0030	-46028.65
0.9817,0.0183	-46035.99
0.9927,0.0073	-46029.20
0.9977,0.0023	-46022.60
0.9932,0.0068	-46034.08
0.9984,0.0016	-46028.81
0.9966,0.0034	-46028.66
0.9836,0.0164	-46047.84
0.9945,0.0055	-46034.07
0.9978,0.0022	-46040.93
0.9915,0.0085	-46029.45
0.9985,0.0015	-46022.34
0.9971,0.0029	-46022.80
0.9887,0.0113	-46034.58
0.9931,0.0069	-46034.09
0.9973,0.0027	-46028.65
0.9915,0.0085	-46038.96
0.9983,0.0017	-46022.41
0.9971,0.0029	-46022.81
0.9896,0.0104	-46043.55
0.9916,0.0084	-46029.42
0.9971,0.0029	-46022.82
0.9935,0.0065	-46029.05
0.9982,0.0018	-46028.75
0.9970,0.0030	-46028.65
0.9922,0.0078	-46024.44
0.9889,0.0111	-46034.55
0.9966,0.0034	-46022.96
0.9922,0.0078	-46038.99
0.9983,0.0017	-46022.41
0.9972,0.0028	-46028.65
0.9913,0.0087	-46024.75
0.9849,0.0151	-46035.29
0.9969,0.0031	-46028.65
0.9920,0.0080	-46043.80
0.9978,0.0022	-46034.82
0.9975,0.0025	-46022.67
0.9890,0.0110	-46039.03
0.9838,0.0162	-46031.41
0.9959,0.0041	-46028.70
0.9939,0.0061	-46028.97
0.9980,0.0020	-46028.72
0.9970,0.0030	-46022.83
0.9877,0.0123	-46030.36
0.9802,0.0198	-46044.14
0.9958,0.0042	-46039.66
0.9948,0.0052	-46023.58
0.9979,0.0021	-46022.55
0.9971,0.0029	-46022.80
0.9856,0.0144	-46035.15
0.9827,0.0173	-46039.79
0.9956,0.0044	-46023.31
0.9952,0.0048	-46028.78
0.9983,0.0017	-46022.41
0.9965,0.0035	-46023.02
0.9813,0.0187	-46036.08
0.9835,0.0165	-46031.48
0.9946,0.0054	-46034.08
0.9957,0.0043	-46034.16
0.9982,0.0018	-46022.43
0.9958,0.0042	-46023.24
0.9804,0.0196	-46048.03
0.9861,0.0139	-46030.78
0.9941,0.0059	-46034.07
0.9961,0.0039	-46023.14
0.9982,0.0018	-46035.11
0.9954,0.0046	-46023.38
0.9860,0.0140	-46035.07
0.9834,0.0166	-46039.68
0.9934,0.0066	-46034.07
0.9966,0.0034	-46022.98
0.9982,0.0018	-46022.45
0.9953,0.0047	-46039.47
0.9867,0.0133	-46043.54
0.9819,0.0181	-46043.93
0.9938,0.0062	-46039.14
0.9960,0.0040	-46023.17
0.9982,0.0018	-46022.43
0.9946,0.0054	-46023.64
0.9872,0.0128	-46030.49
0.9792,0.0208	-46044.30
0.9934,0.0066	-46039.09
0.9956,0.0044	-46023.33
0.9983,0.0017	-46022.41
0.9950,0.0050	-46023.49
0.9849,0.0151	-46031.09
0.9839,0.0161	-46051.94
0.9945,0.0055	-46034.07
0.9949,0.0051	-46028.81
0.9982,0.0018	-46022.43
0.9953,0.0047	-46028.77
0.9870,0.0130	-46034.88
0.9827,0.0173	-46064.03
0.9937,0.0063	-46023.94
0.9945,0.0055	-46023.67
0.9984,0.0016	-46022.36
0.9949,0.0051	-46039.38
0.9877,0.0123	-46030.35
0.9825,0.0175	-46047.89
0.9938,0.0062	-46023.90
0.9940,0.0060	-46039.17
0.9985,0.0015	-46022.33
0.9958,0.0042	-46028.71
0.9897,0.0103	-46038.99
0.9862,0.0138	-46043.56
0.9930,0.0070	-46029.13
0.9931,0.0069	-46039.06
0.9986,0.0014	-46022.31
0.9954,0.0046	-46023.39
0.9917,0.0083	-46038.97
0.9859,0.0141	-46039.32
0.9923,0.0077	-46038.99
0.9939,0.0061	-46039.16
0.9988,0.0012	-46022.24
0.9958,0.0042	-46034.17
0.9923,0.0077	-46029.27
0.9871,0.0129	-46030.50
0.9913,0.0087	-46029.49
0.9945,0.0055	-46034.07
0.9988,0.0012	-46022.26
0.9954,0.0046	-46023.39
0.9923,0.0077	-46034.14
0.9830,0.0170	-46039.75
0.9909,0.0091	-46029.58
0.9944,0.0056	-46023.70
0.9984,0.0016	-46022.37
0.9945,0.0055	-46028.87
0.9953,0.0047	-46023.40
0.9854,0.0146	-46035.17
0.9898,0.0102	-46048.14
0.9943,0.0057	-46028.91
0.9986,0.0014	-46028.86
0.9956,0.0044	-46028.73
0.9955,0.0045	-46023.34
0.9854,0.0146	-46052.03
0.9912,0.0088	-46034.24
0.9944,0.0056	-46023.73
0.9984,0.0016	-46022.37
0.9955,0.0045	-46023.36
0.9944,0.0056	-46023.69
0.9845,0.0155	-46031.22
0.9922,0.0078	-46034.15
0.9958,0.0042	-46034.18
0.9984,0.0016	-46022.37
0.9945,0.0055	-46028.87
0.9955,0.0045	-46023.34
0.9843,0.0157	-46035.42
0.9909,0.0091	-46038.96
0.9952,0.0048	-46023.43
0.9983,0.0017	-46022.40
0.9956,0.0044	-46023.32
0.9942,0.0058	-46028.92
0.9858,0.0142	-46043.58
0.9927,0.0073	-46034.11
0.9938,0.0062	-46029.00
0.9985,0.0015	-46022.33
0.9956,0.0044	-46023.31
0.9961,0.0039	-46023.13
0.9865,0.0135	-46043.55
0.9930,0.0070	-46034.09
0.9944,0.0056	-46028.89
0.9988,0.0012	-46028.99
0.9952,0.0048	-46028.78
0.9954,0.0046	-46028.75
0.9878,0.0122	-46030.33
0.9932,0.0068	-46029.10
0.9945,0.0055	-46034.07
0.9988,0.0012	-46028.97
0.9951,0.0049	-46028.79
0.9952,0.0048	-46023.44
0.9884,0.0116	-46034.63
0.9937,0.0063	-46029.02
0.9937,0.0063	-46034.07
0.9992,0.0008	-46029.25
0.9948,0.0052	-46028.83
0.9947,0.0053	-46034.08
0.9891,0.0109	-46043.53
0.9927,0.0073	-46029.20
0.9947,0.0053	-46028.85
0.9993,0.0007	-46022.08
0.9947,0.0053	-46023.61
0.9952,0.0048	-46028.78
0.9886,0.0114	-46039.05
0.9920,0.0080	-46024.51
0.9948,0.0052	-46023.59
0.9994,0.0006	-46022.04
0.9954,0.0046	-46028.76
0.9937,0.0063	-46029.01
0.9880,0.0120	-46039.10
0.9923,0.0077	-46029.27
0.9960,0.0040	-46028.69
0.9993,0.0007	-46022.07
0.9946,0.0054	-46023.64
0.9949,0.0051	-46028.81
0.9889,0.0111	-46034.55
0.9921,0.0079	-46029.32
0.9952,0.0048	-46034.11
0.9994,0.0006	-46022.04
0.9959,0.0041	-46028.70
0.9943,0.0057	-46039.23
0.9892,0.0108	-46029.98
0.9915,0.0085	-46024.69
0.9961,0.0039	-46028.68
0.9994,0.0006	-46022.06
0.9946,0.0054	-46028.86
0.9949,0.0051	-46039.37
0.9883,0.0117	-46043.51
0.9914,0.0086	-46024.71
0.9951,0.0049	-46044.74
0.9992,0.0008	-46029.27
0.9953,0.0047	-46034.12
0.9950,0.0050	-46034.10
0.9883,0.0117	-46030.21
0.9905,0.0095	-46034.32
0.9953,0.0047	-46023.42
0.9992,0.0008	-46029.27
0.9956,0.0044	-46028.73
0.9945,0.0055	-46023.68
0.9893,0.0107	-46029.95
0.9892,0.0108	-46043.53
0.9953,0.0047	-46023.41
0.9990,0.0010	-46022.16
0.9956,0.0044	-46023.30
0.9946,0.0054	-46028.86
0.9892,0.0108	-46025.46
0.9866,0.0134	-46039.24
0.9948,0.0052	-46028.83
0.9990,0.0010	-46022.17
0.9952,0.0048	-46028.78
0.9935,0.0065	-46039.10
0.9875,0.0125	-46034.78
0.9892,0.0108	-46034.49
0.9962,0.0038	-46023.11
0.9990,0.0010	-46022.18
0.9954,0.0046	-46023.36
0.9926,0.0074	-46024.33
0.9857,0.0143	-46047.82
0.9871,0.0129	-46030.51
0.9962,0.0038	-46023.12
0.9990,0.0010	-46022.19
0.9968,0.0032	-46028.65
0.9913,0.0087	-46034.22
0.9875,0.0125	-46039.14
0.9903,0.0097	-46029.71
0.9969,0.0031	-46022.86
0.9991,0.0009	-46022.14
0.9963,0.0037	-46028.67
0.9898,0.0102	-46034.41
0.9847,0.0153	-46043.65
0.9901,0.0099	-46034.37
0.9960,0.0040	-46034.22
0.9992,0.0008	-46029.20
0.9967,0.0033	-46022.95
0.9853,0.0147	-46039.40
0.9840,0.0160	-46043.71
0.9902,0.0098	-46029.74
0.9967,0.0033	-46022.94
0.9988,0.0012	-46028.96
0.9956,0.0044	-46034.15
0.9884,0.0116	-46039.07
0.9841,0.0159	-46039.57
0.9886,0.0114	-46034.59
0.9966,0.0034	-46022.97
0.9987,0.0013	-46022.26
0.9950,0.0050	-46034.10
0.9886,0.0114	-46034.59
0.9817,0.0183	-46028.03
0.9859,0.0141	-46039.33
0.9968,0.0032	-46028.65
0.9987,0.0013	-46022.27
0.9953,0.0047	-46023.40
0.9892,0.0108	-46043.53
0.9835,0.0165	-46047.84
0.9870,0.0130	-46039.20
0.9967,0.0033	-46028.65
0.9987,0.0013	-46028.91
0.9938,0.0062	-46028.98
0.9915,0.0085	-46038.96
0.9849,0.0151	-46035.28
0.9844,0.0156	-46035.40
0.9964,0.0036	-46023.04
0.9982,0.0018	-46022.44
0.9936,0.0064	-46023.96
0.9896,0.0104	-46048.11
0.9892,0.0108	-46029.97
0.9896,0.0104	-46025.34
0.9962,0.0038	-46028.68
0.9983,0.0017	-46022.39
0.9947,0.0053	-46028.85
0.9885,0.0115	-46034.60
0.9890,0.0110	-46043.53
0.9904,0.0096	-46038.97
0.9953,0.0047	-46023.41
0.9981,0.0019	-46028.75
0.9938,0.0062	-46028.99
0.9866,0.0134	-46034.95
0.9873,0.0127	-46030.46
0.9891,0.0109	-46043.53
0.9961,0.0039	-46023.15
0.9982,0.0018	-46022.44
0.9957,0.0043	-46028.72
0.9889,0.0111	-46039.04
0.9892,0.0108	-46034.49
0.9879,0.0121	-46034.72
0.9968,0.0032	-46034.40
0.9980,0.0020	-46022.51
0.9947,0.0053	-46028.84
0.9882,0.0118	-46043.51
0.9911,0.0089	-46034.24
0.9876,0.0124	-46047.89
0.9963,0.0037	-46034.26
0.9979,0.0021	-46022.54
0.9948,0.0052	-46028.84
0.9880,0.0120	-46025.88
0.9906,0.0094	-46029.65
0.9846,0.0154	-46039.50
0.9968,0.0032	-46022.91
0.9984,0.0016	-46022.39
0.9944,0.0056	-46023.72
0.9883,0.0117	-46025.77
0.9894,0.0106	-46029.94
0.9853,0.0147	-46039.41
0.9973,0.0027	-46028.65
0.9982,0.0018	-46022.44
0.9933,0.0067	-46034.08
0.9891,0.0109	-46025.49
0.9906,0.0094	-46029.64
0.9853,0.0147	-46030.99
0.9972,0.0028	-46022.77
0.9981,0.0019	-46022.49
0.9950,0.0050	-46023.53
0.9905,0.0095	-46034.32
0.9904,0.0096	-46034.34
0.9870,0.0130	-46039.20
0.9965,0.0035	-46023.02
0.9979,0.0021	-46028.71
0.9950,0.0050	-46023.52
0.9926,0.0074	-46024.31
0.9908,0.0092	-46034.29
0.9876,0.0124	-46030.39
0.9959,0.0041	-46023.20
0.9978,0.0022	-46022.58
0.9961,0.0039	-46028.69
0.9939,0.0061	-46034.07
0.9920,0.0080	-46029.34
0.9849,0.0151	-46039.46
0.9962,0.0038	-46028.68
0.9969,0.0031	-46028.65
0.9964,0.0036	-46028.67
0.9931,0.0069	-46029.12
0.9928,0.0072	-46029.17
0.9843,0.0157	-46035.41
0.9954,0.0046	-46028.76
0.9970,0.0030	-46022.85
0.9957,0.0043	-46028.72
0.9928,0.0072	-46029.17
0.9928,0.0072	-46024.27
0.9830,0.0170	-46035.69
0.9959,0.0041	-46028.70
0.9967,0.0033	-46028.65
0.9966,0.0034	-46022.97
0.9934,0.0066	-46024.04
0.9914,0.0086	-46053.22
0.9811,0.0189	-46036.12
0.9954,0.0046	-46023.37
0.9968,0.0032	-46022.89
0.9968,0.0032	-46028.65
0.9932,0.0068	-46024.11
0.9919,0.0081	-46029.37
0.9777,0.0223	-46048.30
0.9954,0.0046	-46028.75
0.9973,0.0027	-46022.75
0.9970,0.0030	-46028.65
0.9929,0.0071	-46029.15
0.9934,0.0066	-46034.08
0.9807,0.0193	-46040.15
0.9960,0.0040	-46034.22
0.9971,0.0029	-46022.82
0.9973,0.0027	-46022.73
0.9936,0.0064	-46034.07
0.9930,0.0070	-46029.15
0.9797,0.0203	-46036.46
0.9964,0.0036	-46028.67
0.9976,0.0024	-46022.63
0.9968,0.0032	-46028.65
0.9937,0.0063	-46039.13
0.9925,0.0075	-46034.12
0.9808,0.0192	-46051.93
0.9962,0.0038	-46028.67
0.9974,0.0026	-46022.71
0.9959,0.0041	-46034.20
0.9952,0.0048	-46023.44
0.9933,0.0067	-46029.07
0.9785,0.0215	-46044.40
0.9967,0.0033	-46028.65
0.9964,0.0036	-46028.66
0.9957,0.0043	-46039.61
0.9954,0.0046	-46028.76
0.9922,0.0078	-46038.99
0.9753,0.0247	-46052.29
0.9968,0.0032	-46022.91
0.9955,0.0045	-46039.53
0.9964,0.0036	-46023.05
0.9946,0.0054	-46023.65
0.9936,0.0064	-46029.03
0.9763,0.0237	-46055.92
0.9961,0.0039	-46023.14
0.9956,0.0044	-46023.32
0.9962,0.0038	-46028.68
0.9931,0.0069	-46034.09
0.9944,0.0056	-46034.07
0.9742,0.0258	-46045.15
0.9959,0.0041	-46023.21
0.9959,0.0041	-46023.21
0.9967,0.0033	-46040.08
0.9914,0.0086	-46024.73
0.9949,0.0051	-46023.55
0.9788,0.0212	-46059.68
0.9961,0.0039	-46023.13
0.9951,0.0049	-46028.79
0.9966,0.0034	-46022.97
0.9919,0.0081	-46024.55
0.9941,0.0059	-46039.19
0.9799,0.0201	-46040.31
0.9974,0.0026	-46022.72
0.9957,0.0043	-46023.29
0.9964,0.0036	-46028.66
0.9927,0.0073	-46024.28
0.9931,0.0069	-46029.11
0.9778,0.0222	-46055.86
0.9971,0.0029	-46028.65
0.9961,0.0039	-46034.22
0.9973,0.0027	-46022.76
0.9887,0.0113	-46039.04
0.9923,0.0077	-46029.28
0.9805,0.0195	-46032.34
0.9969,0.0031	-46022.86
0.9960,0.0040	-46028.69
0.9969,0.0031	-46022.86
0.9846,0.0154	-46035.35
0.9928,0.0072	-46029.18
0.9820,0.0180	-46047.92
0.9974,0.0026	-46022.72
0.9967,0.0033	-46022.94
0.9969,0.0031	-46028.65
0.9817,0.0183	-46039.98
0.9920,0.0080	-46038.98
0.9810,0.0190	-46032.20
0.9976,0.0024	-46028.67
0.9972,0.0028	-46022.77
0.9967,0.0033	-46022.94
0.9850,0.0150	-46035.27
0.9928,0.0072	-46029.17
0.9837,0.0163	-46047.84
0.9982,0.0018	-46022.43
0.9970,0.0030	-46028.65
0.9964,0.0036	-46028.66
0.9858,0.0142	-46030.87
0.9925,0.0075	-46024.36
0.9854,0.0146	-46030.97
0.9983,0.0017	-46022.42
0.9969,0.0031	-46028.65
0.9960,0.0040	-46028.70
0.9859,0.0141	-46043.57
0.9931,0.0069	-46034.09
0.9830,0.0170	-46027.57
0.9981,0.0019	-46022.49
0.9967,0.0033	-46028.65
0.9955,0.0045	-46023.33
0.9844,0.0156	-46035.40
0.9931,0.0069	-46029.11
0.9865,0.0135	-46043.55
0.9977,0.0023	-46034.73
0.9964,0.0036	-46023.04
0.9955,0.0045	-46023.34
0.9809,0.0191	-46036.17
0.9927,0.0073	-46039.02
0.9855,0.0145	-46039.38
0.9976,0.0024	-46022.66
0.9969,0.0031	-46034.41
0.9959,0.0041	-46034.19
0.9762,0.0238	-46052.21
0.9918,0.0082	-46034.18
0.9876,0.0124	-46030.39
0.9972,0.0028	-46022.76
0.9974,0.0026	-46028.66
0.9965,0.0035	-46023.01
0.9785,0.0215	-46055.85
0.9917,0.0083	-46024.61
0.9873,0.0127	-46039.16
0.9973,0.0027	-46022.73
0.9971,0.0029	-46022.80
0.9953,0.0047	-46023.40
0.9846,0.0154	-46035.34
0.9910,0.0090	-46038.96
0.9861,0.0139	-46039.30
0.9966,0.0034	-46022.96
0.9968,0.0032	-46022.89
0.9953,0.0047	-46044.85
0.9835,0.0165	-46039.66
0.9884,0.0116	-46039.07
0.9880,0.0120	-46039.11
0.9967,0.0033	-46034.36
0.9964,0.0036	-46023.05
0.9951,0.0049	-46039.43
0.9822,0.0178	-46039.88
0.9874,0.0126	-46039.16
0.9876,0.0124	-46039.14
0.9974,0.0026	-46028.66
0.9969,0.0031	-46022.87
0.9944,0.0056	-46028.90
0.9812,0.0188	-46044.02
0.9849,0.0151	-46035.29
0.9872,0.0128	-46039.18
0.9967,0.0033	-46028.65
0.9964,0.0036	-46028.67
0.9942,0.0058	-46034.07
0.9822,0.0178	-46035.86
0.9823,0.0177	-46047.90
0.9874,0.0126	-46030.42
0.9959,0.0041	-46023.19
0.9962,0.0038	-46023.10
0.9930,0.0070	-46029.14
0.9828,0.0172	-46060.00
0.9826,0.0174	-46039.82
0.9890,0.0110	-46043.53
0.9969,0.0031	-46022.89
0.9963,0.0037	-46023.09
0.9913,0.0087	-46029.49
0.9852,0.0148	-46043.61
0.9834,0.0166	-46043.77
0.9891,0.0109	-46039.02
0.9962,0.0038	-46028.68
0.9961,0.0039	-46023.13
0.9865,0.0135	-46034.96
0.9889,0.0111	-46030.04
0.9829,0.0171	-46039.77
0.9908,0.0092	-46034.28
0.9963,0.0037	-46028.67
0.9966,0.0034	-46028.66
0.9868,0.0132	-46039.23
0.9876,0.0124	-46047.89
0.9806,0.0194	-46055.86
0.9904,0.0096	-46043.60
0.9967,0.0033	-46034.35
0.9965,0.0035	-46028.66
0.9890,0.0110	-46039.03
0.9877,0.0123	-46034.75
0.9866,0.0134	-46030.65
0.9916,0.0084	-46038.97
0.9970,0.0030	-46022.83
0.9965,0.0035	-46028.66
0.9905,0.0095	-46025.03
0.9862,0.0138	-46026.48
0.9884,0.0116	-46034.62
0.9909,0.0091	-46029.58
0.9961,0.0039	-46023.15
0.9965,0.0035	-46028.66
0.9924,0.0076	-46029.25
0.9844,0.0156	-46027.08
0.9888,0.0112	-46048.00
0.9904,0.0096	-46034.32
0.9957,0.0043	-46028.72
0.9961,0.0039	-46023.13
0.9911,0.0089	-46034.25
0.9855,0.0145	-46035.17
0.9891,0.0109	-46030.01
0.9904,0.0096	-46034.33
0.9962,0.0038	-46028.68
0.9964,0.0036	-46023.05
0.9896,0.0104	-46025.35
0.9876,0.0124	-46039.14
0.9883,0.0117	-46034.64
0.9883,0.0117	-46030.20
0.9968,0.0032	-46028.65
0.9965,0.0035	-46022.99
0.9890,0.0110	-46039.03
0.9892,0.0108	-46029.98
0.9870,0.0130	-46034.87
0.9911,0.0089	-46029.53
0.9971,0.0029	-46034.50
0.9960,0.0040	-46028.69
0.9908,0.0092	-46043.64
0.9901,0.0099	-46029.75
0.9835,0.0165	-46043.76
0.9902,0.0098	-46029.74
0.9966,0.0034	-46022.97
0.9959,0.0041	-46023.22
0.9906,0.0094	-46025.00
0.9898,0.0102	-46025.25
0.9843,0.0157	-46047.82
0.9877,0.0123	-46039.13
0.9974,0.0026	-46022.70
0.9966,0.0034	-46028.66
0.9898,0.0102	-46029.84
0.9896,0.0104	-46048.11
0.9832,0.0168	-46047.86
0.9877,0.0123	-46030.35
0.9970,0.0030	-46022.86
0.9963,0.0037	-46023.06
0.9901,0.0099	-46029.75
0.9878,0.0122	-46034.72
0.9793,0.0207	-46048.14
0.9894,0.0106	-46034.47
0.9965,0.0035	-46023.03
0.9960,0.0040	-46023.17
0.9928,0.0072	-46039.02
0.9868,0.0132	-46039.22
0.9771,0.0229	-46040.86
0.9905,0.0095	-46034.32
0.9972,0.0028	-46022.79
0.9961,0.0039	-46028.69
0.9944,0.0056	-46034.07
0.9852,0.0148	-46039.42
0.9685,0.0315	-46060.03
0.9896,0.0104	-46025.31
0.9960,0.0040	-46028.70
0.9962,0.0038	-46023.13
0.9949,0.0051	-46028.81
0.9816,0.0184	-46043.97
0.9708,0.0292	-46059.84
0.9905,0.0095	-46048.27
0.9966,0.0034	-46028.66
0.9954,0.0046	-46028.76
0.9959,0.0041	-46023.20
0.9853,0.0147	-46043.61
0.9716,0.0284	-46045.65
0.9878,0.0122	-46030.33
0.9963,0.0037	-46023.08
0.9955,0.0045	-46023.33
0.9951,0.0049	-46023.49
0.9848,0.0152	-46047.82
0.9726,0.0274	-46041.89
0.9867,0.0133	-46039.23
0.9944,0.0056	-46023.70
0.9955,0.0045	-46023.33
0.9965,0.0035	-46028.66
0.9847,0.0153	-46047.82
0.9769,0.0231	-46044.66
0.9876,0.0124	-46043.52
0.9950,0.0050	-46028.81
0.9961,0.0039	-46028.69
0.9954,0.0046	-46044.87
0.9841,0.0159	-46043.70
0.9777,0.0223	-46044.53
0.9863,0.0137	-46043.55
0.9939,0.0061	-46028.97
0.9969,0.0031	-46034.41
0.9944,0.0056	-46039.25
0.9826,0.0174	-46035.77
0.9765,0.0235	-46059.63
0.9883,0.0117	-46043.51
0.9941,0.0059	-46034.07
0.9973,0.0027	-46022.75
0.9938,0.0062	-46023.93
0.9817,0.0183	-46035.99
0.9783,0.0217	-46048.24
0.9880,0.0120	-46039.10
0.9952,0.0048	-46034.11
0.9973,0.0027	-46022.74
0.9931,0.0069	-46029.11
0.9825,0.0175	-46051.92
0.9746,0.0254	-46045.07
0.9900,0.0100	-46034.38
0.9955,0.0045	-46028.74
0.9974,0.0026	-46034.61
0.9921,0.0079	-46053.49
0.9832,0.0168	-46043.79
0.9754,0.0246	-46048.60
0.9886,0.0114	-46025.65
0.9958,0.0042	-46023.24
0.9972,0.0028	-46022.79
0.9917,0.0083	-46029.40
0.9813,0.0187	-46036.09
0.9651,0.0349	-46060.38
0.9869,0.0131	-46043.53
0.9954,0.0046	-46028.75
0.9969,0.0031	-46028.65
0.9908,0.0092	-46034.28
0.9798,0.0202	-46040.32
0.9709,0.0291	-46049.32
0.9859,0.0141	-46035.07
0.9949,0.0051	-46034.09
0.9971,0.0029	-46034.50
0.9911,0.0089	-46034.24
0.9759,0.0241	-46041.12
0.9745,0.0255	-46059.66
0.9875,0.0125	-46026.05
0.9951,0.0049	-46023.47
0.9979,0.0021	-46022.54
0.9886,0.0114	-46030.13
0.9724,0.0276	-46056.18
0.9735,0.0265	-46059.69
0.9880,0.0120	-46030.29
0.9940,0.0060	-46028.95
0.9980,0.0020	-46028.72
0.9879,0.0121	-46039.12
0.9751,0.0249	-46048.65
0.9722,0.0278	-46038.43
0.9865,0.0135	-46039.25
0.9929,0.0071	-46039.03
0.9979,0.0021	-46028.70
0.9874,0.0126	-46043.52
0.9786,0.0214	-46036.73
0.9731,0.0269	-46056.12
0.9858,0.0142	-46035.10
0.9951,0.0049	-46044.73
0.9979,0.0021	-46022.56
0.9859,0.0141	-46039.32
0.9771,0.0229	-46055.89
0.9757,0.0243	-46044.87
0.9802,0.0198	-46032.44
0.9948,0.0052	-46028.83
0.9978,0.0022	-46028.69
0.9837,0.0163	-46035.54
0.9814,0.0186	-46032.09
0.9700,0.0300	-46049.47
0.9781,0.0219	-46040.65
0.9951,0.0049	-46023.47
0.9975,0.0025	-46028.66
0.9820,0.0180	-46035.92
0.9789,0.0211	-46044.34
0.9730,0.0270	-46048.95
0.9809,0.0191	-46036.17
0.9951,0.0049	-46028.80
0.9974,0.0026	-46028.66
0.9806,0.0194	-46036.24
0.9744,0.0256	-46048.75
0.9715,0.0285	-46049.21
0.9816,0.0184	-46047.94
0.9966,0.0034	-46034.35
0.9973,0.0027	-46022.73
0.9796,0.0204	-46032.62
0.9693,0.0307	-46053.06
0.9729,0.0271	-46063.30
0.9830,0.0170	-46035.69
0.9969,0.0031	-46022.87
0.9971,0.0029	-46022.80
0.9732,0.0268	-46059.70
0.9678,0.0322	-46049.89
0.9767,0.0233	-46037.22
0.9820,0.0180	-46043.92
0.9962,0.0038	-46023.11
0.9978,0.0022	-46022.58
0.9729,0.0271	-46041.81
0.9724,0.0276	-46038.38
0.9774,0.0226	-46040.81
0.9827,0.0173	-46047.88
0.9958,0.0042	-46028.71
0.9971,0.0029	-46022.79
0.9734,0.0266	-46056.10
0.9694,0.0306	-46056.50
0.9824,0.0176	-46043.87
0.9884,0.0116	-46030.19
0.9961,0.0039	-46023.15
0.9963,0.0037	-46028.67
0.9785,0.0215	-46040.57
0.9715,0.0285	-46042.14
0.9834,0.0166	-46047.85
0.9895,0.0105	-46029.91
0.9960,0.0040	-46023.16
0.9964,0.0036	-46028.66
0.9767,0.0233	-46044.69
0.9738,0.0262	-46059.68
0.9868,0.0132	-46034.91
0.9916,0.0084	-46038.97
0.9950,0.0050	-46039.38
0.9967,0.0033	-46040.06
0.9774,0.0226	-46044.57
0.9790,0.0210	-46036.63
0.9850,0.0150	-46039.44
0.9909,0.0091	-46029.59
0.9946,0.0054	-46044.52
0.9968,0.0032	-46028.65
0.9760,0.0240	-46044.81
0.9786,0.0214	-46036.72
0.9877,0.0123	-46034.74
0.9890,0.0110	-46034.53
0.9952,0.0048	-46044.76
0.9961,0.0039	-46023.15
0.9761,0.0239	-46059.64
0.9780,0.0220	-46044.47
0.9897,0.0103	-46034.42
0.9873,0.0127	-46034.81
0.9930,0.0070	-46034.09
0.9957,0.0043	-46028.72
0.9785,0.0215	-46052.03
0.9787,0.0213	-46052.02
0.9927,0.0073	-46039.02
0.9850,0.0150	-46026.90
0.9948,0.0052	-46023.58
0.9958,0.0042	-46023.25
0.9814,0.0186	-46051.92
0.9767,0.0233	-46037.23
0.9936,0.0064	-46024.00
0.9867,0.0133	-46043.54
0.9942,0.0058	-46034.07
0.9963,0.0037	-46034.26
0.9772,0.0228	-46044.61
0.9736,0.0264	-46056.08
0.9922,0.0078	-46024.45
0.9852,0.0148	-46031.02
0.9933,0.0067	-46034.08
0.9970,0.0030	-46022.85
0.9758,0.0242	-46048.54
0.9701,0.0299	-46063.37
0.9910,0.0090	-46043.66
0.9833,0.0167	-46035.62
0.9930,0.0070	-46039.05
0.9971,0.0029	-46022.81
0.9772,0.0228	-46044.61
0.9779,0.0221	-46036.91
0.9901,0.0099	-46034.37
0.9862,0.0138	-46052.10
0.9932,0.0068	-46029.11
0.9961,0.0039	-46028.69
0.9782,0.0218	-46040.65
0.9783,0.0217	-46044.42
0.9890,0.0110	-46030.02
0.9850,0.0150	-46047.81
0.9933,0.0067	-46034.08
0.9960,0.0040	-46028.69
0.9774,0.0226	-46048.34
0.9745,0.0255	-46045.10
0.9912,0.0088	-46034.24
0.9849,0.0151	-46026.93
0.9933,0.0067	-46034.08
0.9960,0.0040	-46034.21
0.9783,0.0217	-46055.85
0.9737,0.0263	-46038.02
0.9921,0.0079	-46024.49
0.9871,0.0129	-46039.19
0.9940,0.0060	-46023.84
0.9960,0.0040	-46023.17
0.9820,0.0180	-46035.92
0.9706,0.0294	-46042.37
0.9907,0.0093	-46024.96
0.9822,0.0178	-46047.90
0.9928,0.0072	-46029.17
0.9957,0.0043	-46028.72
0.9854,0.0146	-46039.39
0.9746,0.0254	-46041.42
0.9917,0.0083	-46024.63
0.9835,0.0165	-46031.49
0.9942,0.0058	-46028.93
0.9945,0.0055	-46034.07
0.9859,0.0141	-46035.08
0.9736,0.0264	-46056.08
0.9907,0.0093	-46034.29
0.9861,0.0139	-46043.57
0.9937,0.0063	-46029.01
0.9953,0.0047	-46028.76
0.9894,0.0106	-46034.47
0.9692,0.0308	-46046.16
0.9937,0.0063	-46034.07
0.9818,0.0182	-46043.94
0.9943,0.0057	-46034.07
0.9943,0.0057	-46034.07
0.9894,0.0106	-46029.94
0.9652,0.0348	-46060.36
0.9937,0.0063	-46023.96
0.9802,0.0198	-46044.15
0.9935,0.0065	-46029.04
0.9931,0.0069	-46024.15
0.9892,0.0108	-46029.99
0.9726,0.0274	-46038.31
0.9942,0.0058	-46028.92
0.9800,0.0200	-46044.17
0.9947,0.0053	-46034.08
0.9932,0.0068	-46029.11
0.9881,0.0119	-46034.68
0.9742,0.0258	-46048.78
0.9952,0.0048	-46023.44
0.9856,0.0144	-46035.14
0.9927,0.0073	-46029.19
0.9901,0.0099	-46025.17
0.9894,0.0106	-46029.93
0.9721,0.0279	-46042.02
0.9957,0.0043	-46023.26
0.9875,0.0125	-46039.15
0.9936,0.0064	-46029.02
0.9887,0.0113	-46039.04
0.9868,0.0132	-46052.16
0.9647,0.0353	-46060.43
0.9957,0.0043	-46023.28
0.9865,0.0135	-46034.97
0.9921,0.0079	-46024.47
0.9867,0.0133	-46047.85
0.9885,0.0115	-46030.17
0.9755,0.0245	-46037.54
0.9959,0.0041	-46023.21
0.9853,0.0147	-46030.99
0.9900,0.0100	-46029.79
0.9885,0.0115	-46025.69
0.9885,0.0115	-46034.61
0.9741,0.0259	-46048.78
0.9953,0.0047	-46023.40
0.9857,0.0143	-46043.59
0.9907,0.0093	-46034.30
0.9857,0.0143	-46039.35
0.9878,0.0122	-46030.32
0.9818,0.0182	-46031.97
0.9944,0.0056	-46023.71
0.9897,0.0103	-46038.99
0.9909,0.0091	-46043.65
0.9811,0.0189	-46044.03
0.9878,0.0122	-46025.95
0.9805,0.0195	-46040.18
0.9953,0.0047	-46034.13
0.9901,0.0099	-46034.37
0.9913,0.0087	-46034.22
0.9822,0.0178	-46027.84
0.9843,0.0157	-46039.54
0.9837,0.0163	-46035.53
0.9951,0.0049	-46028.79
0.9879,0.0121	-46034.71
0.9911,0.0089	-46029.53
0.9829,0.0171	-46047.87
0.9881,0.0119	-46030.25
0.9829,0.0171	-46039.76
0.9947,0.0053	-46023.61
0.9828,0.0172	-46031.70
0.9934,0.0066	-46039.09
0.9854,0.0146	-46035.19
0.9891,0.0109	-46034.51
0.9864,0.0136	-46030.70
0.9933,0.0067	-46024.08
0.9858,0.0142	-46043.58
0.9928,0.0072	-46034.10
0.9857,0.0143	-46030.89
0.9913,0.0087	-46038.96
0.9878,0.0122	-46043.51
0.9920,0.0080	-46029.34
0.9841,0.0159	-46051.95
0.9938,0.0062	-46023.90
0.9839,0.0161	-46039.61
0.9927,0.0073	-46029.19
0.9898,0.0102	-46025.25
0.9929,0.0071	-46034.10
0.9861,0.0139	-46039.30
0.9937,0.0063	-46029.01
0.9869,0.0131	-46030.57
0.9928,0.0072	-46024.24
0.9884,0.0116	-46034.63
0.9939,0.0061	-46028.97
0.9845,0.0155	-46035.37
0.9908,0.0092	-46029.60
0.9891,0.0109	-46043.53
0.9933,0.0067	-46039.08
0.9865,0.0135	-46034.96
0.9938,0.0062	-46028.99
0.9862,0.0138	-46030.75
0.9912,0.0088	-46034.23
0.9881,0.0119	-46030.25
0.9942,0.0058	-46023.78
0.9865,0.0135	-46039.25
0.9952,0.0048	-46023.44
0.9829,0.0171	-46035.71
0.9909,0.0091	-46029.57
0.9889,0.0111	-46034.55
0.9934,0.0066	-46024.06
0.9870,0.0130	-46034.86
0.9953,0.0047	-46023.42
0.9804,0.0196	-46032.39
0.9895,0.0105	-46048.09
0.9874,0.0126	-46030.44
0.9925,0.0075	-46039.00
0.9878,0.0122	-46043.51
0.9946,0.0054	-46028.85
0.9774,0.0226	-46044.58
0.9904,0.0096	-46025.05
0.9824,0.0176	-46035.82
0.9916,0.0084	-46029.42
0.9897,0.0103	-46025.28
0.9945,0.0055	-46034.07
0.9777,0.0223	-46044.52
0.9913,0.0087	-46034.22
0.9816,0.0184	-46047.94
0.9909,0.0091	-46034.27
0.9891,0.0109	-46030.01
0.9936,0.0064	-46023.97
0.9801,0.0199	-46036.37
0.9919,0.0081	-46034.17
0.9806,0.0194	-46055.86
0.9909,0.0091	-46029.58
0.9889,0.0111	-46025.57
0.9927,0.0073	-46029.19
0.9806,0.0194	-46048.02
0.9931,0.0069	-46039.05
0.9775,0.0225	-46055.87
0.9893,0.0107	-46034.48
0.9886,0.0114	-46034.59
0.9940,0.0060	-46023.84
0.9817,0.0183	-46047.94
0.9930,0.0070	-46024.17
0.9799,0.0201	-46040.30
0.9894,0.0106	-46029.93
0.9887,0.0113	-46030.10
0.9956,0.0044	-46023.31
0.9780,0.0220	-46052.07
0.9925,0.0075	-46024.35
0.9766,0.0234	-46052.17
0.9901,0.0099	-46029.77
0.9861,0.0139	-46043.56
0.9957,0.0043	-46028.72
0.9771,0.0229	-46040.87
0.9929,0.0071	-46024.22
0.9755,0.0245	-46037.53
0.9870,0.0130	-46039.20
0.9864,0.0136	-46047.83
0.9962,0.0038	-46034.24
0.9838,0.0162	-46031.40
0.9938,0.0062	-46028.99
0.9768,0.0232	-46052.16
0.9871,0.0129	-46034.86
0.9819,0.0181	-46035.94
0.9950,0.0050	-46044.68
0.9853,0.0147	-46035.21
0.9928,0.0072	-46029.17
0.9783,0.0217	-46033.00
0.9862,0.0138	-46047.83
0.9815,0.0185	-46051.92
0.9946,0.0054	-46028.86
0.9873,0.0127	-46034.82
0.9916,0.0084	-46034.19
0.9749,0.0251	-46055.99
0.9879,0.0121	-46030.32
0.9827,0.0173	-46039.80
0.9953,0.0047	-46028.76
0.9868,0.0132	-46043.54
0.9929,0.0071	-46029.16
0.9770,0.0230	-46055.89
0.9884,0.0116	-46034.62
0.9859,0.0141	-46030.82
0.9947,0.0053	-46023.62
0.9846,0.0154	-46035.33
0.9918,0.0082	-46029.39
0.9783,0.0217	-46048.24
0.9894,0.0106	-46029.93
0.9886,0.0114	-46043.52
0.9946,0.0054	-46023.65
0.9848,0.0152	-46043.64
0.9929,0.0071	-46043.97
0.9811,0.0189	-46063.78
0.9898,0.0102	-46038.99
0.9866,0.0134	-46039.24
0.9937,0.0063	-46023.93
0.9833,0.0167	-46039.70
0.9927,0.0073	-46024.28
0.9863,0.0137	-46039.27
0.9910,0.0090	-46029.55
0.9847,0.0153	-46035.31
0.9941,0.0059	-46023.82
0.9769,0.0231	-46037.18
0.9920,0.0080	-46024.51
0.9881,0.0119	-46034.68
0.9920,0.0080	-46034.16
0.9872,0.0128	-46034.82
0.9931,0.0069	-46029.11
0.9788,0.0212	-46048.19
0.9933,0.0067	-46034.08
0.9909,0.0091	-46029.58
0.9921,0.0079	-46024.50
0.9886,0.0114	-46034.59
0.9933,0.0067	-46029.09
0.9799,0.0201	-46048.08
0.9937,0.0063	-46034.07
0.9920,0.0080	-46024.52
0.9919,0.0081	-46034.16
0.9875,0.0125	-46034.78
0.9933,0.0067	-46029.07
0.9758,0.0242	-46044.86
0.9934,0.0066	-46034.08
0.9924,0.0076	-46024.37
0.9898,0.0102	-46029.83
0.9892,0.0108	-46029.98
0.9937,0.0063	-46029.01
0.9742,0.0258	-46048.78
0.9917,0.0083	-46034.18
0.9936,0.0064	-46029.03
0.9902,0.0098	-46038.97
0.9871,0.0129	-46047.86
0.9938,0.0062	-46044.21
0.9798,0.0202	-46040.31
0.9932,0.0068	-46034.08
0.9933,0.0067	-46034.08
0.9900,0.0100	-46048.17
0.9879,0.0121	-46025.89
0.9933,0.0067	-46029.08
0.9813,0.0187	-46044.00
0.9946,0.0054	-46028.86
0.9938,0.0062	-46034.07
0.9897,0.0103	-46029.87
0.9907,0.0093	-46029.62
0.9928,0.0072	-46034.10
0.9803,0.0197	-46051.95
0.9930,0.0070	-46024.19
0.9922,0.0078	-46024.46
0.9898,0.0102	-46034.40
0.9894,0.0106	-46034.47
0.9933,0.0067	-46029.07
0.9793,0.0207	-46055.85
0.9921,0.0079	-46034.15
0.9935,0.0065	-46024.00
0.9900,0.0100	-46034.39
0.9855,0.0145	-46026.74
0.9934,0.0066	-46034.07
0.9781,0.0219	-46048.26
0.9942,0.0058	-46023.76
0.9932,0.0068	-46029.11
0.9930,0.0070	-46034.09
0.9861,0.0139	-46047.83
0.9949,0.0051	-46028.81
0.9815,0.0185	-46036.04
0.9945,0.0055	-46028.88
0.9937,0.0063	-46039.13
0.9908,0.0092	-46038.96
0.9854,0.0146	-46043.60
0.9953,0.0047	-46028.76
0.9814,0.0186	-46036.05
0.9951,0.0049	-46034.11
0.9939,0.0061	-46034.07
0.9886,0.0114	-46034.59
0.9816,0.0184	-46036.01
0.9956,0.0044	-46023.30
0.9792,0.0208	-46067.41
0.9944,0.0056	-46034.07
0.9939,0.0061	-46023.90
0.9911,0.0089	-46029.52
0.9867,0.0133	-46039.23
0.9959,0.0041	-46028.71
0.9766,0.0234	-46044.71
0.9952,0.0048	-46034.11
0.9937,0.0063	-46034.07
0.9935,0.0065	-46034.07
0.9879,0.0121	-46056.71
0.9969,0.0031	-46022.87
0.9760,0.0240	-46059.64
0.9952,0.0048	-46023.43
0.9930,0.0070	-46024.17
0.9928,0.0072	-46024.24
0.9892,0.0108	-46034.50
0.9976,0.0024	-46022.63
0.9779,0.0221	-46044.50
0.9952,0.0048	-46023.44
0.9932,0.0068	-46029.09
0.9930,0.0070	-46024.17
0.9905,0.0095	-46038.96
0.9979,0.0021	-46022.54
0.9776,0.0224	-46040.76
0.9952,0.0048	-46023.45
0.9932,0.0068	-46029.10
0.9921,0.0079	-46024.48
0.9895,0.0105	-46025.35
0.9981,0.0019	-46028.74
0.9784,0.0216	-46052.04
0.9962,0.0038	-46028.68
0.9941,0.0059	-46034.07
0.9920,0.0080	-46034.16
0.9916,0.0084	-46029.42
0.9977,0.0023	-46022.61
0.9827,0.0173	-46059.99
0.9953,0.0047	-46023.42
0.9930,0.0070	-46029.14
0.9929,0.0071	-46029.17
0.9913,0.0087	-46029.48
0.9978,0.0022	-46022.58
0.9824,0.0176	-46039.85
0.9959,0.0041	-46023.20
0.9934,0.0066	-46034.08
0.9945,0.0055	-46039.27
0.9910,0.0090	-46029.55
0.9977,0.0023	-46028.68
0.9836,0.0164	-46047.84
0.9961,0.0039	-46028.69
0.9919,0.0081	-46029.36
0.9940,0.0060	-46028.96
0.9907,0.0093	-46029.61
0.9975,0.0025	-46022.69
0.9828,0.0172	-46039.79
0.9968,0.0032	-46022.92
0.9925,0.0075	-46024.36
0.9934,0.0066	-46024.06
0.9921,0.0079	-46034.15
0.9967,0.0033	-46022.94
0.9863,0.0137	-46047.83
0.9968,0.0032	-46022.89
0.9929,0.0071	-46024.22
0.9926,0.0074	-46029.21
0.9940,0.0060	-46028.95
0.9959,0.0041	-46023.20
0.9878,0.0122	-46025.95
0.9968,0.0032	-46022.92
0.9926,0.0074	-46029.21
0.9923,0.0077	-46029.28
0.9949,0.0051	-46023.55
0.9966,0.0034	-46022.97
0.9872,0.0128	-46039.18
0.9957,0.0043	-46028.72
0.9928,0.0072	-46034.10
0.9898,0.0102	-46029.84
0.9959,0.0041	-46023.22
0.9972,0.0028	-46028.65
0.9862,0.0138	-46043.56
0.9944,0.0056	-46039.26
0.9936,0.0064	-46023.97
0.9908,0.0092	-46034.28
0.9952,0.0048	-46028.78
0.9973,0.0027	-46022.76
0.9869,0.0131	-46034.90
0.9943,0.0057	-46028.90
0.9939,0.0061	-46028.97
0.9916,0.0084	-46038.97
0.9939,0.0061	-46023.87
0.9971,0.0029	-46028.65
0.9846,0.0154	-46035.35
0.9952,0.0048	-46028.77
0.9935,0.0065	-46029.05
0.9912,0.0088	-46034.23
0.9948,0.0052	-46028.83
0.9967,0.0033	-46028.65
0.9845,0.0155	-46035.37
0.9957,0.0043	-46023.26
0.9934,0.0066	-46029.06
0.9910,0.0090	-46029.56
0.9942,0.0058	-46023.79
0.9955,0.0045	-46023.34
0.9823,0.0177	-46043.88
0.9962,0.0038	-46028.68
0.9935,0.0065	-46024.03
0.9882,0.0118	-46043.51
0.9946,0.0054	-46039.29
0.9943,0.0057	-46028.91
0.9821,0.0179	-46043.91
0.9966,0.0034	-46022.97
0.9942,0.0058	-46028.92
0.9886,0.0114	-46034.60
0.9947,0.0053	-46034.08
0.9949,0.0051	-46023.53
0.9806,0.0194	-46040.17
0.9962,0.0038	-46023.11
0.9940,0.0060	-46023.84
0.9919,0.0081	-46029.36
0.9940,0.0060	-46028.96
0.9946,0.0054	-46028.85
0.9824,0.0176	-46043.87
0.9974,0.0026	-46022.72
0.9918,0.0082	-46024.59
0.9893,0.0107	-46039.01
0.9937,0.0063	-46023.94
0.9960,0.0040	-46028.69
0.9829,0.0171	-46051.92
0.9968,0.0032	-46022.91
0.9925,0.0075	-46024.36
0.9867,0.0133	-46034.93
0.9924,0.0076	-46034.13
0.9957,0.0043	-46023.27
0.9853,0.0147	-46039.40
0.9974,0.0026	-46028.66
0.9933,0.0067	-46024.09
0.9879,0.0121	-46034.70
0.9912,0.0088	-46043.68
0.9957,0.0043	-46023.27
0.9858,0.0142	-46060.53
0.9976,0.0024	-46022.63
0.9937,0.0063	-46023.96
0.9871,0.0129	-46034.84
0.9893,0.0107	-46034.48
0.9964,0.0036	-46023.03
0.9874,0.0126	-46034.81
0.9983,0.0017	-46022.43
0.9931,0.0069	-46039.06
0.9883,0.0117	-46039.08
0.9885,0.0115	-46025.71
0.9964,0.0036	-46034.28
0.9864,0.0136	-46039.27
0.9978,0.0022	-46022.58
0.9912,0.0088	-46029.52
0.9861,0.0139	-46035.04
0.9887,0.0113	-46030.12
0.9968,0.0032	-46028.65
0.9857,0.0143	-46039.35
0.9976,0.0024	-46022.66
0.9888,0.0112	-46039.04
0.9843,0.0157	-46031.28
0.9914,0.0086	-46038.96
0.9966,0.0034	-46028.66
0.9869,0.0131	-46039.21
0.9973,0.0027	-46028.66
0.9905,0.0095	-46034.32
0.9845,0.0155	-46027.05
0.9900,0.0100	-46048.17
0.9961,0.0039	-46028.69
0.9889,0.0111	-46030.05
0.9966,0.0034	-46022.96
0.9935,0.0065	-46024.02
0.9840,0.0160	-46051.95
0.9895,0.0105	-46025.36
0.9966,0.0034	-46034.34
0.9870,0.0130	-46043.53
0.9965,0.0035	-46022.99
0.9936,0.0064	-46023.97
0.9834,0.0166	-46039.69
0.9913,0.0087	-46029.49
0.9969,0.0031	-46022.87
0.9894,0.0106	-46025.40
0.9963,0.0037	-46023.09
0.9941,0.0059	-46028.94
0.9759,0.0241	-46037.43
0.9912,0.0088	-46034.23
0.9968,0.0032	-46028.65
0.9917,0.0083	-46029.41
0.9969,0.0031	-46022.86
0.9925,0.0075	-46034.12
0.9745,0.0255	-46048.74
0.9922,0.0078	-46038.99
0.9972,0.0028	-46022.77
0.9912,0.0088	-46038.96
0.9967,0.0033	-46028.65
0.9939,0.0061	-46034.07
0.9613,0.0387	-46054.45
0.9936,0.0064	-46023.98
0.9977,0.0023	-46022.59
0.9925,0.0075	-46029.24
0.9962,0.0038	-46023.11
0.9939,0.0061	-46039.16
0.9601,0.0399	-46051.50
0.9948,0.0052	-46039.35
0.9975,0.0025	-46028.67
0.9913,0.0087	-46053.16
0.9956,0.0044	-46023.29
0.9949,0.0051	-46028.82
0.9573,0.0427	-46058.39
0.9946,0.0054	-46028.86
0.9977,0.0023	-46022.61
0.9901,0.0099	-46043.58
0.9955,0.0045	-46023.33
0.9938,0.0062	-46028.99
0.9611,0.0389	-46057.70
0.9948,0.0052	-46028.84
0.9980,0.0020	-46022.53
0.9906,0.0094	-46025.00
0.9963,0.0037	-46023.06
0.9914,0.0086	-46029.48
0.9613,0.0387	-46064.09
0.9945,0.0055	-46023.67
0.9975,0.0025	-46028.67
0.9924,0.0076	-46024.38
0.9964,0.0036	-46028.66
0.9904,0.0096	-46025.05
0.9661,0.0339	-46060.27
0.9937,0.0063	-46034.07
0.9978,0.0022	-46028.69
0.9908,0.0092	-46038.96
0.9967,0.0033	-46040.05
0.9906,0.0094	-46038.96
0.9701,0.0299	-46056.41
0.9935,0.0065	-46034.07
0.9979,0.0021	-46028.71
0.9909,0.0091	-46029.58
0.9959,0.0041	-46034.20
0.9908,0.0092	-46034.28
0.9702,0.0298	-46049.44
0.9937,0.0063	-46029.01
0.9983,0.0017	-46022.42
0.9896,0.0104	-46034.44
0.9962,0.0038	-46023.09
0.9922,0.0078	-46029.30
0.9667,0.0333	-46050.10
0.9932,0.0068	-46029.10
0.9983,0.0017	-46022.40
0.9891,0.0109	-46034.52
0.9967,0.0033	-46028.65
0.9939,0.0061	-46034.07
0.9603,0.0397	-46064.21
0.9916,0.0084	-46038.97
0.9982,0.0018	-46028.76
0.9908,0.0092	-46034.28
0.9965,0.0035	-46028.66
0.9939,0.0061	-46023.88
0.9576,0.0424	-46064.56
0.9902,0.0098	-46038.97
0.9988,0.0012	-46022.26
0.9887,0.0113	-46034.58
0.9961,0.0039	-46023.16
0.9938,0.0062	-46023.91
0.9652,0.0348	-46047.08
0.9910,0.0090	-46024.87
0.9989,0.0011	-46035.82
0.9847,0.0153	-46039.49
0.9959,0.0041	-46028.70
0.9938,0.0062	-46023.91
0.9609,0.0391	-46044.94
0.9907,0.0093	-46029.63
0.9989,0.0011	-46022.21
0.9845,0.0155	-46047.82
0.9956,0.0044	-46023.29
0.9939,0.0061	-46034.07
0.9596,0.0404	-46073.80
0.9912,0.0088	-46029.51
0.9991,0.0009	-46022.13
0.9819,0.0181	-46039.94
0.9964,0.0036	-46023.04
0.9955,0.0045	-46028.74
0.9667,0.0333	-46050.09
0.9909,0.0091	-46034.27
0.9991,0.0009	-46022.15
0.9831,0.0169	-46043.80
0.9972,0.0028	-46022.78
0.9952,0.0048	-46023.46
0.9690,0.0310	-46046.22
0.9930,0.0070	-46034.09
0.9990,0.0010	-46022.18
0.9806,0.0194	-46028.39
0.9972,0.0028	-46028.65
0.9944,0.0056	-46028.88
0.9684,0.0316	-46060.03
0.9933,0.0067	-46024.09
0.9991,0.0009	-46029.15
0.9829,0.0171	-46031.67
0.9974,0.0026	-46028.66
0.9955,0.0045	-46028.74
0.9741,0.0259	-46059.67
0.9943,0.0057	-46034.07
0.9992,0.0008	-46022.10
0.9839,0.0161	-46043.72
0.9975,0.0025	-46022.69
0.9964,0.0036	-46023.05
0.9738,0.0262	-46045.23
0.9937,0.0063	-46023.95
0.9993,0.0007	-46022.09
0.9854,0.0146	-46035.18
0.9976,0.0024	-46022.66
0.9957,0.0043	-46028.72
0.9725,0.0275	-46049.04
0.9947,0.0053	-46023.62
0.9991,0.0009	-46022.14
0.9880,0.0120	-46030.28
0.9977,0.0023	-46022.61
0.9959,0.0041	-46034.19
0.9718,0.0282	-46049.16
0.9928,0.0072	-46029.17
0.9991,0.0009	-46022.15
0.9882,0.0118	-46039.09
0.9979,0.0021	-46022.54
0.9947,0.0053	-46023.60
0.9639,0.0361	-46070.38
0.9923,0.0077	-46024.42
0.9990,0.0010	-46035.95
0.9902,0.0098	-46043.59
0.9984,0.0016	-46022.38
0.9954,0.0046	-46028.75
0.9605,0.0395	-46060.99
0.9928,0.0072	-46034.10
0.9990,0.0010	-46022.18
0.9891,0.0109	-46030.01
0.9984,0.0016	-46022.36
0.9942,0.0058	-46034.07
0.9543,0.0457	-46043.77
0.9942,0.0058	-46023.78
0.9990,0.0010	-46022.19
0.9914,0.0086	-46024.73
0.9985,0.0015	-46022.33
0.9944,0.0056	-46028.88
0.9455,0.0545	-46095.14
0.9945,0.0055	-46028.87
0.9992,0.0008	-46022.11
0.9901,0.0099	-46048.18
0.9984,0.0016	-46022.36
0.9942,0.0058	-46023.76
0.9425,0.0575	-46081.19
0.9946,0.0054	-46034.08
0.9992,0.0008	-46022.09
0.9898,0.0102	-46043.56
0.9984,0.0016	-46028.82
0.9953,0.0047	-46028.76
0.9531,0.0469	-46062.24
0.9948,0.0052	-46028.83
0.9991,0.0009	-46022.14
0.9922,0.0078	-46029.29
0.9984,0.0016	-46028.81
0.9954,0.0046	-46034.13
0.9536,0.0464	-46059.13
0.9942,0.0058	-46028.92
0.9989,0.0011	-46022.19
0.9922,0.0078	-46034.14
0.9982,0.0018	-46022.45
0.9957,0.0043	-46023.27
0.9619,0.0381	-46067.25
0.9944,0.0056	-46023.70
0.9986,0.0014	-46022.32
0.9930,0.0070	-46024.18
0.9986,0.0014	-46022.31
0.9954,0.0046	-46028.76
0.9672,0.0328	-46053.39
0.9950,0.0050	-46034.10
0.9987,0.0013	-46028.90
0.9905,0.0095	-46025.04
0.9983,0.0017	-46022.40
0.9955,0.0045	-46028.75
0.9669,0.0331	-46060.18
0.9942,0.0058	-46028.92
0.9986,0.0014	-46022.30
0.9907,0.0093	-46029.62
0.9984,0.0016	-46022.38
0.9953,0.0047	-46034.12
0.9659,0.0341	-46060.29
0.9934,0.0066	-46029.06
0.9984,0.0016	-46028.80
0.9890,0.0110	-46030.04
0.9982,0.0018	-46022.44
0.9951,0.0049	-46023.48
0.9554,0.0446	-46055.68
0.9930,0.0070	-46039.05
0.9986,0.0014	-46028.87
0.9895,0.0105	-46029.92
0.9984,0.0016	-46022.38
0.9955,0.0045	-46023.34
0.9578,0.0422	-46064.53
0.9942,0.0058	-46028.93
0.9985,0.0015	-46028.84
0.9901,0.0099	-46034.37
0.9985,0.0015	-46022.33
0.9972,0.0028	-46028.65
0.9532,0.0468	-46080.30
0.9949,0.0051	-46023.53
0.9987,0.0013	-46022.27
0.9912,0.0088	-46029.50
0.9982,0.0018	-46022.46
0.9968,0.0032	-46028.65
0.9579,0.0421	-46058.28
0.9950,0.0050	-46028.80
0.9986,0.0014	-46022.33
0.9914,0.0086	-46029.46
0.9986,0.0014	-46028.87
0.9964,0.0036	-46023.06
0.9644,0.0356	-46060.47
0.9939,0.0061	-46028.97
0.9983,0.0017	-46022.40
0.9915,0.0085	-46024.70
0.9985,0.0015	-46022.34
0.9969,0.0031	-46022.87
0.9755,0.0245	-46044.90
0.9927,0.0073	-46024.30
0.9982,0.0018	-46022.44
0.9917,0.0083	-46029.40
0.9979,0.0021	-46022.54
0.9978,0.0022	-46022.59
0.9767,0.0233	-46037.22
0.9914,0.0086	-46029.47
0.9976,0.0024	-46022.65
0.9900,0.0100	-46038.98
0.9979,0.0021	-46022.53
0.9978,0.0022	-46028.69
0.9745,0.0255	-46056.02
0.9913,0.0087	-46029.49
0.9967,0.0033	-46028.65
0.9890,0.0110	-46034.54
0.9975,0.0025	-46028.66
0.9974,0.0026	-46022.71
0.9743,0.0257	-46048.75
0.9907,0.0093	-46029.64
0.9966,0.0034	-46022.97
0.9892,0.0108	-46034.49
0.9981,0.0019	-46028.74
0.9977,0.0023	-46022.61
0.9759,0.0241	-46048.53
0.9930,0.0070	-46034.09
0.9972,0.0028	-46022.79
0.9914,0.0086	-46024.74
0.9982,0.0018	-46022.43
0.9974,0.0026	-46022.72
0.9763,0.0237	-46052.20
0.9932,0.0068	-46034.08
0.9976,0.0024	-46022.63
0.9912,0.0088	-46034.23
0.9986,0.0014	-46022.31
0.9971,0.0029	-46028.65
0.9780,0.0220	-46052.06
0.9913,0.0087	-46043.70
0.9972,0.0028	-46022.76
0.9921,0.0079	-46029.32
0.9983,0.0017	-46028.79
0.9970,0.0030	-46022.86
0.9767,0.0233	-46059.64
0.9889,0.0111	-46043.52
0.9975,0.0025	-46022.69
0.9904,0.0096	-46029.69
0.9980,0.0020	-46022.50
0.9974,0.0026	-46028.66
0.9721,0.0279	-46073.97
0.9876,0.0124	-46034.76
0.9976,0.0024	-46028.68
0.9906,0.0094	-46043.62
0.9975,0.0025	-46022.66
0.9978,0.0022	-46028.69
0.9661,0.0339	-46040.18
0.9884,0.0116	-46034.62
0.9981,0.0019	-46022.47
0.9898,0.0102	-46038.99
0.9970,0.0030	-46022.84
0.9981,0.0019	-46022.48
0.9635,0.0365	-46057.30
0.9915,0.0085	-46029.45
0.9980,0.0020	-46028.73
0.9899,0.0101	-46029.80
0.9972,0.0028	-46028.65
0.9981,0.0019	-46022.46
0.9560,0.0440	-46067.88
0.9899,0.0101	-46038.98
0.9981,0.0019	-46028.75
0.9908,0.0092	-46034.29
0.9962,0.0038	-46028.68
0.9981,0.0019	-46022.46
0.9636,0.0364	-46040.91
0.9904,0.0096	-46029.70
0.9983,0.0017	-46028.78
0.9913,0.0087	-46029.50
0.9957,0.0043	-46023.26
0.9982,0.0018	-46022.43
0.9633,0.0367	-46044.26
0.9912,0.0088	-46024.79
0.9985,0.0015	-46022.35
0.9918,0.0082	-46029.38
0.9964,0.0036	-46028.66
0.9977,0.0023	-46028.68
0.9562,0.0438	-46046.27
0.9914,0.0086	-46034.21
0.9989,0.0011	-46035.77
0.9914,0.0086	-46038.96
0.9971,0.0029	-46034.47
0.9977,0.0023	-46022.59
0.9541,0.0459	-46059.02
0.9921,0.0079	-46029.33
0.9986,0.0014	-46022.30
0.9901,0.0099	-46029.76
0.9977,0.0023	-46022.62
0.9977,0.0023	-46022.60
0.9522,0.0478	-46053.42
0.9921,0.0079	-46024.49
0.9988,0.0012	-46022.24
0.9886,0.0114	-46025.67
0.9974,0.0026	-46028.66
0.9977,0.0023	-46034.75
0.9528,0.0472	-46080.32
0.9918,0.0082	-46034.18
0.9987,0.0013	-46022.27
0.9905,0.0095	-46029.68
0.9977,0.0023	-46022.62
0.9977,0.0023	-46034.75
0.9626,0.0374	-46067.19
0.9930,0.0070	-46034.09
0.9988,0.0012	-46022.24
0.9884,0.0116	-46034.63
0.9978,0.0022	-46022.58
0.9977,0.0023	-46022.61
0.9678,0.0322	-46043.09
0.9929,0.0071	-46024.21
0.9987,0.0013	-46022.28
0.9905,0.0095	-46034.32
0.9982,0.0018	-46022.43
0.9982,0.0018	-46028.77
0.9682,0.0318	-46056.64
0.9932,0.0068	-46029.10
0.9987,0.0013	-46022.26
0.9915,0.0085	-46034.20
0.9976,0.0024	-46022.65
0.9981,0.0019	-46022.48
0.9608,0.0392	-46064.14
0.9925,0.0075	-46024.37
0.9987,0.0013	-46022.29
0.9908,0.0092	-46038.96
0.9976,0.0024	-46022.65
0.9979,0.0021	-46022.55
0.9505,0.0495	-46077.50
0.9918,0.0082	-46029.38
0.9986,0.0014	-46022.30
0.9896,0.0104	-46043.55
0.9976,0.0024	-46022.64
0.9975,0.0025	-46022.69
0.9445,0.0555	-46075.30
0.9906,0.0094	-46034.31
0.9986,0.0014	-46022.32
0.9914,0.0086	-46024.71
0.9979,0.0021	-46028.70
0.9971,0.0029	-46028.65
0.9441,0.0559	-46081.02
0.9902,0.0098	-46043.58
0.9985,0.0015	-46022.33
0.9934,0.0066	-46024.04
0.9974,0.0026	-46022.69
0.9971,0.0029	-46034.48
0.9527,0.0473	-46071.32
0.9892,0.0108	-46034.50
0.9982,0.0018	-46022.43
0.9929,0.0071	-46034.10
0.9971,0.0029	-46034.51
0.9963,0.0037	-46028.67
0.9502,0.0498	-46068.68
0.9895,0.0105	-46034.46
0.9979,0.0021	-46022.54
0.9928,0.0072	-46039.03
0.9964,0.0036	-46023.04
0.9965,0.0035	-46028.66
0.9551,0.0449	-46067.98
0.9873,0.0127	-46030.47
0.9979,0.0021	-46022.56
0.9936,0.0064	-46029.03
0.9968,0.0032	-46028.65
0.9972,0.0028	-46022.76
0.9561,0.0439	-46061.69
0.9869,0.0131	-46030.57
0.9982,0.0018	-46028.77
0.9915,0.0085	-46029.44
0.9962,0.0038	-46023.11
0.9973,0.0027	-46022.75
0.9658,0.0342	-46070.32
0.9875,0.0125	-46034.77
0.9978,0.0022	-46028.69
0.9924,0.0076	-46029.26
0.9967,0.0033	-46022.95
0.9979,0.0021	-46028.71
0.9699,0.0301	-46066.85
0.9872,0.0128	-46026.14
0.9980,0.0020	-46022.52
0.9916,0.0084	-46038.97
0.9966,0.0034	-46022.99
0.9982,0.0018	-46022.43
0.9759,0.0241	-46041.13
0.9855,0.0145	-46030.93
0.9975,0.0025	-46028.66
0.9914,0.0086	-46048.45
0.9965,0.0035	-46023.02
0.9984,0.0016	-46035.26
0.9779,0.0221	-46040.69
0.9842,0.0158	-46039.56
0.9973,0.0027	-46028.65
0.9906,0.0094	-46029.64
0.9970,0.0030	-46022.84
0.9984,0.0016	-46022.37
0.9821,0.0179	-46039.90
0.9826,0.0174	-46043.85
0.9977,0.0023	-46022.61
0.9927,0.0073	-46034.11
0.9968,0.0032	-46034.40
0.9983,0.0017	-46022.40
0.9814,0.0186	-46051.92
0.9838,0.0162	-46043.73
0.9974,0.0026	-46022.69
0.9907,0.0093	-46038.96
0.9964,0.0036	-46034.28
0.9985,0.0015	-46028.86
0.9807,0.0193	-46036.22
0.9832,0.0168	-46031.56
0.9971,0.0029	-46022.82
0.9908,0.0092	-46024.91
0.9959,0.0041	-46028.70
0.9981,0.0019	-46028.74
0.9809,0.0191	-46047.99
0.9803,0.0197	-46051.95
0.9976,0.0024	-46022.64
0.9916,0.0084	-46038.97
0.9968,0.0032	-46022.91
0.9980,0.0020	-46028.72
0.9835,0.0165	-46035.58
0.9801,0.0199	-46048.06
0.9978,0.0022	-46022.59
0.9929,0.0071	-46034.10
0.9971,0.0029	-46022.79
0.9985,0.0015	-46035.31
0.9855,0.0145	-46039.38
0.9802,0.0198	-46048.05
0.9978,0.0022	-46022.58
0.9920,0.0080	-46024.51
0.9969,0.0031	-46034.41
0.9981,0.0019	-46028.75
0.9884,0.0116	-46034.63
0.9842,0.0158	-46035.43
0.9977,0.0023	-46028.69
0.9912,0.0088	-46038.96
0.9970,0.0030	-46028.65
0.9981,0.0019	-46028.74
0.9915,0.0085	-46024.70
0.9852,0.0148	-46047.81
0.9977,0.0023	-46028.68
0.9905,0.0095	-46043.61
0.9970,0.0030	-46040.28
0.9980,0.0020	-46022.52
0.9918,0.0082	-46034.17
0.9886,0.0114	-46025.67
0.9968,0.0032	-46028.65
0.9887,0.0113	-46034.57
0.9976,0.0024	-46028.67
0.9983,0.0017	-46022.41
0.9940,0.0060	-46028.95
0.9879,0.0121	-46030.31
0.9969,0.0031	-46028.65
0.9892,0.0108	-46034.49
0.9974,0.0026	-46022.72
0.9979,0.0021	-46022.54
0.9944,0.0056	-46023.73
0.9873,0.0127	-46052.23
0.9965,0.0035	-46023.00
0.9897,0.0103	-46038.99
0.9976,0.0024	-46028.67
0.9980,0.0020	-46022.51
0.9954,0.0046	-46023.36
0.9885,0.0115	-46043.52
0.9962,0.0038	-46028.68
0.9910,0.0090	-46029.56
0.9975,0.0025	-46022.68
0.9982,0.0018	-46028.75
0.9956,0.0044	-46028.73
0.9897,0.0103	-46029.86
0.9959,0.0041	-46023.20
0.9918,0.0082	-46029.39
0.9975,0.0025	-46022.68
0.9984,0.0016	-46022.37
0.9957,0.0043	-46028.72
0.9914,0.0086	-46024.71
0.9960,0.0040	-46028.70
0.9908,0.0092	-46038.96
0.9978,0.0022	-46022.58
0.9984,0.0016	-46022.38
0.9950,0.0050	-46034.10
0.9919,0.0081	-46043.78
0.9969,0.0031	-46022.86
0.9916,0.0084	-46034.20
0.9982,0.0018	-46028.76
0.9984,0.0016	-46022.39
0.9951,0.0049	-46034.11
0.9925,0.0075	-46029.23
0.9972,0.0028	-46034.53
0.9927,0.0073	-46034.11
0.9984,0.0016	-46028.83
0.9983,0.0017	-46022.40
0.9952,0.0048	-46028.78
0.9924,0.0076	-46039.00
0.9970,0.0030	-46028.65
0.9920,0.0080	-46029.34
0.9985,0.0015	-46022.35
0.9984,0.0016	-46028.80
0.9940,0.0060	-46028.96
0.9894,0.0106	-46034.46
0.9971,0.0029	-46028.65
0.9916,0.0084	-46034.20
0.9987,0.0013	-46022.27
0.9985,0.0015	-46022.33
0.9941,0.0059	-46028.94
0.9916,0.0084	-46029.43
0.9965,0.0035	-46028.66
0.9917,0.0083	-46029.40
0.9986,0.0014	-46022.31
0.9985,0.0015	-46022.35
0.9930,0.0070	-46029.13
0.9903,0.0097	-46029.72
0.9962,0.0038	-46023.09
0.9905,0.0095	-46034.32
0.9988,0.0012	-46022.26
0.9987,0.0013	-46022.26
0.9924,0.0076	-46029.25
0.9912,0.0088	-46024.77
0.9962,0.0038	-46034.24
0.9874,0.0126	-46026.07
0.9988,0.0012	-46022.24
0.9989,0.0011	-46022.22
0.9934,0.0066	-46034.08
0.9917,0.0083	-46024.61
0.9959,0.0041	-46023.22
0.9861,0.0139	-46035.04
0.9987,0.0013	-46022.28
0.9990,0.0010	-46029.06
0.9933,0.0067	-46029.07
0.9912,0.0088	-46029.51
0.9965,0.0035	-46028.66
0.9887,0.0113	-46025.64
0.9988,0.0012	-46022.23
0.9990,0.0010	-46022.17
0.9946,0.0054	-46028.86
0.9905,0.0095	-46034.31
0.9972,0.0028	-46022.79
0.9889,0.0111	-46025.57
0.9987,0.0013	-46022.29
0.9989,0.0011	-46022.22
0.9951,0.0049	-46023.49
0.9888,0.0112	-46025.60
0.9975,0.0025	-46022.68
0.9888,0.0112	-46034.57
0.9987,0.0013	-46022.28
0.9990,0.0010	-46029.06
0.9961,0.0039	-46023.13
0.9911,0.0089	-46043.67
0.9978,0.0022	-46022.58
0.9874,0.0126	-46030.43
0.9987,0.0013	-46022.28
0.9990,0.0010	-46022.19
0.9947,0.0053	-46023.60
0.9917,0.0083	-46029.41
0.9977,0.0023	-46022.60
0.9874,0.0126	-46030.44
0.9983,0.0017	-46028.79
0.9990,0.0010	-46022.16
0.9945,0.0055	-46023.68
0.9911,0.0089	-46034.25
0.9979,0.0021	-46028.70
0.9875,0.0125	-46030.41
0.9984,0.0016	-46022.37
0.9990,0.0010	-46022.16
0.9946,0.0054	-46023.64
0.9919,0.0081	-46024.54
0.9984,0.0016	-46041.73
0.9853,0.0147	-46039.41
0.9987,0.0013	-46022.28
0.9992,0.0008	-46022.11
0.9942,0.0058	-46023.79
0.9922,0.0078	-46034.14
0.9981,0.0019	-46022.46
0.9837,0.0163	-46047.84
0.9986,0.0014	-46022.32
0.9992,0.0008	-46022.11
0.9941,0.0059	-46028.93
0.9909,0.0091	-46034.27
0.9989,0.0011	-46022.22
0.9866,0.0134	-46052.14
0.9987,0.0013	-46022.29
0.9991,0.0009	-46022.13
0.9952,0.0048	-46023.43
0.9905,0.0095	-46038.96
0.9988,0.0012	-46022.25
0.9842,0.0158	-46035.42
0.9986,0.0014	-46022.30
0.9991,0.0009	-46022.14
0.9949,0.0051	-46023.55
0.9915,0.0085	-46034.20
0.9985,0.0015	-46022.34
0.9782,0.0218	-46052.05
0.9987,0.0013	-46022.28
0.9990,0.0010	-46022.18
0.9956,0.0044	-46023.31
0.9914,0.0086	-46034.21
0.9987,0.0013	-46022.27
0.9761,0.0239	-46044.80
0.9988,0.0012	-46022.25
0.9990,0.0010	-46022.19
0.9955,0.0045	-46028.74
0.9920,0.0080	-46029.35
0.9985,0.0015	-46022.34
0.9823,0.0177	-46035.86
0.9989,0.0011	-46022.22
0.9989,0.0011	-46022.21
0.9948,0.0052	-46034.08
0.9932,0.0068	-46034.08
0.9983,0.0017	-46022.41
0.9836,0.0164	-46043.74
0.9989,0.0011	-46022.20
0.9990,0.0010	-46022.18
0.9948,0.0052	-46034.09
0.9913,0.0087	-46029.50
0.9980,0.0020	-46022.50
0.9837,0.0163	-46047.84
0.9990,0.0010	-46022.16
0.9991,0.0009	-46022.15
0.9940,0.0060	-46028.95
0.9888,0.0112	-46034.56
0.9981,0.0019	-46022.47
0.9815,0.0185	-46051.92
0.9989,0.0011	-46022.21
0.9990,0.0010	-46022.18
0.9942,0.0058	-46028.93
0.9862,0.0138	-46043.56
0.9981,0.0019	-46022.47
0.9821,0.0179	-46039.89
0.9987,0.0013	-46028.94
0.9989,0.0011	-46022.22
0.9956,0.0044	-46039.57
0.9857,0.0143	-46060.52
0.9979,0.0021	-46022.55
0.9733,0.0267	-46048.91
0.9984,0.0016	-46022.37
0.9986,0.0014	-46022.30
0.9961,0.0039	-46028.69
0.9873,0.0127	-46039.17
0.9979,0.0021	-46022.53
0.9766,0.0234	-46037.24
0.9980,0.0020	-46022.51
0.9986,0.0014	-46028.88
0.9953,0.0047	-46023.42
0.9852,0.0148	-46035.21
