#isoforms=['ENSG00000110080.SE.2.A.up_ENSG00000110080.SE.2.A.SE1_ENSG00000110080.SE.2.A.dn','ENSG00000110080.SE.2.B.up_ENSG00000110080.SE.2.B.dn']	exon_lens=('ENSG00000110080.SE.2.A.up',61),('ENSG00000110080.SE.2.A.SE1',96),('ENSG00000110080.SE.2.A.dn',190),('ENSG00000110080.SE.2.B.up',61),('ENSG00000110080.SE.2.B.dn',190)	iters=5000	burn_in=500	lag=10	percent_accept=97.03	proposal_type=drift	counts=(0,0):4,(1,0):3,(1,1):13	assigned_counts=0:9,1:7	chrom=chr11	strand=+	mRNA_starts=126407574,126407574	mRNA_ends=126408496,126408496
sampled_psi	log_score
0.3566,0.6434	-99.08
0.6003,0.3997	-99.70
0.2587,0.7413	-96.88
0.5827,0.4173	-101.12
0.6531,0.3469	-101.44
0.5687,0.4313	-100.69
0.3791,0.6209	-100.69
0.6686,0.3314	-98.83
0.2263,0.7737	-100.38
0.5860,0.4140	-100.81
0.6668,0.3332	-100.92
0.6038,0.3962	-100.10
0.2994,0.7006	-97.23
0.6944,0.3056	-99.54
0.2300,0.7700	-97.92
0.5605,0.4395	-100.40
0.6869,0.3131	-100.32
0.6349,0.3651	-100.13
0.3203,0.6797	-98.96
0.7115,0.2885	-97.76
0.2098,0.7902	-97.96
0.4570,0.5430	-100.24
0.7024,0.2976	-98.69
0.6206,0.3794	-100.60
0.2897,0.7103	-98.03
0.7159,0.2841	-100.51
0.2012,0.7988	-102.14
0.3995,0.6005	-101.80
0.6606,0.3394	-100.20
0.5872,0.4128	-100.11
0.3189,0.6811	-98.95
0.6398,0.3602	-98.99
0.2100,0.7900	-96.64
0.3616,0.6384	-100.81
0.6466,0.3534	-98.95
0.6114,0.3886	-100.10
0.3370,0.6630	-101.03
0.7278,0.2722	-98.63
0.2084,0.7916	-96.63
0.3686,0.6314	-100.76
0.6996,0.3004	-98.70
0.6061,0.3939	-99.24
0.3014,0.6986	-98.09
0.7521,0.2479	-99.73
0.2098,0.7902	-100.62
0.3950,0.6050	-100.17
0.7094,0.2906	-96.89
0.6028,0.3972	-100.52
0.2630,0.7370	-97.94
0.7413,0.2587	-98.62
0.2578,0.7422	-97.93
0.4062,0.5938	-101.30
0.6649,0.3351	-99.53
0.5930,0.4070	-99.73
0.2760,0.7240	-103.76
0.7197,0.2803	-99.59
0.2593,0.7407	-97.93
0.3883,0.6117	-99.27
0.6351,0.3649	-101.24
0.6106,0.3894	-101.45
0.2588,0.7412	-100.04
0.7011,0.2989	-98.70
0.2956,0.7044	-101.53
0.4237,0.5763	-100.78
0.6160,0.3840	-99.16
0.6237,0.3763	-99.61
0.2505,0.7495	-101.21
0.6924,0.3076	-99.54
0.2898,0.7102	-98.93
0.3629,0.6371	-101.93
0.6298,0.3702	-98.00
0.6440,0.3560	-101.34
0.2081,0.7919	-97.97
0.7084,0.2916	-99.56
0.3024,0.6976	-98.93
0.3479,0.6521	-99.04
0.6177,0.3823	-100.11
0.6584,0.3416	-97.57
0.2759,0.7241	-101.84
0.7347,0.2653	-98.63
0.2399,0.7601	-99.07
0.3780,0.6220	-101.19
0.6658,0.3342	-99.53
0.7146,0.2854	-102.33
0.2920,0.7080	-98.93
0.7775,0.2225	-103.65
0.2512,0.7488	-97.92
0.3532,0.6468	-99.07
0.6452,0.3548	-99.56
0.7324,0.2676	-99.63
0.3091,0.6909	-100.54
0.7672,0.2328	-97.43
0.2449,0.7551	-97.92
0.3805,0.6195	-100.19
0.6421,0.3579	-99.56
0.7373,0.2627	-96.56
0.3394,0.6606	-99.68
0.7598,0.2402	-99.77
0.2000,0.8000	-100.78
0.3543,0.6457	-98.47
0.6372,0.3628	-100.70
0.7407,0.2593	-100.72
0.2933,0.7067	-99.81
0.7538,0.2462	-99.74
0.2293,0.7707	-97.92
0.3290,0.6710	-100.40
0.6553,0.3447	-100.18
0.7585,0.2415	-99.76
0.2734,0.7266	-96.99
0.7288,0.2712	-97.64
0.3022,0.6978	-100.60
0.3323,0.6677	-98.99
0.6232,0.3768	-101.12
0.7002,0.2998	-100.40
0.2629,0.7371	-96.91
0.7180,0.2820	-99.59
0.2666,0.7334	-99.97
0.3609,0.6391	-100.82
0.6026,0.3974	-99.69
0.7125,0.2875	-99.57
0.2190,0.7810	-95.39
0.7343,0.2657	-97.61
0.2763,0.7237	-98.94
0.4510,0.5490	-100.02
0.6466,0.3534	-100.16
0.6880,0.3120	-98.74
0.2283,0.7717	-100.36
0.7123,0.2877	-99.57
0.3049,0.6951	-99.76
0.4853,0.5147	-100.47
0.6474,0.3526	-98.94
0.7488,0.2512	-97.52
0.1993,0.8007	-95.23
0.7313,0.2687	-99.63
0.2872,0.7128	-98.02
0.4470,0.5530	-101.27
0.6386,0.3614	-100.71
0.7275,0.2725	-99.62
0.2060,0.7940	-99.33
0.7652,0.2348	-96.26
0.2836,0.7164	-99.86
0.4909,0.5091	-100.52
0.6389,0.3611	-100.14
0.6981,0.3019	-99.54
0.2275,0.7725	-96.70
0.7469,0.2531	-97.53
0.2621,0.7379	-97.94
0.5130,0.4870	-100.51
0.6493,0.3507	-100.78
0.7005,0.2995	-99.55
0.2705,0.7295	-98.95
0.7563,0.2437	-97.49
0.3118,0.6882	-98.94
0.5023,0.4977	-100.42
0.6116,0.3884	-100.56
0.5864,0.4136	-99.76
0.2778,0.7222	-99.89
0.7713,0.2287	-97.42
0.2846,0.7154	-98.93
0.4780,0.5220	-99.87
0.6419,0.3581	-101.31
0.5257,0.4743	-100.29
0.2819,0.7181	-99.87
0.7904,0.2096	-101.33
0.2941,0.7059	-99.80
0.4870,0.5130	-100.30
0.6446,0.3554	-101.34
0.5823,0.4177	-99.79
0.2932,0.7068	-98.05
0.7962,0.2038	-97.33
0.2845,0.7155	-97.09
0.4620,0.5380	-100.25
0.6830,0.3170	-100.30
0.5769,0.4231	-100.75
0.2836,0.7164	-97.08
0.7637,0.2363	-98.62
0.2738,0.7262	-98.94
0.4802,0.5198	-100.24
0.6428,0.3572	-100.15
0.5937,0.4063	-99.73
0.2552,0.7448	-99.00
0.7821,0.2179	-96.10
0.2571,0.7429	-97.93
0.4603,0.5397	-100.25
0.5965,0.4035	-99.71
0.5571,0.4429	-100.63
0.2941,0.7059	-99.80
0.8049,0.1951	-97.31
0.3222,0.6778	-101.19
0.4569,0.5431	-100.41
0.6017,0.3983	-100.52
0.5179,0.4821	-100.47
0.2699,0.7301	-99.95
0.7630,0.2370	-102.13
0.3029,0.6971	-98.93
0.5010,0.4990	-100.41
0.5412,0.4588	-100.88
0.4978,0.5022	-100.42
0.3116,0.6884	-99.73
0.7449,0.2551	-99.69
0.3519,0.6481	-99.67
0.5185,0.4815	-100.77
0.4956,0.5044	-100.44
0.5043,0.4957	-100.40
0.3027,0.6973	-99.76
0.6914,0.3086	-98.73
0.3553,0.6447	-100.86
0.5005,0.4995	-100.43
0.5339,0.4661	-100.25
0.5584,0.4416	-99.46
0.2880,0.7120	-98.93
0.7409,0.2591	-99.67
0.3561,0.6439	-99.67
0.5273,0.4727	-100.50
0.5620,0.4380	-100.66
0.5406,0.4594	-101.04
0.3043,0.6957	-99.76
0.7229,0.2771	-101.52
0.3694,0.6306	-99.68
0.5242,0.4758	-100.49
0.5787,0.4213	-99.81
0.5445,0.4555	-100.03
0.3209,0.6791	-97.46
0.6874,0.3126	-98.74
0.3438,0.6562	-97.73
0.5049,0.4951	-100.38
0.6141,0.3859	-98.71
0.5558,0.4442	-101.07
0.3158,0.6842	-101.27
0.6708,0.3292	-99.53
0.3490,0.6510	-100.29
0.5515,0.4485	-100.60
0.5975,0.4025	-99.31
0.5383,0.4617	-100.39
0.2898,0.7102	-99.82
0.6942,0.3058	-98.72
0.3607,0.6393	-97.96
0.5477,0.4523	-100.20
0.5699,0.4301	-100.98
0.6018,0.3982	-99.28
0.3147,0.6853	-98.17
0.6479,0.3521	-98.94
0.3256,0.6744	-100.42
0.5082,0.4918	-100.51
0.5839,0.4161	-100.12
0.6843,0.3157	-100.30
0.2652,0.7348	-99.98
0.6845,0.3155	-98.76
0.3603,0.6397	-98.53
0.4691,0.5309	-100.52
0.6313,0.3687	-99.05
0.7168,0.2832	-100.51
0.3237,0.6763	-98.96
0.6304,0.3696	-100.12
0.3446,0.6554	-101.60
0.4851,0.5149	-100.47
0.6725,0.3275	-98.81
0.6718,0.3282	-98.81
0.3012,0.6988	-100.61
0.6305,0.3695	-100.66
0.3784,0.6216	-100.69
0.4932,0.5068	-100.47
0.6510,0.3490	-99.55
0.6193,0.3807	-100.60
0.2625,0.7375	-100.01
0.6381,0.3619	-99.57
0.3682,0.6318	-100.22
0.4758,0.5242	-100.60
0.6288,0.3712	-100.65
0.6721,0.3279	-98.81
0.2407,0.7593	-100.21
0.6989,0.3011	-99.55
0.3911,0.6089	-100.17
0.4567,0.5433	-100.93
0.6030,0.3970	-100.10
0.6861,0.3139	-101.10
0.2792,0.7208	-98.94
0.6818,0.3182	-99.53
0.3790,0.6210	-100.69
0.4731,0.5269	-100.40
0.5913,0.4087	-99.74
0.7123,0.2877	-98.67
0.3197,0.6803	-98.20
0.6258,0.3742	-99.09
0.3514,0.6486	-99.06
0.4469,0.5531	-99.99
0.5879,0.4121	-101.18
0.7698,0.2302	-97.42
0.2596,0.7404	-100.03
0.6093,0.3907	-100.10
0.3321,0.6679	-101.08
0.4129,0.5871	-100.87
0.5919,0.4081	-98.99
0.7633,0.2367	-97.45
0.2691,0.7309	-98.95
0.6070,0.3930	-99.23
0.3452,0.6548	-99.67
0.3968,0.6032	-99.33
0.5489,0.4511	-100.19
0.7639,0.2361	-98.62
0.2864,0.7136	-98.93
0.6443,0.3557	-98.96
0.3428,0.6572	-101.63
0.4251,0.5749	-100.17
0.5042,0.4958	-100.47
0.7668,0.2332	-96.25
0.2801,0.7199	-98.93
0.6196,0.3804	-101.57
0.3206,0.6794	-99.71
0.4817,0.5183	-100.33
0.4977,0.5023	-100.43
0.7929,0.2071	-97.34
0.2998,0.7002	-98.08
0.6464,0.3536	-99.55
0.3567,0.6433	-101.44
0.4672,0.5328	-100.27
0.4920,0.5080	-100.38
0.7899,0.2101	-100.00
0.2972,0.7028	-99.79
0.6401,0.3599	-100.14
0.3353,0.6647	-102.42
0.4699,0.5301	-100.16
0.5709,0.4291	-100.14
0.8216,0.1784	-97.29
0.3145,0.6855	-99.72
0.7021,0.2979	-97.84
0.3301,0.6699	-100.40
0.4897,0.5103	-100.62
0.5695,0.4305	-99.58
0.8041,0.1959	-95.90
0.2842,0.7158	-99.85
0.7168,0.2832	-99.58
0.3833,0.6167	-99.71
0.5506,0.4494	-99.99
0.5871,0.4129	-100.46
0.7937,0.2063	-95.99
0.2927,0.7073	-99.81
0.7436,0.2564	-102.88
0.3533,0.6467	-98.46
0.5930,0.4070	-100.48
0.6557,0.3443	-100.83
0.8244,0.1756	-98.84
0.2918,0.7082	-100.70
0.7426,0.2574	-99.68
0.3147,0.6853	-99.72
0.5803,0.4197	-99.80
0.7173,0.2827	-99.58
0.7977,0.2023	-100.07
0.2989,0.7011	-100.63
0.7497,0.2503	-103.00
0.3956,0.6044	-99.74
0.5513,0.4487	-100.19
0.6654,0.3346	-99.53
0.7790,0.2210	-97.39
0.3731,0.6269	-98.13
0.7550,0.2450	-98.62
0.3542,0.6458	-100.87
0.5529,0.4471	-100.18
0.6293,0.3707	-100.12
0.7821,0.2179	-94.82
0.3941,0.6059	-101.46
0.7467,0.2533	-96.46
0.3458,0.6542	-99.67
0.5654,0.4346	-100.94
0.6496,0.3504	-100.78
0.7556,0.2444	-99.75
0.3860,0.6140	-99.72
0.7541,0.2459	-98.62
0.3671,0.6329	-100.23
0.5580,0.4420	-100.40
0.6377,0.3623	-99.01
0.7901,0.2099	-101.33
0.3013,0.6987	-98.93
0.7874,0.2126	-99.98
0.3832,0.6168	-100.66
0.5876,0.4124	-99.76
0.6588,0.3412	-98.22
0.8093,0.1907	-95.86
0.3258,0.6742	-98.24
0.8151,0.1849	-97.30
0.3875,0.6125	-99.26
0.5777,0.4223	-99.81
0.6585,0.3415	-98.22
0.8244,0.1756	-95.74
0.3007,0.6993	-101.46
0.8241,0.1759	-94.20
0.3511,0.6489	-100.90
0.5670,0.4330	-100.68
0.6070,0.3930	-100.10
0.8423,0.1577	-95.62
0.3360,0.6640	-98.32
0.8101,0.1899	-95.85
0.3491,0.6509	-100.29
0.5264,0.4736	-100.39
0.5958,0.4042	-100.88
0.8442,0.1558	-98.99
0.3495,0.6505	-99.05
0.8218,0.1782	-94.23
0.3809,0.6191	-100.19
0.4822,0.5178	-100.69
0.5777,0.4223	-99.81
0.8679,0.1321	-95.48
0.3169,0.6831	-99.72
0.8386,0.1614	-98.94
0.3909,0.6091	-99.29
0.4627,0.5373	-100.70
0.5363,0.4637	-100.09
0.8817,0.1183	-99.44
0.3717,0.6283	-99.16
0.8131,0.1869	-95.83
0.3967,0.6033	-98.91
0.4245,0.5755	-101.08
0.5060,0.4940	-100.41
0.8588,0.1412	-97.33
0.3649,0.6351	-98.57
0.8184,0.1816	-98.80
0.3694,0.6306	-100.22
0.4249,0.5751	-99.87
0.5317,0.4683	-100.13
0.8533,0.1467	-99.08
0.4276,0.5724	-100.17
0.7865,0.2135	-99.97
0.4081,0.5919	-100.91
0.4528,0.5472	-100.60
0.4811,0.5189	-100.25
0.8682,0.1318	-95.48
0.4588,0.5412	-100.57
0.7959,0.2041	-98.69
0.4615,0.5385	-99.94
0.4865,0.5135	-100.46
0.4596,0.5404	-100.73
0.8864,0.1136	-97.46
0.5285,0.4715	-100.27
0.8252,0.1748	-101.95
0.4919,0.5081	-100.48
0.4201,0.5799	-99.84
0.4428,0.5572	-100.89
0.8868,0.1132	-93.35
0.5295,0.4705	-100.27
0.8286,0.1714	-95.71
0.5040,0.4960	-100.40
0.3974,0.6026	-99.75
0.4613,0.5387	-100.56
0.8748,0.1252	-95.45
0.4951,0.5049	-100.46
0.8247,0.1753	-98.84
0.4653,0.5347	-100.40
0.4191,0.5809	-99.84
0.4395,0.5605	-100.19
0.8785,0.1215	-101.37
0.4838,0.5162	-100.34
0.7500,0.2500	-96.42
0.4649,0.5351	-100.40
0.4639,0.5361	-100.26
0.4328,0.5672	-99.91
0.8957,0.1043	-97.53
0.4852,0.5148	-100.35
0.7860,0.2140	-94.76
0.4205,0.5795	-99.84
0.5176,0.4824	-100.54
0.4171,0.5829	-99.49
0.8787,0.1213	-97.42
0.4679,0.5321	-100.53
0.7935,0.2065	-97.34
0.4937,0.5063	-100.42
0.5241,0.4759	-100.49
0.3279,0.6721	-99.69
0.8872,0.1128	-93.34
0.4967,0.5033	-100.39
0.7763,0.2237	-96.15
0.4793,0.5207	-100.15
0.5037,0.4963	-100.40
0.3133,0.6867	-101.30
0.9132,0.0868	-95.37
0.5088,0.4912	-100.37
0.7789,0.2211	-96.13
0.4298,0.5702	-99.61
0.3654,0.6346	-100.23
0.2984,0.7016	-97.22
0.9126,0.0874	-95.37
0.4475,0.5525	-100.42
0.7981,0.2019	-95.95
0.4098,0.5902	-100.53
0.4151,0.5849	-99.82
0.3148,0.6852	-99.72
0.9245,0.0755	-95.38
0.4045,0.5955	-101.32
0.7402,0.2598	-100.71
0.4407,0.5593	-100.43
0.4280,0.5720	-99.59
0.3590,0.6410	-100.25
0.9236,0.0764	-95.38
0.3954,0.6046	-100.17
0.7431,0.2569	-99.68
0.4801,0.5199	-100.24
0.4081,0.5919	-100.91
0.3835,0.6165	-100.66
0.9384,0.0616	-98.15
0.3985,0.6015	-100.58
0.7233,0.2767	-100.56
0.5068,0.4932	-100.41
0.3998,0.6002	-99.76
0.3877,0.6123	-101.09
0.9345,0.0655	-95.41
0.3967,0.6033	-100.17
0.7568,0.2432	-98.62
0.4999,0.5001	-100.43
0.3720,0.6280	-99.69
0.3822,0.6178	-100.67
0.9319,0.0681	-92.78
0.4705,0.5295	-100.28
0.7691,0.2309	-96.22
0.5350,0.4650	-100.53
0.3241,0.6759	-98.23
0.3853,0.6147	-100.65
0.9366,0.0634	-92.72
0.4250,0.5750	-100.47
0.7356,0.2644	-100.67
0.5731,0.4269	-100.13
0.2379,0.7621	-101.41
0.4201,0.5799	-100.17
0.9417,0.0583	-92.66
0.3992,0.6008	-101.39
0.7491,0.2509	-101.90
0.5885,0.4115	-100.83
0.2456,0.7544	-97.92
0.4314,0.5686	-100.18
0.9459,0.0541	-92.61
0.4248,0.5752	-100.47
0.7721,0.2279	-97.41
0.6257,0.3743	-101.14
0.2283,0.7717	-96.70
0.4488,0.5512	-100.42
0.9511,0.0489	-95.52
0.4175,0.5825	-98.83
0.7549,0.2451	-99.74
0.6182,0.3818	-100.59
0.2318,0.7682	-97.92
0.4693,0.5307	-100.28
0.9327,0.0673	-92.77
0.4318,0.5682	-101.28
0.7904,0.2096	-101.33
0.6071,0.3929	-99.23
0.2294,0.7706	-96.71
0.4452,0.5548	-100.42
0.9433,0.0567	-98.27
0.4312,0.5688	-100.45
0.8025,0.1975	-98.72
0.6789,0.3211	-98.78
0.2774,0.7226	-97.98
0.4899,0.5101	-100.41
0.9462,0.0538	-92.61
0.4221,0.5779	-100.80
0.7978,0.2022	-101.45
0.6092,0.3908	-98.77
0.2859,0.7141	-98.93
0.5348,0.4652	-100.39
0.9508,0.0492	-92.56
0.4857,0.5143	-100.41
0.7925,0.2075	-96.00
0.6600,0.3400	-99.54
0.2421,0.7579	-97.91
0.5415,0.4585	-100.39
0.9528,0.0472	-95.54
0.5091,0.4909	-100.44
0.8452,0.1548	-95.60
0.6053,0.3947	-99.68
0.2482,0.7518	-95.70
0.5146,0.4854	-100.23
0.9492,0.0508	-95.50
0.5722,0.4278	-99.84
0.8538,0.1462	-97.32
0.5581,0.4419	-99.93
0.2699,0.7301	-102.93
0.4739,0.5261	-100.82
0.9358,0.0642	-92.74
0.5531,0.4469	-99.97
0.8914,0.1086	-95.39
0.5045,0.4955	-100.40
0.2706,0.7294	-100.93
0.4588,0.5412	-100.08
0.9392,0.0608	-95.43
0.5517,0.4483	-99.77
0.8974,0.1026	-97.55
0.5209,0.4791	-100.48
0.2577,0.7423	-101.10
0.4681,0.5319	-100.27
0.9436,0.0564	-95.46
0.5483,0.4517	-100.20
0.8839,0.1161	-95.42
0.4824,0.5176	-100.69
0.2323,0.7677	-97.92
0.4664,0.5336	-100.54
0.9359,0.0641	-95.41
0.5828,0.4172	-99.45
0.8494,0.1506	-99.04
0.5485,0.4515	-100.39
0.2060,0.7940	-96.63
0.5594,0.4406	-99.92
0.9437,0.0563	-92.64
0.5941,0.4059	-99.34
0.8658,0.1342	-95.49
0.5082,0.4918	-100.38
0.2162,0.7838	-97.94
0.5358,0.4642	-100.53
0.9351,0.0649	-92.74
0.5966,0.4034	-99.32
0.8809,0.1191	-95.43
0.4435,0.5565	-101.11
0.2212,0.7788	-99.19
0.5021,0.4979	-100.45
0.9284,0.0716	-95.39
0.6178,0.3822	-101.07
0.8927,0.1073	-95.39
0.4247,0.5753	-100.17
0.2338,0.7662	-100.29
0.5089,0.4911	-100.52
0.9202,0.0798	-92.93
0.6125,0.3875	-100.56
0.8930,0.1070	-95.39
0.3772,0.6228	-100.20
0.2463,0.7537	-99.03
0.5324,0.4676	-100.39
0.9281,0.0719	-95.39
0.6258,0.3742	-100.63
0.8969,0.1031	-95.38
0.3759,0.6241	-98.68
0.2501,0.7499	-101.21
0.5064,0.4936	-100.46
0.9148,0.0852	-97.74
0.5899,0.4101	-99.38
0.8962,0.1038	-95.38
0.4064,0.5936	-99.78
0.2790,0.7210	-97.99
0.4918,0.5082	-100.41
0.9324,0.0676	-95.40
0.5335,0.4665	-100.79
0.8813,0.1187	-99.43
0.4039,0.5961	-100.16
0.2924,0.7076	-100.69
0.5319,0.4681	-100.00
0.9247,0.0753	-102.90
0.5616,0.4384	-100.41
0.8824,0.1176	-95.42
0.4014,0.5986	-100.96
0.3190,0.6810	-98.19
0.5453,0.4547	-100.03
0.9298,0.0702	-95.39
0.5560,0.4440	-100.40
0.8562,0.1438	-97.32
0.4884,0.5116	-100.46
0.3305,0.6695	-98.27
0.5338,0.4662	-100.66
0.9146,0.0854	-93.00
0.5894,0.4106	-99.75
0.8554,0.1446	-97.32
0.5423,0.4577	-99.88
0.3738,0.6262	-100.72
0.5177,0.4823	-100.40
0.9267,0.0733	-92.85
0.5340,0.4660	-100.39
0.8297,0.1703	-100.46
0.5599,0.4401	-100.88
0.3593,0.6407	-99.67
0.5547,0.4453	-100.62
0.9141,0.0859	-95.37
0.5097,0.4903	-100.48
0.8220,0.1780	-103.41
0.5189,0.4811	-100.24
0.3672,0.6328	-99.14
0.5096,0.4904	-100.41
0.9245,0.0755	-95.38
0.5031,0.4969	-100.40
0.8440,0.1560	-97.30
0.5274,0.4726	-100.39
0.3415,0.6585	-99.67
0.5125,0.4875	-100.35
0.9030,0.0970	-93.14
0.4753,0.5247	-100.30
0.8420,0.1580	-97.30
0.5324,0.4676	-100.52
0.3154,0.6846	-101.27
0.4907,0.5093	-100.41
0.9063,0.0937	-97.64
0.4889,0.5111	-100.41
0.8019,0.1981	-98.72
0.5378,0.4622	-100.23
0.3475,0.6525	-101.56
0.5247,0.4753	-100.69
0.8961,0.1039	-95.38
0.4442,0.5558	-100.65
0.8273,0.1727	-95.72
0.4847,0.5153	-100.53
0.3346,0.6654	-97.62
0.5351,0.4649	-100.25
0.9142,0.0858	-93.00
0.5648,0.4352	-100.15
0.8110,0.1890	-94.39
0.4689,0.5311	-100.28
0.3053,0.6947	-99.75
0.5740,0.4260	-100.13
0.9130,0.0870	-95.37
0.5452,0.4548	-100.21
0.8128,0.1872	-98.77
0.4246,0.5754	-99.56
0.3109,0.6891	-102.92
0.5212,0.4788	-100.48
0.9001,0.0999	-99.77
0.5699,0.4301	-100.70
0.8387,0.1613	-97.29
0.4564,0.5436	-100.23
0.2828,0.7172	-100.79
0.5652,0.4348	-100.94
0.8891,0.1109	-95.40
0.5373,0.4627	-100.09
0.8143,0.1857	-95.82
0.5666,0.4334	-100.68
0.2700,0.7300	-97.96
0.5833,0.4167	-99.78
0.9046,0.0954	-93.12
0.5739,0.4261	-100.13
0.8209,0.1791	-97.29
0.5714,0.4286	-99.85
0.2635,0.7365	-101.02
0.5939,0.4061	-99.73
0.9118,0.0882	-97.70
0.5549,0.4451	-100.84
0.8024,0.1976	-97.32
0.5731,0.4269	-99.54
0.2421,0.7579	-96.77
0.5963,0.4037	-100.11
0.9303,0.0697	-92.80
0.5133,0.4867	-100.35
0.7395,0.2605	-99.66
0.4912,0.5088	-100.45
0.2517,0.7483	-104.46
0.5507,0.4493	-100.19
0.9175,0.0825	-92.96
0.4742,0.5258	-100.50
0.7028,0.2972	-99.55
0.4565,0.5435	-100.76
0.1942,0.8058	-102.30
0.5492,0.4508	-99.60
0.9034,0.0966	-95.37
0.4488,0.5512	-100.83
0.6301,0.3699	-99.59
0.4801,0.5199	-100.56
0.2297,0.7703	-97.92
0.5683,0.4317	-99.59
0.9005,0.0995	-95.38
0.4444,0.5556	-99.53
0.6077,0.3923	-100.10
0.5452,0.4548	-100.93
0.2008,0.7992	-98.00
0.5471,0.4529	-100.39
0.8997,0.1003	-93.18
0.4556,0.5444	-100.59
0.5851,0.4149	-100.46
0.5554,0.4446	-100.40
0.2396,0.7604	-97.91
0.4678,0.5322	-100.40
0.8778,0.1222	-95.44
0.5444,0.4556	-100.39
0.6305,0.3695	-100.12
0.5785,0.4215	-99.49
0.2276,0.7724	-102.81
0.4030,0.5970	-100.16
0.8684,0.1316	-95.48
0.6275,0.3725	-99.08
0.6142,0.3858	-100.11
0.5421,0.4579	-100.72
0.2282,0.7718	-99.14
0.4520,0.5480	-100.22
0.8900,0.1100	-95.40
0.5854,0.4146	-100.80
0.6154,0.3846	-100.11
0.5520,0.4480	-101.23
0.2033,0.7967	-99.36
0.4766,0.5234	-100.59
0.8621,0.1379	-99.17
0.5331,0.4669	-100.25
0.5268,0.4732	-100.60
0.5624,0.4376	-100.66
0.1798,0.8202	-99.65
0.4234,0.5766	-100.17
0.8737,0.1263	-95.45
0.5442,0.4558	-100.39
0.5514,0.4486	-100.19
0.6023,0.3977	-100.93
0.2016,0.7984	-99.37
0.4072,0.5928	-100.54
0.8816,0.1184	-97.43
0.5364,0.4636	-100.24
0.5083,0.4917	-100.48
0.6110,0.3890	-100.10
0.1692,0.8308	-99.82
0.4309,0.5691	-101.29
0.8787,0.1213	-97.42
0.5352,0.4648	-100.53
0.5615,0.4385	-99.17
0.6034,0.3966	-100.52
0.1625,0.8375	-99.93
0.5106,0.4894	-100.45
0.8947,0.1053	-99.67
0.5476,0.4524	-100.58
0.5848,0.4152	-99.43
0.6478,0.3522	-98.94
0.1495,0.8505	-100.19
0.5230,0.4770	-100.58
0.9068,0.0932	-97.64
0.5540,0.4460	-99.74
0.6214,0.3786	-100.11
0.6415,0.3585	-100.73
0.1522,0.8478	-96.70
0.5017,0.4983	-100.41
0.9162,0.0838	-97.76
0.5570,0.4430	-99.71
0.6001,0.3999	-99.29
0.6616,0.3384	-100.20
0.1641,0.8359	-103.16
0.4929,0.5071	-100.44
0.8644,0.1356	-99.20
0.5819,0.4181	-99.46
0.6089,0.3911	-103.20
0.6462,0.3538	-98.95
0.1541,0.8459	-98.39
0.5101,0.4899	-100.41
0.8835,0.1165	-93.39
0.5789,0.4211	-101.08
0.6180,0.3820	-99.63
0.5728,0.4272	-101.01
0.1938,0.8062	-98.04
0.4895,0.5105	-100.58
0.9027,0.0973	-95.37
0.6301,0.3699	-100.12
0.6612,0.3388	-100.87
0.5902,0.4098	-98.65
0.1877,0.8123	-98.07
0.4639,0.5361	-100.40
0.8908,0.1092	-95.40
0.6935,0.3065	-96.27
0.6627,0.3373	-100.21
0.5832,0.4168	-101.80
0.2077,0.7923	-95.29
0.5389,0.4611	-100.07
0.8875,0.1125	-95.41
0.6688,0.3312	-100.94
0.6651,0.3349	-100.22
0.5445,0.4555	-100.21
0.1757,0.8243	-102.80
0.5893,0.4107	-101.19
0.8818,0.1182	-95.42
0.6455,0.3545	-101.35
0.6562,0.3438	-100.19
0.5083,0.4917	-100.48
0.1802,0.8198	-101.16
0.6107,0.3893	-98.75
0.8697,0.1303	-93.57
0.6129,0.3871	-101.02
0.6337,0.3663	-99.58
0.5185,0.4815	-100.32
0.2250,0.7750	-101.64
0.6414,0.3586	-98.98
0.8579,0.1421	-100.92
0.6146,0.3854	-99.64
0.6601,0.3399	-98.87
0.5472,0.4528	-100.58
0.2216,0.7784	-100.44
0.6328,0.3672	-99.58
0.8533,0.1467	-99.08
0.6281,0.3719	-100.64
0.6860,0.3140	-101.09
0.5202,0.4798	-100.23
0.2335,0.7665	-96.73
0.6702,0.3298	-99.53
0.8507,0.1493	-97.31
0.6496,0.3504	-100.17
0.6976,0.3024	-102.89
0.5353,0.4647	-100.81
0.1959,0.8041	-98.03
0.6528,0.3472	-100.18
0.8635,0.1365	-95.50
0.6742,0.3258	-100.26
0.6308,0.3692	-100.66
0.5005,0.4995	-100.42
0.1791,0.8209	-99.66
0.6544,0.3456	-101.46
0.8816,0.1184	-99.44
0.6444,0.3556	-99.56
0.6168,0.3832	-100.11
0.4516,0.5484	-100.22
0.1848,0.8152	-99.58
0.6365,0.3635	-100.13
0.8752,0.1248	-97.40
0.6456,0.3544	-100.16
0.5847,0.4153	-99.77
0.4214,0.5786	-99.85
0.1489,0.8511	-101.95
0.6277,0.3723	-99.07
0.8391,0.1609	-95.64
0.6309,0.3691	-97.44
0.5465,0.4535	-100.76
0.4443,0.5557	-100.87
0.1649,0.8351	-96.65
0.6198,0.3802	-100.11
0.7852,0.2148	-96.07
0.6176,0.3824	-99.63
0.4966,0.5034	-100.42
0.4469,0.5531	-100.63
0.1864,0.8136	-95.14
0.6012,0.3988	-99.69
0.7827,0.2173	-97.37
0.5874,0.4126	-100.11
0.5516,0.4484	-101.01
0.4016,0.5984	-99.37
0.2054,0.7946	-97.98
0.5404,0.4596	-100.87
0.7286,0.2714	-98.63
0.5551,0.4449	-100.40
0.5698,0.4302	-100.98
0.3884,0.6116	-99.27
0.2257,0.7743	-97.92
0.5198,0.4802	-100.39
0.7303,0.2697	-96.64
0.5863,0.4137	-100.81
0.5265,0.4735	-100.39
0.4796,0.5204	-100.48
0.1867,0.8133	-101.02
0.5822,0.4178	-100.45
0.7750,0.2250	-99.88
0.5728,0.4272	-99.55
0.5219,0.4781	-100.13
0.4744,0.5256	-100.30
0.1931,0.8069	-99.47
0.5670,0.4330	-101.22
0.7904,0.2096	-96.02
0.5757,0.4243	-100.13
0.4909,0.5091	-100.27
0.4572,0.5428	-100.58
0.2179,0.7821	-105.61
0.5643,0.4357	-99.89
0.8462,0.1538	-97.30
0.6164,0.3836	-100.11
0.4186,0.5814	-100.16
0.4058,0.5942	-101.31
0.1972,0.8028	-99.42
0.5686,0.4314	-100.42
0.8213,0.1787	-100.34
0.6341,0.3659	-101.23
0.4413,0.5587	-100.43
0.4147,0.5853	-101.20
0.2090,0.7910	-96.64
0.5884,0.4116	-99.40
0.8301,0.1699	-98.87
0.6128,0.3872	-101.02
0.4396,0.5604	-100.19
0.4181,0.5819	-100.49
0.1615,0.8385	-99.95
0.6323,0.3677	-100.13
0.8115,0.1885	-97.30
0.5840,0.4160	-100.12
0.4371,0.5629	-99.68
0.4539,0.5461	-100.60
0.1834,0.8166	-98.10
0.6436,0.3564	-99.56
0.8294,0.1706	-95.71
0.5253,0.4747	-100.49
0.4023,0.5977	-100.56
0.4425,0.5575	-100.43
0.2130,0.7870	-97.95
0.6417,0.3583	-101.89
0.8421,0.1579	-93.95
0.5303,0.4697	-100.27
0.4023,0.5977	-100.16
0.3766,0.6234	-100.70
0.2277,0.7723	-97.92
0.6471,0.3529	-98.95
0.8049,0.1951	-95.90
0.5032,0.4968	-100.42
0.4423,0.5577	-99.97
0.3886,0.6114	-100.63
0.2932,0.7068	-99.81
0.5218,0.4782	-100.57
0.7828,0.2172	-98.66
0.5282,0.4718	-100.50
0.4559,0.5441	-100.23
0.4219,0.5781	-99.85
0.3226,0.6774	-98.22
0.5350,0.4650	-99.97
0.7722,0.2278	-98.63
0.5257,0.4743	-100.29
0.4841,0.5159	-100.34
0.4242,0.5758	-100.47
0.2855,0.7145	-98.93
0.5235,0.4765	-100.30
0.7089,0.2911	-100.45
0.4947,0.5053	-100.42
0.4177,0.5823	-101.16
0.4690,0.5310	-100.15
0.3467,0.6533	-97.77
0.4885,0.5115	-100.55
0.6934,0.3066	-100.35
0.5165,0.4835	-100.79
0.4913,0.5087	-100.31
0.4903,0.5097	-100.37
0.3644,0.6356	-99.68
0.4906,0.5094	-100.37
0.6788,0.3212	-103.27
0.4474,0.5526	-100.21
0.4907,0.5093	-100.30
0.5413,0.4587	-100.22
0.3024,0.6976	-98.93
0.5628,0.4372	-100.66
0.6287,0.3713	-98.54
0.4529,0.5471	-100.98
0.4319,0.5681	-100.73
0.5326,0.4674	-100.26
0.3094,0.6906	-97.33
0.5680,0.4320	-100.14
0.5910,0.4090	-100.84
0.4503,0.5497	-100.22
0.4492,0.5508	-100.21
0.5078,0.4922	-100.41
0.3826,0.6174	-99.71
0.6005,0.3995	-100.10
0.6592,0.3408	-100.20
0.4587,0.5413	-100.41
0.4215,0.5785	-100.80
0.5350,0.4650	-99.83
0.3564,0.6436	-98.49
0.5912,0.4088	-100.11
0.5802,0.4198	-100.12
0.4529,0.5471	-100.03
0.3219,0.6781	-100.45
0.5629,0.4371	-99.65
0.3686,0.6314	-98.61
0.6243,0.3757	-101.13
0.6102,0.3898	-102.34
0.4876,0.5124	-100.51
0.3275,0.6725	-98.97
0.5566,0.4434	-100.40
0.3412,0.6588	-99.67
0.5912,0.4088	-100.11
0.6756,0.3244	-98.79
0.4065,0.5935	-101.30
0.3498,0.6502	-100.91
0.4916,0.5084	-100.38
0.3435,0.6565	-100.97
0.5804,0.4196	-100.44
0.6664,0.3336	-99.53
0.3965,0.6035	-101.43
0.3830,0.6170	-98.76
0.4356,0.5644	-100.44
0.3333,0.6667	-101.07
0.5503,0.4497	-101.00
0.6653,0.3347	-102.28
0.3963,0.6037	-99.33
0.3405,0.6595	-100.34
0.4178,0.5822	-100.83
0.3128,0.6872	-101.30
0.5352,0.4648	-100.81
0.6162,0.3838	-100.58
0.4670,0.5330	-100.14
0.3382,0.6618	-99.01
0.4503,0.5497	-100.02
0.3046,0.6954	-99.76
0.5352,0.4648	-100.39
0.6018,0.3982	-100.93
0.4941,0.5059	-100.44
0.3461,0.6539	-101.58
0.4130,0.5870	-99.81
0.3229,0.6771	-101.18
0.4915,0.5085	-100.45
0.5518,0.4482	-99.77
0.5401,0.4599	-100.39
0.4165,0.5835	-101.85
0.3492,0.6508	-98.43
0.2987,0.7013	-98.93
0.4749,0.5251	-100.60
0.5396,0.4604	-100.23
0.5738,0.4262	-100.43
0.4972,0.5028	-100.41
0.3006,0.6994	-98.93
0.2875,0.7125	-99.84
0.4410,0.5590	-100.43
0.5711,0.4289	-100.42
0.6414,0.3586	-100.73
0.5666,0.4334	-100.95
0.3280,0.6720	-98.97
0.2759,0.7241	-98.94
0.4378,0.5622	-100.94
0.5509,0.4491	-100.39
0.7015,0.2985	-101.26
0.6848,0.3152	-99.53
0.3061,0.6939	-98.11
0.3296,0.6704	-99.69
0.4358,0.5642	-99.41
0.5784,0.4216	-99.49
0.7267,0.2733	-96.68
0.6994,0.3006	-100.39
0.2882,0.7118	-98.02
0.2827,0.7173	-101.73
0.4376,0.5624	-99.69
0.5604,0.4396	-99.43
0.6704,0.3296	-100.95
0.6928,0.3072	-100.35
0.3102,0.6898	-99.74
0.2614,0.7386	-98.98
0.4776,0.5224	-100.40
0.5900,0.4100	-101.20
0.6492,0.3508	-98.32
0.6798,0.3202	-99.53
0.3671,0.6329	-99.68
0.2612,0.7388	-98.98
0.4826,0.5174	-100.27
0.5456,0.4544	-100.21
0.5986,0.4014	-99.30
0.6413,0.3587	-100.14
0.3459,0.6541	-99.67
0.2176,0.7824	-100.50
0.4725,0.5275	-100.62
0.4495,0.5505	-100.42
0.5932,0.4068	-100.86
0.6145,0.3855	-100.57
0.3287,0.6713	-100.40
0.1820,0.8180	-98.11
0.4617,0.5383	-100.25
0.4160,0.5840	-100.50
0.5888,0.4112	-99.39
0.5992,0.4008	-98.90
0.3573,0.6427	-99.67
0.1644,0.8356	-95.02
0.4731,0.5269	-100.29
0.4139,0.5861	-100.51
0.6134,0.3866	-99.64
0.6442,0.3558	-98.37
0.3201,0.6799	-98.95
0.1724,0.8276	-96.63
0.4812,0.5188	-100.48
0.4080,0.5920	-100.91
0.6912,0.3088	-99.54
0.6315,0.3685	-101.20
0.3050,0.6950	-100.58
0.1780,0.8220	-96.62
0.4974,0.5026	-100.43
0.4110,0.5890	-100.52
0.6990,0.3010	-98.70
0.6604,0.3396	-98.20
0.2754,0.7246	-99.91
0.2123,0.7877	-97.96
0.5028,0.4972	-100.41
0.4669,0.5331	-100.27
0.7239,0.2761	-98.64
0.6731,0.3269	-101.69
0.2280,0.7720	-99.14
0.2457,0.7543	-96.79
0.4326,0.5674	-100.72
0.4794,0.5206	-100.57
0.6863,0.3137	-97.18
0.6868,0.3132	-97.96
0.2338,0.7662	-99.10
0.2631,0.7369	-101.03
0.4393,0.5607	-99.70
0.4543,0.5457	-100.59
0.7018,0.2982	-97.84
0.6641,0.3359	-99.53
0.2231,0.7769	-97.93
0.2496,0.7504	-96.82
0.4369,0.5631	-100.69
0.4563,0.5437	-100.41
0.7250,0.2750	-99.61
0.6788,0.3212	-101.03
0.2224,0.7776	-96.68
0.2397,0.7603	-97.91
0.4671,0.5329	-100.27
0.4917,0.5083	-100.48
0.6963,0.3037	-100.37
0.7158,0.2842	-99.58
0.2827,0.7173	-98.93
0.2930,0.7070	-98.05
0.4214,0.5786	-100.17
0.4516,0.5484	-100.03
0.6706,0.3294	-100.24
0.7428,0.2572	-100.74
0.3064,0.6936	-99.75
0.3102,0.6898	-98.94
0.4129,0.5871	-100.16
0.4767,0.5233	-100.40
0.6261,0.3739	-100.12
0.7173,0.2827	-97.72
0.2681,0.7319	-98.96
0.2971,0.7029	-98.93
0.4396,0.5604	-100.68
0.5391,0.4609	-100.39
0.5132,0.4868	-100.51
0.6749,0.3251	-100.26
0.2788,0.7212	-100.84
0.3105,0.6895	-99.74
0.4406,0.5594	-100.43
0.5893,0.4107	-100.83
0.5370,0.4630	-100.39
0.6849,0.3151	-101.86
0.2651,0.7349	-99.98
0.2812,0.7188	-98.93
0.4797,0.5203	-100.40
0.5894,0.4106	-99.39
0.5285,0.4715	-100.62
0.6505,0.3495	-100.79
0.2806,0.7194	-100.82
0.2823,0.7177	-98.93
0.4280,0.5720	-101.04
0.5832,0.4168	-100.45
0.5930,0.4070	-100.86
0.6176,0.3824	-100.11
0.2388,0.7612	-100.23
0.3162,0.6838	-97.40
0.4173,0.5827	-100.83
0.6478,0.3522	-100.16
0.5632,0.4368	-100.66
0.6065,0.3935	-99.67
0.3020,0.6980	-98.93
0.3736,0.6264	-99.17
0.4146,0.5854	-101.54
0.6375,0.3625	-99.57
0.5824,0.4176	-100.45
0.6162,0.3838	-100.58
0.3081,0.6919	-98.93
0.4180,0.5820	-100.49
0.4685,0.5315	-100.40
0.6270,0.3730	-100.12
0.6371,0.3629	-101.26
0.5516,0.4484	-100.60
0.3274,0.6726	-98.97
0.3895,0.6105	-99.28
0.5621,0.4379	-100.41
0.5730,0.4270	-99.84
0.6344,0.3656	-101.78
0.5725,0.4275	-99.84
0.3192,0.6808	-98.95
0.4228,0.5772	-100.79
0.5303,0.4697	-100.39
0.6146,0.3854	-100.11
0.6752,0.3248	-101.72
0.5409,0.4591	-100.55
0.3261,0.6739	-99.69
0.4294,0.5706	-101.03
0.5366,0.4634	-100.39
0.6669,0.3331	-98.14
0.6372,0.3628	-100.14
0.5329,0.4671	-100.39
0.3510,0.6490	-99.67
0.4596,0.5404	-100.73
0.5722,0.4278	-100.13
0.6083,0.3917	-99.66
0.5804,0.4196	-100.77
0.5152,0.4848	-100.34
0.3195,0.6805	-98.20
0.4560,0.5440	-100.41
0.5574,0.4426	-99.94
0.5736,0.4264	-100.13
0.5728,0.4272	-99.55
0.5825,0.4175	-100.78
0.3470,0.6530	-100.94
0.4961,0.5039	-100.42
0.6140,0.3860	-100.57
0.5734,0.4266	-100.13
0.5346,0.4654	-100.66
0.5298,0.4702	-100.75
0.3190,0.6810	-98.95
0.4787,0.5213	-100.57
0.6115,0.3885	-100.56
0.5871,0.4129	-99.41
0.4971,0.5029	-100.43
0.5643,0.4357	-100.41
0.2918,0.7082	-99.81
0.5222,0.4778	-100.57
0.5646,0.4354	-99.63
0.5568,0.4432	-99.71
0.4300,0.5700	-100.18
0.5368,0.4632	-100.53
0.2839,0.7161	-102.63
0.5234,0.4766	-100.02
0.5670,0.4330	-100.68
0.5118,0.4882	-100.31
0.4210,0.5790	-100.17
0.5237,0.4763	-100.39
0.2648,0.7352	-101.01
0.5697,0.4303	-99.86
0.5620,0.4380	-100.41
0.4482,0.5518	-100.83
0.4618,0.5382	-100.10
0.5227,0.4773	-100.48
0.2382,0.7618	-97.91
0.5280,0.4720	-100.50
0.5446,0.4554	-100.39
0.3807,0.6193	-100.19
0.4799,0.5201	-100.56
0.4888,0.5112	-100.46
0.2459,0.7541	-102.40
0.5715,0.4285	-101.00
0.5622,0.4378	-100.16
0.3804,0.6196	-100.19
0.5050,0.4950	-100.48
0.4654,0.5346	-100.68
0.3083,0.6917	-98.93
0.5404,0.4596	-100.22
0.6409,0.3591	-100.14
0.3714,0.6286	-99.69
0.4625,0.5375	-100.10
0.3699,0.6301	-100.22
0.2864,0.7136	-98.02
0.4773,0.5227	-100.40
0.6533,0.3467	-99.54
0.4010,0.5990	-101.77
0.4373,0.5627	-100.19
0.4129,0.5871	-100.87
0.2470,0.7530	-101.26
0.4559,0.5441	-101.12
0.6685,0.3315	-100.23
0.4421,0.5579	-100.20
0.4048,0.5952	-99.39
0.3623,0.6377	-100.81
0.2752,0.7248	-98.94
0.4247,0.5753	-101.69
0.6468,0.3532	-98.95
0.4899,0.5101	-100.41
0.4088,0.5912	-100.16
0.4027,0.5973	-100.56
0.2836,0.7164	-100.79
0.4037,0.5963	-101.72
0.6502,0.3498	-98.93
0.4776,0.5224	-100.40
0.3771,0.6229	-100.20
0.4158,0.5842	-100.50
0.2777,0.7223	-101.81
0.3640,0.6360	-100.24
0.6344,0.3656	-100.68
0.4722,0.5278	-100.40
0.3566,0.6434	-100.85
0.4172,0.5828	-100.50
0.3015,0.6985	-99.77
0.3719,0.6281	-99.69
0.6780,0.3220	-99.53
0.4717,0.5283	-100.63
0.3544,0.6456	-100.27
0.4727,0.5273	-100.73
0.2968,0.7032	-97.20
0.3998,0.6002	-99.76
0.6853,0.3147	-101.09
0.4299,0.5701	-99.89
0.3176,0.6824	-99.71
0.4756,0.5244	-100.60
0.2945,0.7055	-102.42
0.4182,0.5818	-100.16
0.6879,0.3121	-101.11
0.4660,0.5340	-100.67
0.4094,0.5906	-100.89
0.4344,0.5656	-100.45
0.2789,0.7211	-97.99
0.4518,0.5482	-100.41
0.6638,0.3362	-100.21
0.4218,0.5782	-100.17
0.4232,0.5768	-99.24
0.4113,0.5887	-100.16
0.2782,0.7218	-97.03
0.4196,0.5804	-100.81
0.6335,0.3665	-100.13
0.4317,0.5683	-100.45
0.4810,0.5190	-100.48
0.3912,0.6088	-98.85
0.2621,0.7379	-98.97
0.4148,0.5852	-100.51
0.6816,0.3184	-99.53
0.3491,0.6509	-100.92
0.4777,0.5223	-100.05
0.4073,0.5927	-100.91
0.2924,0.7076	-98.04
0.4178,0.5822	-100.50
0.6604,0.3396	-100.87
0.3937,0.6063	-99.31
0.4084,0.5916	-99.79
0.4480,0.5520	-100.21
0.4029,0.5971	-99.38
0.4880,0.5120	-100.55
0.5983,0.4017	-99.31
0.3846,0.6154	-100.65
0.4661,0.5339	-100.40
0.5065,0.4935	-100.36
0.3644,0.6356	-100.23
0.5138,0.4862	-100.13
0.6178,0.3822	-99.15
0.4205,0.5795	-100.81
0.4348,0.5652	-101.23
0.5030,0.4970	-100.42
0.3533,0.6467	-99.07
0.4954,0.5046	-100.44
0.5673,0.4327	-99.87
0.4458,0.5542	-99.77
0.5175,0.4825	-100.47
0.5674,0.4326	-100.14
0.3423,0.6577	-100.33
0.4668,0.5332	-100.53
0.6369,0.3631	-99.57
0.4870,0.5130	-100.56
0.4559,0.5441	-99.88
0.5989,0.4011	-100.50
0.3695,0.6305	-99.68
0.4811,0.5189	-100.25
0.6407,0.3593	-101.30
0.5301,0.4699	-100.15
0.4860,0.5140	-100.46
0.6398,0.3602	-100.14
0.3655,0.6345	-100.23
0.5007,0.4993	-100.43
0.5913,0.4087	-100.48
0.5170,0.4830	-100.26
0.5213,0.4787	-100.39
0.6818,0.3182	-100.29
0.3769,0.6231	-100.70
0.5558,0.4442	-100.85
0.6466,0.3534	-100.16
0.5314,0.4686	-100.14
0.4654,0.5346	-100.96
0.6894,0.3106	-99.53
0.4160,0.5840	-100.16
0.5508,0.4492	-100.60
0.6417,0.3583	-99.56
0.5187,0.4813	-100.40
0.5490,0.4510	-100.39
0.7366,0.2634	-101.71
0.4068,0.5932	-100.54
0.5612,0.4388	-100.40
0.5915,0.4085	-99.00
0.5080,0.4920	-100.54
0.5531,0.4469	-100.39
0.6890,0.3110	-99.53
0.4156,0.5844	-100.50
0.5406,0.4594	-100.71
0.5613,0.4387	-99.67
0.4852,0.5148	-100.41
0.5840,0.4160	-100.45
0.7350,0.2650	-98.62
0.4518,0.5482	-99.83
0.5534,0.4466	-99.54
0.5956,0.4044	-99.72
0.4063,0.5937	-99.40
0.5746,0.4254	-99.83
0.7147,0.2853	-96.82
0.4735,0.5265	-100.40
0.5452,0.4548	-100.03
0.5847,0.4153	-99.43
0.3133,0.6867	-98.94
0.5648,0.4352	-99.63
0.6968,0.3032	-98.71
0.4372,0.5628	-100.44
0.5283,0.4717	-100.39
0.5778,0.4222	-100.75
0.3004,0.6996	-100.62
0.4937,0.5063	-100.37
0.6868,0.3132	-97.96
0.3855,0.6145	-101.11
0.5809,0.4191	-100.77
0.6123,0.3877	-101.02
0.2795,0.7205	-97.99
0.4660,0.5340	-100.13
0.6939,0.3061	-97.90
0.3925,0.6075	-101.05
0.5478,0.4522	-100.39
0.6341,0.3659	-100.13
0.3245,0.6755	-98.96
0.4959,0.5041	-100.40
0.7049,0.2951	-103.04
0.4418,0.5582	-100.66
0.5070,0.4930	-100.41
0.6167,0.3833	-99.63
0.2996,0.7004	-99.78
0.5123,0.4877	-100.45
0.6886,0.3114	-101.12
0.4914,0.5086	-100.31
0.5302,0.4698	-100.02
0.5895,0.4105	-99.75
0.3101,0.6899	-102.14
0.5245,0.4755	-100.49
0.6409,0.3591	-98.99
0.4614,0.5386	-100.87
0.5707,0.4293	-100.71
0.6195,0.3805	-99.62
0.3151,0.6849	-100.50
0.4716,0.5284	-100.17
0.6196,0.3804	-100.11
0.4719,0.5281	-100.40
0.5639,0.4361	-100.67
0.6597,0.3403	-101.52
0.3017,0.6983	-100.61
0.4952,0.5048	-100.42
0.6396,0.3604	-101.29
0.4962,0.5038	-100.44
0.6126,0.3874	-100.11
0.6518,0.3482	-101.43
0.2981,0.7019	-98.93
0.4872,0.5128	-100.31
0.5597,0.4403	-100.40
0.4241,0.5759	-99.56
0.5151,0.4849	-100.34
0.6514,0.3486	-98.92
0.2931,0.7069	-97.17
0.5060,0.4940	-100.49
0.5406,0.4594	-100.22
0.3578,0.6422	-100.26
0.5749,0.4251	-100.13
0.5561,0.4439	-99.95
0.3078,0.6922	-100.56
0.5955,0.4045	-100.88
0.5306,0.4694	-100.14
0.3338,0.6662	-101.06
0.5951,0.4049	-100.88
0.4986,0.5014	-100.44
0.3333,0.6667	-98.30
0.6111,0.3889	-100.10
0.5265,0.4735	-100.60
0.3678,0.6322	-99.68
0.5555,0.4445	-100.84
0.5319,0.4681	-100.39
0.3884,0.6116	-100.18
0.6557,0.3443	-99.54
0.5302,0.4698	-100.27
0.3356,0.6644	-99.68
0.5771,0.4229	-99.50
0.5477,0.4523	-100.39
0.3339,0.6661	-100.37
0.6194,0.3806	-99.62
0.5198,0.4802	-100.47
0.3174,0.6826	-97.42
0.5695,0.4305	-100.42
0.5127,0.4873	-100.40
0.3803,0.6197	-99.70
0.6208,0.3792	-99.62
0.4840,0.5160	-100.15
0.3529,0.6471	-101.49
0.5594,0.4406	-100.16
0.4990,0.5010	-100.42
0.4093,0.5907	-100.16
0.6801,0.3199	-98.02
0.5228,0.4772	-100.21
0.4112,0.5888	-101.60
0.5246,0.4754	-100.49
0.5351,0.4649	-100.67
0.3680,0.6320	-102.39
0.7078,0.2922	-103.98
0.5365,0.4635	-100.39
0.4277,0.5723	-99.88
0.4969,0.5031	-100.45
0.5235,0.4765	-100.49
0.3170,0.6830	-100.48
0.7443,0.2557	-97.55
0.5700,0.4300	-100.14
0.4081,0.5919	-100.91
0.4658,0.5342	-100.54
0.5232,0.4768	-100.39
0.2914,0.7086	-102.48
0.7487,0.2513	-97.53
0.5234,0.4766	-100.48
0.3850,0.6150	-100.65
0.4789,0.5211	-100.49
0.5342,0.4658	-100.39
0.3035,0.6965	-99.76
0.7463,0.2537	-97.54
0.5146,0.4854	-100.34
0.3834,0.6166	-100.19
0.4211,0.5789	-101.12
0.4652,0.5348	-100.68
0.2940,0.7060	-98.93
0.7795,0.2205	-98.65
0.4804,0.5196	-100.64
0.3799,0.6201	-99.70
0.4431,0.5569	-101.34
0.4291,0.5709	-101.89
0.3697,0.6303	-100.75
0.7980,0.2020	-97.33
0.5764,0.4236	-100.43
0.4195,0.5805	-100.81
0.3847,0.6153	-101.12
0.4057,0.5943	-99.78
0.2929,0.7071	-98.05
0.8143,0.1857	-98.78
0.5621,0.4379	-99.16
0.4178,0.5822	-99.83
0.4102,0.5898	-100.16
0.4397,0.5603	-99.95
0.2690,0.7310	-99.95
0.8245,0.1755	-95.74
0.5636,0.4364	-99.64
0.4862,0.5138	-100.46
0.3475,0.6525	-99.04
0.4138,0.5862	-100.86
0.2742,0.7258	-97.97
0.8483,0.1517	-95.58
0.5606,0.4394	-99.92
0.4772,0.5228	-100.40
0.3489,0.6511	-99.05
0.4257,0.5743	-99.57
0.2809,0.7191	-97.99
0.8494,0.1506	-93.85
0.5329,0.4671	-100.25
0.4902,0.5098	-100.41
0.3317,0.6683	-99.69
0.4468,0.5532	-99.99
0.2454,0.7546	-96.79
0.8323,0.1677	-98.89
0.5049,0.4951	-100.46
0.4590,0.5410	-100.41
0.3082,0.6918	-98.13
0.4622,0.5378	-100.40
0.2503,0.7497	-100.11
0.8132,0.1868	-98.77
0.4723,0.5277	-100.40
0.5023,0.4977	-100.46
0.3433,0.6567	-100.97
0.3840,0.6160	-99.24
0.2504,0.7496	-95.73
0.8180,0.1820	-98.80
0.4790,0.5210	-100.15
0.5603,0.4397	-100.16
0.3830,0.6170	-101.14
0.4515,0.5485	-100.02
0.2489,0.7511	-99.02
0.8327,0.1673	-100.50
0.4244,0.5756	-100.78
0.4644,0.5356	-100.69
0.3780,0.6220	-99.70
0.4108,0.5892	-100.88
0.2644,0.7356	-96.92
0.8418,0.1582	-95.62
0.4349,0.5651	-100.18
0.5012,0.4988	-100.41
0.3825,0.6175	-99.71
0.4058,0.5942	-100.54
0.2645,0.7355	-101.01
0.8516,0.1484	-100.81
0.4171,0.5829	-100.50
0.5305,0.4695	-100.51
0.3473,0.6527	-100.93
0.3259,0.6741	-98.97
0.2147,0.7853	-99.25
0.8214,0.1786	-101.87
0.3677,0.6323	-102.39
0.5006,0.4994	-100.42
0.3887,0.6113	-99.27
0.3437,0.6563	-100.32
0.2409,0.7591	-100.21
0.8416,0.1584	-97.30
0.3413,0.6587	-98.36
0.5136,0.4864	-100.46
0.4041,0.5959	-100.55
0.3620,0.6380	-100.24
0.3537,0.6463	-99.07
0.8576,0.1424	-99.12
0.3384,0.6616	-101.02
0.5442,0.4558	-101.10
0.3774,0.6226	-99.70
0.3432,0.6568	-99.67
0.3224,0.6776	-98.96
0.8527,0.1473	-100.83
0.3148,0.6852	-98.94
0.5799,0.4201	-101.09
0.3668,0.6332	-99.68
0.3641,0.6359	-99.12
0.3519,0.6481	-100.28
0.8437,0.1563	-97.30
0.3258,0.6742	-99.70
0.6053,0.3947	-99.68
0.3120,0.6880	-101.31
0.3443,0.6557	-100.96
0.3663,0.6337	-99.68
0.8458,0.1542	-95.60
0.3324,0.6676	-99.68
0.5536,0.4464	-100.39
0.3284,0.6716	-101.84
0.4399,0.5601	-100.92
0.3390,0.6610	-100.34
0.8339,0.1661	-100.52
0.3973,0.6027	-100.58
0.5782,0.4218	-99.81
0.3003,0.6997	-98.93
0.5194,0.4806	-100.47
0.3740,0.6260	-100.21
0.8064,0.1936	-98.74
0.3616,0.6384	-99.11
0.5809,0.4191	-99.14
0.2852,0.7148	-99.85
0.5158,0.4842	-100.53
0.3594,0.6406	-99.67
0.8170,0.1830	-98.79
0.3321,0.6679	-99.68
0.5530,0.4470	-99.97
0.3009,0.6991	-99.77
0.5134,0.4866	-100.40
0.2773,0.7227	-101.81
0.8334,0.1666	-95.68
0.3229,0.6771	-98.96
0.4703,0.5297	-100.40
0.2902,0.7098	-98.93
0.4586,0.5414	-100.74
0.2736,0.7264	-96.99
0.8320,0.1680	-95.69
0.3249,0.6751	-99.70
0.5007,0.4993	-100.43
0.3150,0.6850	-99.72
0.4896,0.5104	-100.41
0.2665,0.7335	-97.95
0.8615,0.1385	-97.34
0.3231,0.6769	-99.70
0.5804,0.4196	-99.15
0.3049,0.6951	-101.40
0.5150,0.4850	-100.46
0.2468,0.7532	-100.15
0.8717,0.1283	-99.30
0.2781,0.7219	-97.98
0.6300,0.3700	-100.12
0.3102,0.6898	-100.54
0.5384,0.4616	-100.08
0.2412,0.7588	-101.35
0.8937,0.1063	-93.26
0.2845,0.7155	-101.70
0.6191,0.3809	-101.08
0.3258,0.6742	-98.97
0.5956,0.4044	-99.33
0.2475,0.7525	-101.25
0.8674,0.1326	-99.24
0.2588,0.7412	-100.04
0.6330,0.3670	-100.13
0.3731,0.6269	-100.21
0.6236,0.3764	-99.61
0.2311,0.7689	-99.12
0.8696,0.1304	-93.57
0.2537,0.7463	-96.84
0.6557,0.3443	-100.18
0.4143,0.5857	-100.16
0.6649,0.3351	-101.59
0.2890,0.7110	-99.83
0.8588,0.1412	-95.52
0.2509,0.7491	-99.01
0.5989,0.4011	-100.10
0.4358,0.5642	-99.67
0.7059,0.2941	-98.68
0.2664,0.7336	-97.95
0.8342,0.1658	-95.67
0.1817,0.8183	-101.13
0.6097,0.3903	-99.21
0.5284,0.4716	-100.62
0.7815,0.2185	-97.38
0.2782,0.7218	-97.98
0.8350,0.1650	-95.67
0.1997,0.8003	-98.01
0.5952,0.4048	-98.95
0.5542,0.4458	-99.74
0.7954,0.2046	-101.41
0.2797,0.7203	-98.94
0.8234,0.1766	-98.83
0.2092,0.7908	-99.30
0.5998,0.4002	-99.29
0.5128,0.4872	-100.51
0.7805,0.2195	-97.38
0.2624,0.7376	-100.01
0.7973,0.2027	-100.07
0.2118,0.7882	-100.59
0.5884,0.4116	-100.11
0.5168,0.4832	-100.67
0.7760,0.2240	-98.64
0.2611,0.7389	-98.98
0.7772,0.2228	-98.64
0.2281,0.7719	-97.92
0.6223,0.3777	-100.61
0.4533,0.5467	-100.22
0.7390,0.2610	-99.66
0.2673,0.7327	-99.97
0.8104,0.1896	-94.40
0.1959,0.8041	-102.26
0.6591,0.3409	-100.86
0.4947,0.5053	-100.42
0.7655,0.2345	-97.44
0.2760,0.7240	-98.94
0.7843,0.2157	-97.37
0.1942,0.8058	-100.88
0.6326,0.3674	-99.58
0.5351,0.4649	-100.53
0.8211,0.1789	-97.29
0.3038,0.6962	-100.59
0.7315,0.2685	-100.63
0.1783,0.8217	-98.14
0.6113,0.3887	-99.20
0.5920,0.4080	-101.22
0.8468,0.1532	-95.59
0.2931,0.7069	-101.57
0.7049,0.2951	-99.56
0.1924,0.8076	-99.48
0.6319,0.3681	-100.67
0.5651,0.4349	-100.67
0.8681,0.1319	-95.48
0.3103,0.6897	-97.34
0.6754,0.3246	-98.80
0.1930,0.8070	-96.61
0.6573,0.3427	-98.89
0.6056,0.3944	-99.67
0.8644,0.1356	-95.50
0.2778,0.7222	-97.03
0.6777,0.3223	-98.79
0.2166,0.7834	-99.23
0.6509,0.3491	-102.66
0.5852,0.4148	-100.46
0.8552,0.1448	-97.32
0.2838,0.7162	-99.86
0.6376,0.3624	-99.01
0.1959,0.8041	-102.26
0.7033,0.2967	-96.96
0.5905,0.4095	-100.84
0.8527,0.1473	-100.83
0.2469,0.7531	-99.03
0.6261,0.3739	-100.63
0.2370,0.7630	-99.08
0.7115,0.2885	-99.57
0.6451,0.3549	-99.56
0.8633,0.1367	-97.34
0.2422,0.7578	-101.34
0.5695,0.4305	-100.14
0.2023,0.7977	-96.62
0.7013,0.2987	-99.55
0.6034,0.3966	-99.68
0.8758,0.1242	-99.35
0.2581,0.7419	-101.10
0.5254,0.4746	-100.59
0.1830,0.8170	-99.60
0.6654,0.3346	-100.22
0.6568,0.3432	-99.54
0.8495,0.1505	-97.31
0.2344,0.7656	-99.10
0.4868,0.5132	-100.41
0.2024,0.7976	-97.99
0.6753,0.3247	-100.26
0.6206,0.3794	-99.62
0.8313,0.1687	-97.29
0.2574,0.7426	-101.11
0.5239,0.4761	-100.20
0.2001,0.7999	-98.00
0.6331,0.3669	-100.67
0.6298,0.3702	-98.53
0.8371,0.1629	-97.29
0.2779,0.7221	-98.94
0.6138,0.3862	-98.72
0.1894,0.8106	-100.97
0.6339,0.3661	-99.03
0.6073,0.3927	-99.67
0.8003,0.1997	-100.10
0.3179,0.6821	-98.95
0.6345,0.3655	-100.13
0.2381,0.7619	-97.91
0.6487,0.3513	-98.94
0.6109,0.3891	-101.01
0.8152,0.1848	-97.30
0.3411,0.6589	-100.33
0.6139,0.3861	-100.57
0.2535,0.7465	-97.92
0.6324,0.3676	-99.58
0.6006,0.3994	-101.33
0.7498,0.2502	-100.81
0.2970,0.7030	-100.65
0.6194,0.3806	-100.11
0.2728,0.7272	-98.95
0.6467,0.3533	-98.95
0.6271,0.3729	-101.16
0.7065,0.2935	-98.68
0.2676,0.7324	-98.96
0.6123,0.3877	-99.19
0.2699,0.7301	-100.94
0.5986,0.4014	-99.70
0.6484,0.3516	-99.55
0.6768,0.3232	-99.53
0.3034,0.6966	-101.42
0.5845,0.4155	-101.48
0.2580,0.7420	-96.87
0.5750,0.4250	-100.73
0.6964,0.3036	-99.54
0.6393,0.3607	-100.14
0.3022,0.6978	-98.93
0.6526,0.3474	-98.91
0.2713,0.7287	-98.95
0.5404,0.4596	-100.39
0.6653,0.3347	-99.53
0.6154,0.3846	-98.23
0.3155,0.6845	-98.17
0.6609,0.3391	-100.20
0.2619,0.7381	-100.01
0.5791,0.4209	-100.44
0.6829,0.3171	-101.06
0.6440,0.3560	-98.97
0.3373,0.6627	-101.03
0.6384,0.3616	-101.84
0.2986,0.7014	-102.34
0.5979,0.4021	-101.30
0.6870,0.3130	-101.10
0.5859,0.4141	-98.38
0.3354,0.6646	-100.36
0.6893,0.3107	-99.53
0.3172,0.6828	-97.42
0.6098,0.3902	-100.10
0.6704,0.3296	-100.24
0.5703,0.4297	-100.14
0.3288,0.6712	-98.98
0.7482,0.2518	-98.62
0.2534,0.7466	-100.08
0.6411,0.3589	-99.56
0.7029,0.2971	-100.41
0.6123,0.3877	-100.11
0.2503,0.7497	-97.92
0.7774,0.2226	-98.64
0.2051,0.7949	-99.34
0.6849,0.3151	-100.31
0.7279,0.2721	-96.67
0.6253,0.3747	-99.60
0.2422,0.7578	-102.48
0.8135,0.1865	-97.30
0.2364,0.7636	-102.61
0.7100,0.2900	-100.46
0.7438,0.2562	-99.68
0.6435,0.3565	-98.38
0.2724,0.7276	-97.96
0.7984,0.2016	-98.70
0.2288,0.7712	-99.14
0.7205,0.2795	-97.70
0.7395,0.2605	-102.79
0.6185,0.3815	-102.53
0.2927,0.7073	-101.57
0.7780,0.2220	-99.90
0.2515,0.7485	-97.92
0.7605,0.2395	-100.93
0.7725,0.2275	-101.08
0.6316,0.3684	-99.59
0.2898,0.7102	-98.03
0.7743,0.2257	-97.40
0.2416,0.7584	-99.06
0.7687,0.2313	-101.03
0.7911,0.2089	-96.02
0.6320,0.3680	-99.59
0.2827,0.7173	-98.93
0.7385,0.2615	-99.66
0.2332,0.7668	-100.30
0.7842,0.2158	-99.95
0.7990,0.2010	-95.95
0.6302,0.3698	-101.19
0.3675,0.6325	-100.22
0.7206,0.2794	-97.70
0.2155,0.7845	-97.95
0.7423,0.2577	-98.62
0.7550,0.2450	-100.87
0.6563,0.3437	-99.54
0.3862,0.6138	-100.18
0.7176,0.2824	-98.65
0.1750,0.8250	-96.62
0.7406,0.2594	-101.77
0.7257,0.2743	-101.56
0.7249,0.2751	-100.58
0.4324,0.5676	-99.63
0.6837,0.3163	-97.22
0.1723,0.8277	-95.06
0.7072,0.2928	-99.56
0.7497,0.2503	-98.62
0.7120,0.2880	-99.57
0.4458,0.5542	-100.86
0.6422,0.3578	-100.15
0.1786,0.8214	-98.14
0.6902,0.3098	-100.34
0.7216,0.2784	-98.64
0.7397,0.2603	-98.62
0.4678,0.5322	-100.40
0.6872,0.3128	-100.32
0.1612,0.8388	-96.66
0.6717,0.3283	-99.53
0.7078,0.2922	-97.79
0.6742,0.3258	-100.98
0.4417,0.5583	-100.43
0.6868,0.3132	-100.32
0.2014,0.7986	-98.00
0.6954,0.3046	-98.72
0.7141,0.2859	-99.58
0.6989,0.3011	-101.23
0.4691,0.5309	-100.15
0.6713,0.3287	-98.81
0.1802,0.8198	-98.13
0.6998,0.3002	-98.70
0.7818,0.2182	-97.38
0.6559,0.3441	-100.83
0.4775,0.5225	-100.67
0.6422,0.3578	-100.73
0.2053,0.7947	-99.33
0.7210,0.2790	-97.70
0.7999,0.2001	-97.32
0.6574,0.3426	-99.54
0.4784,0.5216	-100.66
0.6264,0.3736	-99.08
0.1855,0.8145	-99.57
0.7008,0.2992	-97.85
0.7505,0.2495	-100.82
0.6798,0.3202	-98.78
0.4876,0.5124	-100.56
0.6222,0.3778	-99.11
0.2061,0.7939	-100.68
0.6557,0.3443	-100.18
0.7411,0.2589	-100.72
0.7150,0.2850	-99.58
0.4724,0.5276	-100.29
0.6568,0.3432	-98.89
0.2234,0.7766	-99.17
0.6765,0.3235	-98.05
0.7288,0.2712	-97.64
0.6761,0.3239	-99.53
0.4502,0.5498	-100.62
0.6170,0.3830	-99.15
0.1974,0.8026	-98.02
0.6155,0.3845	-100.58
0.7086,0.2914	-98.67
0.6819,0.3181	-99.53
0.4839,0.5161	-100.28
0.6213,0.3787	-100.61
0.2369,0.7631	-99.08
0.6215,0.3785	-98.62
0.7515,0.2485	-99.72
0.6795,0.3205	-96.52
0.4576,0.5424	-100.58
0.6065,0.3935	-101.83
0.2114,0.7886	-99.28
0.5733,0.4267	-100.43
0.7651,0.2349	-99.81
0.7470,0.2530	-99.70
0.3944,0.6056	-100.17
0.5961,0.4039	-99.72
0.1938,0.8062	-98.04
0.5646,0.4354	-100.93
0.7822,0.2178	-97.38
0.7219,0.2781	-99.60
0.4016,0.5984	-99.76
0.5703,0.4297	-99.57
0.1600,0.8400	-98.32
0.5125,0.4875	-100.30
0.7272,0.2728	-98.64
0.7454,0.2546	-98.62
0.4167,0.5833	-100.50
0.4682,0.5318	-100.27
0.1815,0.8185	-96.61
0.5443,0.4557	-100.92
0.7426,0.2574	-101.80
0.7637,0.2363	-102.14
0.4476,0.5524	-100.42
0.5190,0.4810	-100.47
0.1669,0.8331	-96.64
0.5000,0.5000	-100.43
0.7110,0.2890	-96.87
0.7234,0.2766	-100.56
0.4582,0.5418	-100.24
0.4701,0.5299	-100.28
0.1847,0.8153	-98.09
0.5415,0.4585	-100.22
0.7255,0.2745	-96.69
0.7055,0.2945	-99.56
0.4552,0.5448	-101.13
0.4687,0.5313	-100.78
0.1684,0.8316	-101.43
0.5443,0.4557	-100.92
0.6993,0.3007	-97.86
0.7461,0.2539	-100.77
0.4633,0.5367	-100.40
0.4877,0.5123	-100.41
0.2054,0.7946	-99.33
0.4873,0.5127	-100.31
0.7253,0.2747	-98.64
0.7427,0.2573	-97.56
0.4113,0.5887	-100.88
0.4359,0.5641	-101.22
0.1814,0.8186	-101.13
0.5000,0.5000	-100.43
0.7101,0.2899	-100.46
0.7219,0.2781	-100.55
0.4190,0.5810	-100.49
0.3992,0.6008	-100.57
0.1870,0.8130	-102.49
0.4752,0.5248	-100.20
0.6712,0.3288	-100.96
0.6797,0.3203	-100.28
0.4682,0.5318	-100.53
0.4241,0.5759	-100.47
0.2032,0.7968	-97.99
0.4845,0.5155	-100.34
0.6609,0.3391	-101.54
0.6844,0.3156	-97.98
0.4238,0.5762	-99.86
0.4502,0.5498	-99.82
0.2289,0.7711	-101.56
0.4874,0.5126	-100.41
0.6957,0.3043	-99.54
0.7136,0.2864	-101.40
0.3782,0.6218	-98.70
0.5037,0.4963	-100.46
0.1795,0.8205	-96.61
0.4792,0.5208	-100.40
0.7552,0.2448	-96.37
0.7070,0.2930	-97.80
0.4295,0.5705	-100.74
0.4569,0.5431	-100.75
0.1751,0.8249	-101.27
0.4081,0.5919	-99.79
0.7610,0.2390	-102.09
0.6860,0.3140	-99.53
0.4109,0.5891	-100.88
0.4248,0.5752	-101.38
0.2011,0.7989	-96.62
0.3976,0.6024	-98.92
0.7449,0.2551	-98.62
0.6844,0.3156	-100.30
0.3739,0.6261	-101.75
0.4884,0.5116	-100.46
0.2003,0.7997	-98.00
0.3777,0.6223	-99.70
0.7432,0.2568	-96.49
0.6621,0.3379	-100.88
0.3469,0.6531	-99.67
0.5177,0.4823	-100.54
0.2251,0.7749	-96.69
0.3026,0.6974	-101.43
0.7354,0.2646	-98.62
0.6882,0.3118	-99.53
0.3695,0.6305	-99.68
0.5553,0.4447	-100.40
0.1822,0.8178	-98.11
0.3176,0.6824	-100.48
0.6908,0.3092	-99.54
0.6756,0.3244	-101.73
0.3807,0.6193	-100.19
0.5287,0.4713	-100.27
0.1487,0.8513	-96.72
0.3206,0.6794	-100.46
0.6593,0.3407	-100.20
0.6619,0.3381	-100.21
0.3872,0.6128	-99.72
0.5458,0.4542	-100.02
0.1627,0.8373	-99.93
0.2941,0.7059	-98.93
0.6622,0.3378	-99.53
0.6833,0.3167	-97.99
0.4082,0.5918	-100.90
0.5543,0.4457	-100.18
0.1891,0.8109	-98.07
0.3198,0.6802	-99.71
0.6702,0.3298	-98.11
0.6574,0.3426	-100.84
0.4369,0.5631	-100.69
0.5283,0.4717	-100.27
0.2041,0.7959	-103.43
0.3821,0.6179	-101.15
0.6430,0.3570	-99.56
0.6503,0.3497	-101.41
0.4206,0.5794	-100.49
0.4835,0.5165	-100.14
0.1806,0.8194	-99.64
0.4476,0.5524	-100.63
0.6500,0.3500	-99.55
0.6464,0.3536	-100.76
0.4153,0.5847	-100.85
0.4999,0.5001	-100.43
0.1716,0.8284	-96.63
0.4279,0.5721	-99.88
0.6329,0.3671	-98.49
0.6327,0.3673	-100.13
0.4414,0.5586	-100.43
0.5276,0.4724	-100.72
0.1692,0.8308	-101.41
0.3987,0.6013	-99.34
0.5531,0.4469	-100.39
0.6215,0.3785	-100.11
0.3441,0.6559	-99.03
0.4967,0.5033	-100.41
0.2075,0.7925	-97.97
0.4172,0.5828	-100.50
0.5512,0.4488	-100.19
0.7069,0.2931	-99.56
0.3567,0.6433	-98.49
0.5388,0.4612	-100.07
0.2666,0.7334	-100.98
0.4030,0.5970	-99.38
0.5834,0.4166	-101.13
0.6870,0.3130	-101.10
0.3327,0.6673	-101.08
0.6114,0.3886	-100.56
0.3032,0.6968	-104.75
0.3940,0.6060	-99.74
0.6190,0.3810	-101.08
0.7479,0.2521	-98.62
0.3051,0.6949	-102.22
0.6668,0.3332	-100.22
0.2771,0.7229	-99.90
0.4126,0.5874	-100.16
0.6260,0.3740	-98.57
0.7474,0.2526	-96.45
0.3037,0.6963	-99.76
0.7143,0.2857	-98.66
0.2777,0.7223	-97.98
0.4042,0.5958	-99.77
0.6217,0.3783	-98.62
0.7335,0.2665	-97.61
0.2936,0.7064	-99.80
0.7304,0.2696	-97.63
0.2894,0.7106	-100.72
0.4594,0.5406	-100.73
0.5933,0.4067	-99.35
0.7353,0.2647	-97.60
0.3153,0.6847	-100.50
0.7327,0.2673	-100.64
0.2808,0.7192	-99.87
0.4419,0.5581	-99.73
0.5085,0.4915	-100.48
0.7502,0.2498	-97.52
0.3272,0.6728	-98.25
0.7560,0.2440	-100.88
0.2741,0.7259	-98.94
0.4356,0.5644	-100.18
0.5340,0.4660	-100.39
0.7331,0.2669	-98.63
0.3191,0.6809	-100.47
0.7442,0.2558	-97.55
0.2766,0.7234	-101.82
0.4343,0.5657	-99.92
0.5157,0.4843	-100.46
0.7292,0.2708	-96.65
0.3373,0.6627	-99.00
0.7262,0.2738	-99.61
0.2765,0.7235	-101.83
0.5077,0.4923	-100.26
0.5008,0.4992	-100.41
0.7147,0.2853	-98.66
0.3242,0.6758	-100.43
0.7057,0.2943	-98.68
0.2481,0.7519	-100.13
0.5167,0.4833	-100.40
0.5148,0.4852	-100.34
0.7732,0.2268	-96.18
0.3458,0.6542	-100.95
0.6977,0.3023	-99.54
0.2528,0.7472	-97.92
0.5832,0.4168	-99.78
0.5355,0.4645	-100.53
0.7926,0.2074	-97.34
0.3392,0.6608	-102.34
0.7230,0.2770	-98.64
0.2276,0.7724	-100.37
0.6091,0.3909	-100.10
0.5342,0.4658	-100.52
0.7730,0.2270	-98.64
0.2871,0.7129	-99.84
0.6982,0.3018	-99.54
0.1981,0.8019	-99.41
0.5905,0.4095	-100.84
0.5770,0.4230	-100.44
0.7574,0.2426	-99.76
0.3416,0.6584	-99.02
0.6644,0.3356	-100.90
0.1482,0.8518	-98.47
0.5860,0.4140	-99.77
0.5228,0.4772	-100.12
0.7835,0.2165	-97.37
0.3061,0.6939	-98.93
0.6799,0.3201	-99.53
0.1308,0.8692	-96.87
0.5496,0.4504	-100.59
0.5341,0.4659	-100.39
0.8074,0.1926	-101.61
0.2958,0.7042	-100.66
0.7121,0.2879	-101.38
0.1183,0.8817	-101.03
0.6211,0.3789	-100.11
0.5376,0.4624	-100.54
0.7985,0.2015	-97.33
0.2566,0.7434	-101.12
0.6839,0.3161	-98.76
0.1123,0.8877	-99.17
0.6351,0.3649	-100.13
0.5880,0.4120	-101.18
0.7863,0.2137	-97.36
0.2880,0.7120	-99.83
0.6827,0.3173	-100.30
0.1113,0.8887	-95.04
0.6486,0.3514	-98.94
0.5451,0.4549	-100.21
0.8171,0.1829	-98.79
0.2847,0.7153	-98.01
0.6689,0.3311	-99.53
0.1278,0.8722	-96.90
0.6057,0.3943	-100.53
0.5874,0.4126	-99.41
0.8251,0.1749	-94.19
0.3202,0.6798	-99.71
0.6464,0.3536	-101.36
0.1168,0.8832	-97.03
0.6058,0.3942	-100.53
0.5805,0.4195	-99.80
0.7594,0.2406	-99.77
0.2605,0.7395	-101.07
0.6478,0.3522	-99.55
0.1140,0.8860	-97.07
0.6662,0.3338	-100.91
0.5871,0.4129	-100.82
0.7294,0.2706	-99.62
0.3706,0.6294	-101.80
0.6539,0.3461	-101.45
0.1088,0.8912	-97.16
0.6413,0.3587	-101.89
0.5436,0.4564	-100.74
0.6783,0.3217	-99.53
0.3576,0.6424	-100.26
0.6510,0.3490	-98.92
0.0894,0.9106	-95.23
0.6573,0.3427	-98.89
0.5440,0.4560	-100.21
0.6655,0.3345	-100.91
0.3408,0.6592	-100.33
0.6815,0.3185	-99.53
0.0952,0.9048	-101.92
0.6967,0.3033	-98.71
0.5191,0.4809	-100.40
0.6181,0.3819	-100.11
0.3724,0.6276	-99.17
0.6611,0.3389	-98.87
0.0921,0.9079	-95.20
0.6895,0.3105	-99.53
0.5426,0.4574	-100.39
0.5544,0.4456	-100.83
0.4124,0.5876	-100.52
0.6611,0.3389	-102.21
0.0832,0.9168	-95.32
0.6706,0.3294	-97.40
0.5575,0.4425	-100.63
0.5207,0.4793	-100.56
0.4343,0.5657	-101.24
0.6379,0.3621	-99.01
0.0947,0.9053	-101.94
0.6787,0.3213	-100.28
0.5509,0.4491	-100.80
0.5453,0.4547	-100.57
0.5007,0.4993	-100.42
0.6049,0.3951	-99.68
0.0947,0.9053	-99.69
0.7125,0.2875	-98.66
0.5649,0.4351	-100.15
0.5841,0.4159	-100.12
0.4848,0.5152	-100.41
0.6112,0.3888	-101.01
0.0971,0.9029	-95.15
0.7030,0.2970	-98.69
0.5566,0.4434	-100.17
0.5961,0.4039	-100.11
0.4933,0.5067	-100.47
0.5766,0.4234	-100.13
0.1269,0.8731	-98.84
0.7350,0.2650	-97.60
0.5545,0.4455	-100.40
0.5589,0.4411	-100.87
0.5217,0.4783	-100.57
0.5376,0.4624	-100.54
0.1158,0.8842	-101.11
0.6759,0.3241	-98.79
0.5856,0.4144	-100.81
0.5654,0.4346	-100.94
0.5820,0.4180	-100.45
0.5718,0.4282	-100.42
0.1521,0.8479	-98.42
0.6612,0.3388	-100.20
0.5662,0.4338	-99.35
0.6222,0.3778	-99.61
0.5218,0.4782	-100.48
0.5871,0.4129	-99.06
0.1560,0.8440	-98.37
0.6252,0.3748	-100.63
0.5547,0.4453	-100.62
0.6018,0.3982	-100.10
0.5477,0.4523	-100.39
0.4858,0.5142	-100.35
0.1581,0.8419	-96.67
0.6020,0.3980	-101.34
0.5694,0.4306	-100.98
0.5820,0.4180	-100.45
0.4998,0.5002	-100.43
0.4760,0.5240	-100.59
0.1497,0.8503	-94.98
0.6223,0.3777	-99.11
0.5209,0.4791	-100.23
0.6470,0.3530	-99.55
0.5306,0.4694	-100.26
0.4407,0.5593	-100.43
0.1551,0.8449	-96.69
0.6643,0.3357	-100.21
0.4726,0.5274	-100.73
0.6381,0.3619	-100.14
0.4930,0.5070	-100.36
0.4479,0.5521	-100.00
0.1506,0.8494	-94.98
0.7124,0.2876	-100.48
0.4404,0.5596	-100.19
0.5597,0.4403	-100.64
0.4640,0.5360	-100.69
0.4761,0.5239	-100.21
0.1648,0.8352	-95.02
0.6891,0.3109	-101.13
0.4830,0.5170	-100.27
0.5625,0.4375	-100.91
0.4384,0.5616	-100.44
0.4888,0.5112	-100.37
0.2259,0.7741	-100.39
0.6692,0.3308	-99.53
0.5027,0.4973	-100.41
0.5608,0.4392	-99.67
0.4667,0.5333	-100.40
0.5160,0.4840	-100.33
0.2635,0.7365	-100.00
0.6598,0.3402	-100.86
0.5349,0.4651	-100.25
0.5697,0.4303	-100.42
0.5123,0.4877	-100.31
0.5276,0.4724	-100.72
0.3140,0.6860	-100.51
0.6417,0.3583	-102.48
0.5459,0.4541	-99.84
0.5312,0.4688	-100.39
0.4805,0.5195	-100.25
0.6320,0.3680	-98.50
0.3028,0.6972	-98.10
0.6759,0.3241	-100.26
0.5866,0.4134	-100.46
0.4921,0.5079	-100.51
0.4870,0.5130	-100.46
0.5514,0.4486	-99.57
0.3238,0.6762	-101.91
0.7092,0.2908	-102.24
0.5784,0.4216	-100.44
0.4931,0.5069	-100.39
0.5641,0.4359	-100.15
0.5758,0.4242	-100.13
0.2810,0.7190	-97.99
0.6749,0.3251	-99.53
0.5773,0.4227	-100.12
0.5360,0.4640	-100.53
0.6124,0.3876	-99.65
0.5909,0.4091	-99.37
0.3486,0.6514	-99.67
0.6899,0.3101	-98.73
0.6191,0.3809	-100.11
0.4887,0.5113	-100.55
0.6392,0.3608	-100.71
0.5689,0.4311	-99.31
0.3884,0.6116	-100.18
0.6587,0.3413	-101.51
0.6271,0.3729	-100.12
0.5139,0.4861	-100.35
0.6534,0.3466	-97.64
0.5112,0.4888	-100.49
0.3753,0.6247	-99.18
0.6764,0.3236	-101.00
0.5737,0.4263	-99.83
0.5347,0.4653	-99.97
0.6376,0.3624	-102.40
0.5225,0.4775	-100.21
0.4379,0.5621	-99.44
0.6286,0.3714	-99.07
0.5697,0.4303	-99.86
0.5684,0.4316	-100.97
0.6228,0.3772	-100.61
0.5357,0.4643	-100.53
0.4633,0.5367	-100.55
0.6164,0.3836	-99.63
0.5276,0.4724	-100.28
0.5937,0.4063	-100.11
0.6141,0.3859	-99.18
0.5167,0.4833	-100.46
0.4339,0.5661	-100.98
0.6021,0.3979	-99.27
0.4824,0.5176	-100.40
0.5833,0.4167	-99.44
0.6101,0.3899	-100.10
0.4888,0.5112	-100.32
0.4275,0.5725	-100.76
0.6475,0.3525	-101.98
0.4866,0.5134	-100.30
0.6045,0.3955	-99.25
0.5902,0.4098	-101.57
0.4970,0.5030	-100.42
0.4396,0.5604	-99.95
0.6031,0.3969	-99.68
0.4434,0.5566	-100.65
0.6489,0.3511	-99.55
0.5986,0.4014	-100.90
0.4873,0.5127	-100.41
0.3880,0.6120	-101.54
0.6466,0.3534	-101.37
0.4237,0.5763	-99.25
0.6223,0.3777	-98.61
0.5772,0.4228	-100.75
0.4636,0.5364	-100.84
0.4421,0.5579	-101.13
0.6728,0.3272	-99.53
0.4505,0.5495	-100.61
0.5861,0.4139	-101.16
0.6377,0.3623	-100.14
0.5034,0.4966	-100.43
0.4622,0.5378	-101.01
0.6278,0.3722	-101.69
0.4526,0.5474	-100.22
0.5637,0.4363	-100.15
0.6344,0.3656	-99.58
0.4606,0.5394	-100.25
0.4588,0.5412	-100.74
0.6659,0.3341	-99.53
0.4387,0.5613	-100.93
0.5469,0.4531	-100.77
0.6129,0.3871	-99.65
0.4745,0.5255	-100.20
0.5143,0.4857	-100.46
0.5820,0.4180	-100.45
0.4494,0.5506	-100.62
0.6401,0.3599	-100.14
0.5669,0.4331	-100.41
0.4566,0.5434	-100.06
0.5197,0.4803	-100.47
0.6275,0.3725	-100.64
0.4208,0.5792	-99.53
0.5714,0.4286	-100.14
0.4902,0.5098	-100.41
0.4883,0.5117	-100.32
0.5669,0.4331	-100.14
0.6627,0.3373	-100.88
0.3594,0.6406	-99.10
0.6104,0.3896	-99.66
0.4833,0.5167	-100.54
0.4954,0.5046	-100.47
0.6507,0.3493	-99.55
0.7108,0.2892	-96.87
0.4655,0.5345	-100.82
0.5864,0.4136	-100.11
0.5094,0.4906	-100.56
0.5206,0.4794	-100.39
0.6887,0.3113	-99.53
0.6390,0.3610	-101.28
0.5001,0.4999	-100.43
0.6074,0.3926	-100.10
0.5155,0.4845	-100.59
0.5202,0.4798	-100.31
0.6810,0.3190	-100.29
0.6633,0.3367	-98.85
0.4708,0.5292	-100.40
0.5655,0.4345	-100.68
0.4488,0.5512	-100.01
0.3744,0.6256	-100.21
0.7046,0.2954	-102.16
0.6492,0.3508	-100.16
0.5139,0.4861	-100.35
0.5920,0.4080	-99.74
0.4231,0.5769	-100.48
0.3541,0.6459	-98.47
0.6718,0.3282	-98.10
0.6518,0.3482	-98.92
0.5190,0.4810	-100.55
0.6390,0.3610	-100.71
0.3965,0.6035	-100.17
0.3065,0.6935	-98.12
0.6991,0.3009	-99.55
0.6511,0.3489	-100.17
0.5122,0.4878	-100.36
0.6055,0.3945	-99.67
0.4248,0.5752	-100.47
0.3041,0.6959	-99.76
0.6710,0.3290	-98.82
0.6053,0.3947	-99.68
0.5163,0.4837	-100.53
0.6317,0.3683	-101.21
0.3854,0.6146	-101.58
0.3160,0.6840	-97.40
0.6367,0.3633	-100.14
0.6482,0.3518	-99.55
0.5124,0.4876	-100.50
0.6369,0.3631	-100.14
0.3477,0.6523	-100.93
0.3046,0.6954	-98.11
0.6138,0.3862	-100.11
0.6419,0.3581	-99.56
0.4843,0.5157	-100.34
0.6204,0.3796	-99.62
0.3486,0.6514	-102.17
0.3476,0.6524	-99.04
0.6243,0.3757	-100.12
0.6085,0.3915	-100.10
0.4716,0.5284	-100.40
0.6314,0.3686	-100.13
0.3373,0.6627	-99.68
0.3699,0.6301	-99.68
0.6244,0.3756	-100.12
0.6102,0.3898	-100.10
0.4959,0.5041	-100.44
0.6753,0.3247	-100.26
0.3601,0.6399	-99.10
0.4169,0.5831	-100.50
0.5827,0.4173	-101.45
0.6337,0.3663	-99.03
0.5564,0.4436	-99.95
0.6792,0.3208	-98.78
0.3619,0.6381	-100.24
0.3340,0.6660	-101.06
0.5821,0.4179	-101.44
0.5947,0.4053	-100.87
0.5698,0.4302	-100.42
0.6669,0.3331	-99.53
0.3155,0.6845	-98.17
0.2857,0.7143	-101.68
0.5799,0.4201	-99.48
0.5830,0.4170	-100.79
0.5647,0.4353	-99.89
0.6507,0.3493	-99.55
0.3243,0.6757	-98.96
0.2879,0.7121	-99.83
0.6432,0.3568	-100.15
0.6210,0.3790	-99.12
0.5457,0.4543	-100.39
0.6267,0.3733	-102.19
0.2639,0.7361	-97.94
0.2979,0.7021	-98.07
0.6455,0.3545	-98.96
0.6573,0.3427	-99.54
0.4685,0.5315	-100.28
0.6235,0.3765	-100.11
0.3155,0.6845	-100.49
0.2939,0.7061	-98.05
0.6933,0.3067	-99.54
0.7256,0.2744	-96.69
0.4902,0.5098	-100.45
0.6608,0.3392	-98.87
0.2812,0.7188	-99.87
0.2587,0.7413	-101.09
0.7352,0.2648	-95.56
0.6983,0.3017	-99.54
0.5014,0.4986	-100.44
0.6648,0.3352	-99.53
0.2587,0.7413	-98.98
0.2354,0.7646	-101.45
0.7018,0.2982	-100.41
0.6724,0.3276	-99.53
0.4762,0.5238	-100.50
0.6764,0.3236	-98.79
0.2718,0.7282	-98.95
0.1964,0.8036	-99.43
0.7011,0.2989	-98.70
0.6483,0.3517	-99.55
0.4647,0.5353	-100.54
0.6906,0.3094	-99.54
0.2498,0.7502	-102.32
0.2082,0.7918	-99.31
0.7072,0.2928	-100.44
0.6438,0.3562	-99.56
0.4692,0.5308	-100.28
0.7122,0.2878	-98.67
0.2629,0.7371	-97.94
0.2179,0.7821	-100.50
0.6880,0.3120	-100.32
0.6782,0.3218	-98.04
0.4831,0.5169	-100.27
0.7085,0.2915	-99.56
0.2524,0.7476	-96.84
0.2426,0.7574	-99.05
0.6895,0.3105	-99.53
0.6952,0.3048	-99.54
0.5025,0.4975	-100.43
0.7008,0.2992	-101.25
0.2432,0.7568	-99.05
0.2602,0.7398	-98.98
0.6600,0.3400	-100.86
0.6638,0.3362	-100.21
0.5615,0.4385	-101.15
0.7189,0.2811	-96.77
0.2712,0.7288	-98.95
0.3040,0.6960	-98.93
0.6172,0.3828	-100.59
0.6936,0.3064	-97.09
0.6103,0.3897	-98.76
0.6729,0.3271	-98.81
0.2450,0.7550	-100.17
0.3111,0.6889	-98.94
0.5890,0.4110	-100.83
0.6835,0.3165	-97.22
0.6614,0.3386	-98.86
0.6595,0.3405	-99.54
0.2454,0.7546	-97.92
0.2754,0.7246	-101.84
0.6520,0.3480	-99.55
0.6873,0.3127	-97.17
0.7202,0.2798	-100.54
0.6667,0.3333	-102.30
0.2769,0.7231	-97.98
