#isoforms=['ENSG00000101294.SE.1.A.up_ENSG00000101294.SE.1.A.SE1_ENSG00000101294.SE.1.A.dn','ENSG00000101294.SE.1.B.up_ENSG00000101294.SE.1.B.dn']	exon_lens=('ENSG00000101294.SE.1.A.up',99),('ENSG00000101294.SE.1.A.SE1',376),('ENSG00000101294.SE.1.A.dn',89),('ENSG00000101294.SE.1.B.up',99),('ENSG00000101294.SE.1.B.dn',89)	iters=5000	burn_in=500	lag=10	percent_accept=97.96	proposal_type=drift	counts=(0,0):940,(1,0):106	assigned_counts=0:106	chrom=chr20	strand=+	mRNA_starts=31527484,31527484	mRNA_ends=31545035,31545035
sampled_psi	log_score
0.9584,0.0416	-651.70
0.9354,0.0646	-652.21
0.8513,0.1487	-654.28
0.9256,0.0744	-652.43
0.8935,0.1065	-653.20
0.7980,0.2020	-655.80
0.9521,0.0479	-651.83
0.9218,0.0782	-652.52
0.8531,0.1469	-654.23
0.9315,0.0685	-652.30
0.8898,0.1102	-653.29
0.8226,0.1774	-655.08
0.9343,0.0657	-652.23
0.9331,0.0669	-652.26
0.8834,0.1166	-653.45
0.9245,0.0755	-652.46
0.8676,0.1324	-653.85
0.8215,0.1785	-655.11
0.9325,0.0675	-652.27
0.9392,0.0608	-652.12
0.8910,0.1090	-653.26
0.9250,0.0750	-652.44
0.8949,0.1051	-653.16
0.7980,0.2020	-655.80
0.9347,0.0653	-652.22
0.9430,0.0570	-652.04
0.9132,0.0868	-652.72
0.9149,0.0851	-652.68
0.9194,0.0806	-652.58
0.7808,0.2192	-656.33
0.9380,0.0620	-652.15
0.9415,0.0585	-652.07
0.9221,0.0779	-652.51
0.8916,0.1084	-653.25
0.9075,0.0925	-652.86
0.7936,0.2064	-655.93
0.9425,0.0575	-652.05
0.9328,0.0672	-652.27
0.9253,0.0747	-652.44
0.8893,0.1107	-653.30
0.8880,0.1120	-653.33
0.8029,0.1971	-655.65
0.9561,0.0439	-651.75
0.9330,0.0670	-652.26
0.9053,0.0947	-652.91
0.9105,0.0895	-652.79
0.8968,0.1032	-653.12
0.8190,0.1810	-655.18
0.9503,0.0497	-651.87
0.9224,0.0776	-652.51
0.9178,0.0822	-652.61
0.9091,0.0909	-652.82
0.9242,0.0758	-652.46
0.8243,0.1757	-655.03
0.9556,0.0444	-651.76
0.9298,0.0702	-652.33
0.9395,0.0605	-652.11
0.9188,0.0812	-652.59
0.9112,0.0888	-652.77
0.8407,0.1593	-654.57
0.9594,0.0406	-651.68
0.9287,0.0713	-652.36
0.9403,0.0597	-652.10
0.9249,0.0751	-652.45
0.8865,0.1135	-653.37
0.8358,0.1642	-654.71
0.9582,0.0418	-651.70
0.9534,0.0466	-651.81
0.9459,0.0541	-651.97
0.9180,0.0820	-652.61
0.9109,0.0891	-652.78
0.8545,0.1455	-654.20
0.9664,0.0336	-651.52
0.9512,0.0488	-651.85
0.9613,0.0387	-651.63
0.9306,0.0694	-652.32
0.9033,0.0967	-652.96
0.8903,0.1097	-653.28
0.9751,0.0249	-651.34
0.9403,0.0597	-652.10
0.9592,0.0408	-651.68
0.9186,0.0814	-652.60
0.9022,0.0978	-652.98
0.8879,0.1121	-653.34
0.9777,0.0223	-651.29
0.9445,0.0555	-652.00
0.9595,0.0405	-651.67
0.9256,0.0744	-652.43
0.9088,0.0912	-652.83
0.8910,0.1090	-653.26
0.9760,0.0240	-651.32
0.9551,0.0449	-651.77
0.9592,0.0408	-651.68
0.9212,0.0788	-652.53
0.9149,0.0851	-652.68
0.9038,0.0962	-652.95
0.9753,0.0247	-651.33
0.9396,0.0604	-652.11
0.9581,0.0419	-651.70
0.9151,0.0849	-652.68
0.9285,0.0715	-652.37
0.9052,0.0948	-652.91
0.9750,0.0250	-651.34
0.9331,0.0669	-652.26
0.9571,0.0429	-651.72
0.9101,0.0899	-652.80
0.9312,0.0688	-652.30
0.9046,0.0954	-652.93
0.9740,0.0260	-651.36
0.9406,0.0594	-652.09
0.9432,0.0568	-652.03
0.9168,0.0832	-652.64
0.9222,0.0778	-652.51
0.9126,0.0874	-652.74
0.9710,0.0290	-651.43
0.9361,0.0639	-652.19
0.9468,0.0532	-651.95
0.9212,0.0788	-652.53
0.9144,0.0856	-652.69
0.9026,0.0974	-652.97
0.9702,0.0298	-651.44
0.9277,0.0723	-652.38
0.9405,0.0595	-652.09
0.9017,0.0983	-653.00
0.9053,0.0947	-652.91
0.9113,0.0887	-652.77
0.9640,0.0360	-651.58
0.9201,0.0799	-652.56
0.9284,0.0716	-652.37
0.8942,0.1058	-653.18
0.9190,0.0810	-652.58
0.9317,0.0683	-652.29
0.9651,0.0349	-651.55
0.8914,0.1086	-653.25
0.9343,0.0657	-652.23
0.8971,0.1029	-653.11
0.8967,0.1033	-653.12
0.9138,0.0862	-652.71
0.9606,0.0394	-651.65
0.9210,0.0790	-652.54
0.9418,0.0582	-652.06
0.8889,0.1111	-653.31
0.9180,0.0820	-652.61
0.9250,0.0750	-652.45
0.9453,0.0547	-651.98
0.9349,0.0651	-652.22
0.9447,0.0553	-652.00
0.9006,0.0994	-653.02
0.9172,0.0828	-652.63
0.9282,0.0718	-652.37
0.9461,0.0539	-651.97
0.9233,0.0767	-652.48
0.9464,0.0536	-651.96
0.8915,0.1085	-653.25
0.9141,0.0859	-652.70
0.9316,0.0684	-652.29
0.9434,0.0566	-652.03
0.9343,0.0657	-652.23
0.9539,0.0461	-651.79
0.9001,0.0999	-653.04
0.9170,0.0830	-652.63
0.9377,0.0623	-652.15
0.9480,0.0520	-651.93
0.9196,0.0804	-652.57
0.9564,0.0436	-651.74
0.9322,0.0678	-652.28
0.9220,0.0780	-652.52
0.9542,0.0458	-651.79
0.9532,0.0468	-651.81
0.9184,0.0816	-652.60
0.9556,0.0444	-651.76
0.9403,0.0597	-652.10
0.9211,0.0789	-652.54
0.9513,0.0487	-651.85
0.9572,0.0428	-651.72
0.8970,0.1030	-653.11
0.9528,0.0472	-651.82
0.9457,0.0543	-651.98
0.9204,0.0796	-652.55
0.9386,0.0614	-652.14
0.9573,0.0427	-651.72
0.8768,0.1232	-653.62
0.9671,0.0329	-651.51
0.9489,0.0511	-651.90
0.9209,0.0791	-652.54
0.9470,0.0530	-651.95
0.9468,0.0532	-651.95
0.8772,0.1228	-653.60
0.9698,0.0302	-651.45
0.9576,0.0424	-651.71
0.9148,0.0852	-652.68
0.9497,0.0503	-651.89
0.9350,0.0650	-652.22
0.8828,0.1172	-653.46
0.9636,0.0364	-651.59
0.9584,0.0416	-651.70
0.9080,0.0920	-652.85
0.9440,0.0560	-652.01
0.9277,0.0723	-652.38
0.8822,0.1178	-653.48
0.9651,0.0349	-651.55
0.9479,0.0521	-651.93
0.9013,0.0987	-653.01
0.9405,0.0595	-652.09
0.9389,0.0611	-652.13
0.8949,0.1051	-653.16
0.9657,0.0343	-651.54
0.9546,0.0454	-651.78
0.8916,0.1084	-653.25
0.9502,0.0498	-651.88
0.9320,0.0680	-652.29
0.9003,0.0997	-653.03
0.9727,0.0273	-651.39
0.9529,0.0471	-651.82
0.9102,0.0898	-652.79
0.9545,0.0455	-651.78
0.9429,0.0571	-652.04
0.9110,0.0890	-652.77
0.9698,0.0302	-651.45
0.9630,0.0370	-651.60
0.8994,0.1006	-653.05
0.9523,0.0477	-651.83
0.9550,0.0450	-651.77
0.9082,0.0918	-652.84
0.9737,0.0263	-651.37
0.9637,0.0363	-651.58
0.8758,0.1242	-653.64
0.9526,0.0474	-651.82
0.9655,0.0345	-651.54
0.9209,0.0791	-652.54
0.9681,0.0319	-651.49
0.9702,0.0298	-651.44
0.8528,0.1472	-654.24
0.9643,0.0357	-651.57
0.9587,0.0413	-651.69
0.9052,0.0948	-652.91
0.9618,0.0382	-651.62
0.9764,0.0236	-651.31
0.8708,0.1292	-653.77
0.9630,0.0370	-651.60
0.9604,0.0396	-651.65
0.9187,0.0813	-652.59
0.9619,0.0381	-651.62
0.9814,0.0186	-651.21
0.8453,0.1547	-654.44
0.9728,0.0272	-651.39
0.9701,0.0299	-651.45
0.9438,0.0562	-652.02
0.9500,0.0500	-651.88
0.9820,0.0180	-651.20
0.8415,0.1585	-654.55
0.9706,0.0294	-651.43
0.9726,0.0274	-651.39
0.9309,0.0691	-652.31
0.9522,0.0478	-651.83
0.9845,0.0155	-651.14
0.8578,0.1422	-654.11
0.9683,0.0317	-651.48
0.9697,0.0303	-651.45
0.9324,0.0676	-652.27
0.9550,0.0450	-651.77
0.9841,0.0159	-651.15
0.8701,0.1299	-653.79
0.9791,0.0209	-651.26
0.9653,0.0347	-651.55
0.9315,0.0685	-652.30
0.9609,0.0391	-651.64
0.9837,0.0163	-651.16
0.8621,0.1379	-654.00
0.9832,0.0168	-651.17
0.9611,0.0389	-651.64
0.9355,0.0645	-652.20
0.9623,0.0377	-651.61
0.9858,0.0142	-651.12
0.8536,0.1464	-654.22
0.9868,0.0132	-651.10
0.9595,0.0405	-651.67
0.9457,0.0543	-651.98
0.9659,0.0341	-651.54
0.9903,0.0097	-651.02
0.8941,0.1059	-653.18
0.9848,0.0152	-651.14
0.9524,0.0476	-651.83
0.9674,0.0326	-651.50
0.9682,0.0318	-651.49
0.9894,0.0106	-651.04
0.8785,0.1215	-653.57
0.9826,0.0174	-651.18
0.9512,0.0488	-651.85
0.9620,0.0380	-651.62
0.9680,0.0320	-651.49
0.9903,0.0097	-651.03
0.8920,0.1080	-653.23
0.9794,0.0206	-651.25
0.9549,0.0451	-651.77
0.9594,0.0406	-651.68
0.9675,0.0325	-651.50
0.9905,0.0095	-651.02
0.8725,0.1275	-653.73
0.9805,0.0195	-651.23
0.9500,0.0500	-651.88
0.9577,0.0423	-651.71
0.9666,0.0334	-651.52
0.9929,0.0071	-650.97
0.8643,0.1357	-653.94
0.9848,0.0152	-651.14
0.9464,0.0536	-651.96
0.9564,0.0436	-651.74
0.9675,0.0325	-651.50
0.9931,0.0069	-650.97
0.8919,0.1081	-653.24
0.9879,0.0121	-651.07
0.9468,0.0532	-651.95
0.9569,0.0431	-651.73
0.9708,0.0292	-651.43
0.9936,0.0064	-650.96
0.8887,0.1113	-653.31
0.9889,0.0111	-651.05
0.9376,0.0624	-652.16
0.9599,0.0401	-651.66
0.9628,0.0372	-651.60
0.9930,0.0070	-650.97
0.8902,0.1098	-653.28
0.9901,0.0099	-651.03
0.9175,0.0825	-652.62
0.9487,0.0513	-651.91
0.9665,0.0335	-651.52
0.9915,0.0085	-651.00
0.8779,0.1221	-653.59
0.9887,0.0113	-651.06
0.9213,0.0787	-652.53
0.9470,0.0530	-651.95
0.9711,0.0289	-651.42
0.9894,0.0106	-651.04
0.8829,0.1171	-653.46
0.9888,0.0112	-651.06
0.9240,0.0760	-652.47
0.9339,0.0661	-652.24
0.9752,0.0248	-651.34
0.9910,0.0090	-651.01
0.8782,0.1218	-653.58
0.9848,0.0152	-651.14
0.9298,0.0702	-652.33
0.9352,0.0648	-652.21
0.9687,0.0313	-651.48
0.9918,0.0082	-650.99
0.8694,0.1306	-653.80
0.9847,0.0153	-651.14
0.9289,0.0711	-652.35
0.9409,0.0591	-652.08
0.9717,0.0283	-651.41
0.9935,0.0065	-650.96
0.8857,0.1143	-653.39
0.9817,0.0183	-651.20
0.9407,0.0593	-652.09
0.9566,0.0434	-651.74
0.9722,0.0278	-651.40
0.9917,0.0083	-651.00
0.8739,0.1261	-653.69
0.9770,0.0230	-651.30
0.9366,0.0634	-652.18
0.9608,0.0392	-651.64
0.9615,0.0385	-651.63
0.9891,0.0109	-651.05
0.8744,0.1256	-653.68
0.9784,0.0216	-651.27
0.9301,0.0699	-652.33
0.9610,0.0390	-651.64
0.9617,0.0383	-651.63
0.9874,0.0126	-651.08
0.9027,0.0973	-652.97
0.9726,0.0274	-651.39
0.9369,0.0631	-652.17
0.9535,0.0465	-651.80
0.9549,0.0451	-651.77
0.9848,0.0152	-651.14
0.8753,0.1247	-653.65
0.9730,0.0270	-651.38
0.9525,0.0475	-651.83
0.9526,0.0474	-651.82
0.9656,0.0344	-651.54
0.9868,0.0132	-651.10
0.8836,0.1164	-653.44
0.9705,0.0295	-651.44
0.9426,0.0574	-652.04
0.9563,0.0437	-651.74
0.9675,0.0325	-651.50
0.9933,0.0067	-650.96
0.9062,0.0938	-652.89
0.9758,0.0242	-651.33
0.9441,0.0559	-652.01
0.9557,0.0443	-651.76
0.9778,0.0222	-651.28
0.9930,0.0070	-650.97
0.8940,0.1060	-653.18
0.9709,0.0291	-651.43
0.9330,0.0670	-652.26
0.9650,0.0350	-651.55
0.9773,0.0227	-651.29
0.9910,0.0090	-651.01
0.8786,0.1214	-653.57
0.9785,0.0215	-651.27
0.9300,0.0700	-652.33
0.9632,0.0368	-651.59
0.9771,0.0229	-651.30
0.9912,0.0088	-651.01
0.9034,0.0966	-652.96
0.9767,0.0233	-651.31
0.9211,0.0789	-652.54
0.9704,0.0296	-651.44
0.9747,0.0253	-651.35
0.9907,0.0093	-651.02
0.9161,0.0839	-652.65
0.9802,0.0198	-651.23
0.9216,0.0784	-652.52
0.9701,0.0299	-651.45
0.9759,0.0241	-651.32
0.9897,0.0103	-651.04
0.9242,0.0758	-652.46
0.9858,0.0142	-651.12
0.9195,0.0805	-652.57
0.9758,0.0242	-651.33
0.9781,0.0219	-651.28
0.9904,0.0096	-651.02
0.9146,0.0854	-652.69
0.9857,0.0143	-651.12
0.9180,0.0820	-652.61
0.9722,0.0278	-651.40
0.9813,0.0187	-651.21
0.9908,0.0092	-651.01
0.9393,0.0607	-652.12
0.9819,0.0181	-651.20
0.9009,0.0991	-653.02
0.9682,0.0318	-651.49
0.9771,0.0229	-651.30
0.9872,0.0128	-651.09
0.9326,0.0674	-652.27
0.9832,0.0168	-651.17
0.8675,0.1325	-653.85
0.9774,0.0226	-651.29
0.9731,0.0269	-651.38
0.9862,0.0138	-651.11
0.9350,0.0650	-652.22
0.9845,0.0155	-651.14
0.8791,0.1209	-653.56
0.9837,0.0163	-651.16
0.9722,0.0278	-651.40
0.9851,0.0149	-651.13
0.9366,0.0634	-652.18
0.9852,0.0148	-651.13
0.8783,0.1217	-653.58
0.9831,0.0169	-651.17
0.9733,0.0267	-651.38
0.9813,0.0187	-651.21
0.9342,0.0658	-652.23
0.9845,0.0155	-651.14
0.8861,0.1139	-653.38
0.9823,0.0177	-651.19
0.9714,0.0286	-651.42
0.9777,0.0223	-651.29
0.9340,0.0660	-652.24
0.9829,0.0171	-651.18
0.8877,0.1123	-653.34
0.9844,0.0156	-651.15
0.9685,0.0315	-651.48
0.9809,0.0191	-651.22
0.9460,0.0540	-651.97
0.9840,0.0160	-651.15
0.8945,0.1055	-653.17
0.9838,0.0162	-651.16
0.9757,0.0243	-651.33
0.9804,0.0196	-651.23
0.9381,0.0619	-652.15
0.9824,0.0176	-651.19
0.9074,0.0926	-652.86
0.9842,0.0158	-651.15
0.9765,0.0235	-651.31
0.9820,0.0180	-651.20
0.9475,0.0525	-651.94
0.9815,0.0185	-651.21
0.9140,0.0860	-652.70
0.9868,0.0132	-651.10
0.9750,0.0250	-651.34
0.9830,0.0170	-651.17
0.9515,0.0485	-651.85
0.9799,0.0201	-651.24
0.9147,0.0853	-652.69
0.9854,0.0146	-651.12
0.9752,0.0248	-651.34
0.9851,0.0149	-651.13
0.9454,0.0546	-651.98
0.9767,0.0233	-651.31
0.9114,0.0886	-652.77
0.9853,0.0147	-651.13
0.9778,0.0222	-651.28
0.9826,0.0174	-651.18
0.9311,0.0689	-652.30
0.9751,0.0249	-651.34
0.9220,0.0780	-652.52
0.9848,0.0152	-651.14
0.9825,0.0175	-651.19
0.9841,0.0159	-651.15
0.9441,0.0559	-652.01
0.9744,0.0256	-651.35
0.9132,0.0868	-652.72
0.9852,0.0148	-651.13
0.9832,0.0168	-651.17
0.9845,0.0155	-651.14
0.9430,0.0570	-652.04
0.9683,0.0317	-651.48
0.8972,0.1028	-653.11
0.9849,0.0151	-651.13
0.9833,0.0167	-651.17
0.9871,0.0129	-651.09
0.9403,0.0597	-652.10
0.9613,0.0387	-651.63
0.9096,0.0904	-652.81
0.9802,0.0198	-651.23
0.9843,0.0157	-651.15
0.9864,0.0136	-651.10
0.9419,0.0581	-652.06
0.9476,0.0524	-651.93
0.9109,0.0891	-652.78
0.9806,0.0194	-651.23
0.9842,0.0158	-651.15
0.9830,0.0170	-651.18
0.9412,0.0588	-652.08
0.9544,0.0456	-651.78
0.9260,0.0740	-652.42
0.9848,0.0152	-651.14
0.9854,0.0146	-651.13
0.9845,0.0155	-651.14
0.9403,0.0597	-652.10
0.9530,0.0470	-651.81
0.9144,0.0856	-652.69
0.9851,0.0149	-651.13
0.9858,0.0142	-651.12
0.9806,0.0194	-651.22
0.9293,0.0707	-652.35
0.9515,0.0485	-651.85
0.9143,0.0857	-652.69
0.9872,0.0128	-651.09
0.9878,0.0122	-651.08
0.9774,0.0226	-651.29
0.9343,0.0657	-652.23
0.9593,0.0407	-651.68
0.9090,0.0910	-652.82
0.9881,0.0119	-651.07
0.9870,0.0130	-651.09
0.9746,0.0254	-651.35
0.9385,0.0615	-652.14
0.9596,0.0404	-651.67
0.9111,0.0889	-652.77
0.9891,0.0109	-651.05
0.9895,0.0105	-651.04
0.9736,0.0264	-651.37
0.9350,0.0650	-652.22
0.9497,0.0503	-651.89
0.9005,0.0995	-653.03
0.9898,0.0102	-651.04
0.9905,0.0095	-651.02
0.9741,0.0259	-651.36
0.9470,0.0530	-651.95
0.9390,0.0610	-652.13
0.9129,0.0871	-652.73
0.9879,0.0121	-651.07
0.9920,0.0080	-650.99
0.9736,0.0264	-651.37
0.9524,0.0476	-651.83
0.9532,0.0468	-651.81
0.8868,0.1132	-653.36
0.9883,0.0117	-651.07
0.9899,0.0101	-651.03
0.9745,0.0255	-651.35
0.9612,0.0388	-651.64
0.9554,0.0446	-651.76
0.8817,0.1183	-653.49
0.9869,0.0131	-651.09
0.9885,0.0115	-651.06
0.9779,0.0221	-651.28
0.9619,0.0381	-651.62
0.9469,0.0531	-651.95
0.8922,0.1078	-653.23
0.9880,0.0120	-651.07
0.9890,0.0110	-651.05
0.9721,0.0279	-651.40
0.9639,0.0361	-651.58
0.9525,0.0475	-651.82
0.8674,0.1326	-653.86
0.9873,0.0127	-651.09
0.9914,0.0086	-651.00
0.9677,0.0323	-651.50
0.9684,0.0316	-651.48
0.9436,0.0564	-652.02
0.8464,0.1536	-654.41
0.9893,0.0107	-651.05
0.9903,0.0097	-651.02
0.9653,0.0347	-651.55
0.9605,0.0395	-651.65
0.9344,0.0656	-652.23
0.8534,0.1466	-654.23
0.9878,0.0122	-651.08
0.9896,0.0104	-651.04
0.9657,0.0343	-651.54
0.9629,0.0371	-651.60
0.9389,0.0611	-652.13
0.8584,0.1416	-654.09
0.9855,0.0145	-651.12
0.9879,0.0121	-651.07
0.9548,0.0452	-651.77
0.9676,0.0324	-651.50
0.9494,0.0506	-651.89
0.8328,0.1672	-654.79
0.9831,0.0169	-651.17
0.9893,0.0107	-651.04
0.9602,0.0398	-651.66
0.9741,0.0259	-651.36
0.9468,0.0532	-651.95
0.8317,0.1683	-654.82
0.9860,0.0140	-651.11
0.9879,0.0121	-651.07
0.9488,0.0512	-651.91
0.9772,0.0228	-651.30
0.9522,0.0478	-651.83
0.8375,0.1625	-654.66
0.9865,0.0135	-651.10
0.9894,0.0106	-651.04
0.9376,0.0624	-652.16
0.9805,0.0195	-651.23
0.9391,0.0609	-652.12
0.8774,0.1226	-653.60
0.9848,0.0152	-651.14
0.9884,0.0116	-651.06
0.9155,0.0845	-652.67
0.9792,0.0208	-651.25
0.9416,0.0584	-652.07
0.8392,0.1608	-654.61
0.9790,0.0210	-651.26
0.9897,0.0103	-651.04
0.9058,0.0942	-652.90
0.9801,0.0199	-651.23
0.9516,0.0484	-651.85
0.8604,0.1396	-654.04
0.9754,0.0246	-651.33
0.9894,0.0106	-651.04
0.9083,0.0917	-652.84
0.9804,0.0196	-651.23
0.9576,0.0424	-651.71
0.8136,0.1864	-655.34
0.9732,0.0268	-651.38
0.9894,0.0106	-651.04
0.9194,0.0806	-652.58
0.9774,0.0226	-651.29
0.9690,0.0310	-651.47
0.8390,0.1610	-654.62
0.9732,0.0268	-651.38
0.9879,0.0121	-651.07
0.9155,0.0845	-652.67
0.9787,0.0213	-651.26
0.9736,0.0264	-651.37
0.8143,0.1857	-655.32
0.9714,0.0286	-651.42
0.9908,0.0092	-651.02
0.9056,0.0944	-652.90
0.9804,0.0196	-651.23
0.9788,0.0212	-651.26
0.8178,0.1822	-655.21
0.9706,0.0294	-651.43
0.9898,0.0102	-651.03
0.8889,0.1111	-653.31
0.9758,0.0242	-651.33
0.9748,0.0252	-651.35
0.8288,0.1712	-654.90
0.9698,0.0302	-651.45
0.9891,0.0109	-651.05
0.9030,0.0970	-652.97
0.9790,0.0210	-651.26
0.9762,0.0238	-651.32
0.8296,0.1704	-654.88
0.9681,0.0319	-651.49
0.9894,0.0106	-651.04
0.9190,0.0810	-652.58
0.9771,0.0229	-651.30
0.9830,0.0170	-651.17
0.8434,0.1566	-654.50
0.9685,0.0315	-651.48
0.9904,0.0096	-651.02
0.9162,0.0838	-652.65
0.9806,0.0194	-651.23
0.9798,0.0202	-651.24
0.8807,0.1193	-653.52
0.9659,0.0341	-651.53
0.9891,0.0109	-651.05
0.9381,0.0619	-652.15
0.9793,0.0207	-651.25
0.9770,0.0230	-651.30
0.8918,0.1082	-653.24
0.9688,0.0312	-651.47
0.9869,0.0131	-651.09
0.9330,0.0670	-652.26
0.9791,0.0209	-651.26
0.9753,0.0247	-651.34
0.8535,0.1465	-654.22
0.9715,0.0285	-651.42
0.9840,0.0160	-651.15
0.9426,0.0574	-652.05
0.9797,0.0203	-651.24
0.9708,0.0292	-651.43
0.8564,0.1436	-654.15
0.9732,0.0268	-651.38
0.9823,0.0177	-651.19
0.9372,0.0628	-652.17
0.9775,0.0225	-651.29
0.9644,0.0356	-651.57
0.8486,0.1514	-654.36
0.9750,0.0250	-651.34
0.9836,0.0164	-651.16
0.9389,0.0611	-652.13
0.9758,0.0242	-651.32
0.9713,0.0287	-651.42
0.8398,0.1602	-654.60
0.9742,0.0258	-651.36
0.9877,0.0123	-651.08
0.9297,0.0703	-652.34
0.9654,0.0346	-651.55
0.9684,0.0316	-651.48
0.8298,0.1702	-654.87
0.9752,0.0248	-651.34
0.9874,0.0126	-651.08
0.9136,0.0864	-652.71
0.9648,0.0352	-651.56
0.9668,0.0332	-651.52
0.8298,0.1702	-654.87
0.9744,0.0256	-651.35
0.9860,0.0140	-651.11
0.9201,0.0799	-652.56
0.9694,0.0306	-651.46
0.9574,0.0426	-651.72
0.8200,0.1800	-655.15
0.9691,0.0309	-651.47
0.9847,0.0153	-651.14
0.9003,0.0997	-653.03
0.9576,0.0424	-651.71
0.9601,0.0399	-651.66
0.7725,0.2275	-656.59
0.9679,0.0321	-651.49
0.9855,0.0145	-651.12
0.9057,0.0943	-652.90
0.9594,0.0406	-651.68
0.9644,0.0356	-651.57
0.7793,0.2207	-656.37
0.9617,0.0383	-651.63
0.9853,0.0147	-651.13
0.8939,0.1061	-653.19
0.9636,0.0364	-651.59
0.9744,0.0256	-651.35
0.7735,0.2265	-656.56
0.9640,0.0360	-651.57
0.9860,0.0140	-651.11
0.8985,0.1015	-653.07
0.9707,0.0293	-651.43
0.9742,0.0258	-651.36
0.8128,0.1872	-655.36
0.9596,0.0404	-651.67
0.9832,0.0168	-651.17
0.9032,0.0968	-652.96
0.9740,0.0260	-651.36
0.9684,0.0316	-651.48
0.8408,0.1592	-654.57
0.9611,0.0389	-651.64
0.9816,0.0184	-651.20
0.9019,0.0981	-652.99
0.9777,0.0223	-651.29
0.9720,0.0280	-651.41
0.8668,0.1332	-653.87
0.9668,0.0332	-651.52
0.9830,0.0170	-651.17
0.9091,0.0909	-652.82
0.9761,0.0239	-651.32
0.9733,0.0267	-651.38
0.8770,0.1230	-653.61
0.9599,0.0401	-651.66
0.9848,0.0152	-651.14
0.9034,0.0966	-652.96
0.9730,0.0270	-651.38
0.9706,0.0294	-651.44
0.8799,0.1201	-653.54
0.9668,0.0332	-651.52
0.9857,0.0143	-651.12
0.9013,0.0987	-653.01
0.9687,0.0313	-651.48
0.9689,0.0311	-651.47
0.8658,0.1342	-653.90
0.9678,0.0322	-651.49
0.9865,0.0135	-651.10
0.8879,0.1121	-653.34
0.9663,0.0337	-651.53
0.9720,0.0280	-651.41
0.8641,0.1359	-653.94
0.9643,0.0357	-651.57
0.9850,0.0150	-651.13
0.8779,0.1221	-653.59
0.9592,0.0408	-651.68
0.9731,0.0269	-651.38
0.8695,0.1305	-653.80
0.9562,0.0438	-651.74
0.9852,0.0148	-651.13
0.8673,0.1327	-653.86
0.9620,0.0380	-651.62
0.9709,0.0291	-651.43
0.8468,0.1532	-654.40
0.9607,0.0393	-651.65
0.9856,0.0144	-651.12
0.8933,0.1067	-653.20
0.9572,0.0428	-651.72
0.9657,0.0343	-651.54
0.8477,0.1523	-654.38
0.9649,0.0351	-651.56
0.9848,0.0152	-651.14
0.9106,0.0894	-652.78
0.9569,0.0431	-651.73
0.9642,0.0358	-651.57
0.8677,0.1323	-653.85
0.9716,0.0284	-651.41
0.9830,0.0170	-651.17
0.9228,0.0772	-652.50
0.9619,0.0381	-651.62
0.9600,0.0400	-651.66
0.8646,0.1354	-653.93
0.9684,0.0316	-651.48
0.9764,0.0236	-651.31
0.9037,0.0963	-652.95
0.9611,0.0389	-651.64
0.9559,0.0441	-651.75
0.8515,0.1485	-654.28
0.9672,0.0328	-651.51
0.9718,0.0282	-651.41
0.9205,0.0795	-652.55
0.9643,0.0357	-651.57
0.9471,0.0529	-651.95
0.8718,0.1282	-653.74
0.9532,0.0468	-651.81
0.9647,0.0353	-651.56
0.9262,0.0738	-652.42
0.9592,0.0408	-651.68
0.9465,0.0535	-651.96
0.8566,0.1434	-654.14
0.9335,0.0665	-652.25
0.9637,0.0363	-651.58
0.9361,0.0639	-652.19
0.9523,0.0477	-651.83
0.9532,0.0468	-651.81
0.8508,0.1492	-654.30
0.9318,0.0682	-652.29
0.9724,0.0276	-651.40
0.9382,0.0618	-652.14
0.9488,0.0512	-651.91
0.9614,0.0386	-651.63
0.8357,0.1643	-654.71
0.9397,0.0603	-652.11
0.9717,0.0283	-651.41
0.9441,0.0559	-652.01
0.9509,0.0491	-651.86
0.9613,0.0387	-651.63
0.8525,0.1475	-654.25
0.9591,0.0409	-651.68
0.9743,0.0257	-651.36
0.9414,0.0586	-652.07
0.9564,0.0436	-651.74
0.9600,0.0400	-651.66
0.8399,0.1601	-654.59
0.9668,0.0332	-651.52
0.9706,0.0294	-651.43
0.9412,0.0588	-652.08
0.9615,0.0385	-651.63
0.9545,0.0455	-651.78
0.8185,0.1815	-655.20
0.9706,0.0294	-651.43
0.9725,0.0275	-651.40
0.9348,0.0652	-652.22
0.9591,0.0409	-651.68
0.9599,0.0401	-651.66
0.8249,0.1751	-655.01
0.9639,0.0361	-651.58
0.9672,0.0328	-651.51
0.9312,0.0688	-652.30
0.9564,0.0436	-651.74
0.9552,0.0448	-651.77
0.8481,0.1519	-654.37
0.9640,0.0360	-651.58
0.9638,0.0362	-651.58
0.9380,0.0620	-652.15
0.9475,0.0525	-651.94
0.9430,0.0570	-652.04
0.8702,0.1298	-653.78
0.9654,0.0346	-651.55
0.9641,0.0359	-651.57
0.9407,0.0593	-652.09
0.9351,0.0649	-652.21
0.9475,0.0525	-651.94
0.8628,0.1372	-653.98
0.9706,0.0294	-651.44
0.9610,0.0390	-651.64
0.9330,0.0670	-652.26
0.9287,0.0713	-652.36
0.9506,0.0494	-651.87
0.8742,0.1258	-653.68
0.9726,0.0274	-651.39
0.9554,0.0446	-651.76
0.9149,0.0851	-652.68
0.9166,0.0834	-652.64
0.9546,0.0454	-651.78
0.8714,0.1286	-653.75
0.9768,0.0232	-651.31
0.9613,0.0387	-651.63
0.9070,0.0930	-652.87
0.9327,0.0673	-652.27
0.9547,0.0453	-651.78
0.8387,0.1613	-654.63
0.9733,0.0267	-651.38
0.9579,0.0421	-651.71
0.9065,0.0935	-652.88
0.9434,0.0566	-652.03
0.9457,0.0543	-651.97
0.8227,0.1773	-655.08
0.9712,0.0288	-651.42
0.9494,0.0506	-651.89
0.9234,0.0766	-652.48
0.9316,0.0684	-652.29
0.9352,0.0648	-652.21
0.8161,0.1839	-655.26
0.9711,0.0289	-651.42
0.9544,0.0456	-651.78
0.9386,0.0614	-652.13
0.9322,0.0678	-652.28
0.9330,0.0670	-652.26
0.7792,0.2208	-656.38
0.9704,0.0296	-651.44
0.9591,0.0409	-651.68
0.9347,0.0653	-652.22
0.9216,0.0784	-652.52
0.9281,0.0719	-652.37
0.7788,0.2212	-656.39
0.9714,0.0286	-651.42
0.9555,0.0445	-651.76
0.9298,0.0702	-652.33
0.9279,0.0721	-652.38
0.9151,0.0849	-652.68
0.7455,0.2545	-657.48
0.9673,0.0327	-651.51
0.9571,0.0429	-651.72
0.9316,0.0684	-652.29
0.9267,0.0733	-652.41
0.9126,0.0874	-652.74
0.7778,0.2222	-656.42
0.9706,0.0294	-651.43
0.9449,0.0551	-651.99
0.9271,0.0729	-652.40
0.9183,0.0817	-652.60
0.8931,0.1069	-653.21
0.8251,0.1749	-655.01
0.9705,0.0295	-651.44
0.9372,0.0628	-652.17
0.9283,0.0717	-652.37
0.9056,0.0944	-652.90
0.8937,0.1063	-653.19
0.8475,0.1525	-654.39
0.9688,0.0312	-651.47
0.9293,0.0707	-652.35
0.9264,0.0736	-652.41
0.9014,0.0986	-653.01
0.9008,0.0992	-653.02
0.8749,0.1251	-653.67
0.9615,0.0385	-651.63
0.9321,0.0679	-652.28
0.9316,0.0684	-652.29
0.8955,0.1045	-653.15
0.9092,0.0908	-652.82
0.8812,0.1188	-653.51
0.9642,0.0358	-651.57
0.9441,0.0559	-652.01
0.9279,0.0721	-652.38
0.9098,0.0902	-652.80
0.8979,0.1021	-653.09
0.8731,0.1269	-653.71
0.9625,0.0375	-651.61
0.9369,0.0631	-652.17
0.9264,0.0736	-652.41
0.9035,0.0965	-652.95
0.8939,0.1061	-653.19
0.8760,0.1240	-653.64
0.9662,0.0338	-651.53
0.9331,0.0669	-652.26
0.9327,0.0673	-652.27
0.9096,0.0904	-652.81
0.8772,0.1228	-653.60
0.8840,0.1160	-653.43
0.9652,0.0348	-651.55
0.9290,0.0710	-652.35
0.9303,0.0697	-652.32
0.9042,0.0958	-652.94
0.8805,0.1195	-653.52
0.8725,0.1275	-653.73
0.9639,0.0361	-651.58
0.9304,0.0696	-652.32
0.9346,0.0654	-652.23
0.8765,0.1235	-653.62
0.9027,0.0973	-652.97
0.8729,0.1271	-653.72
0.9670,0.0330	-651.51
0.9357,0.0643	-652.20
0.9475,0.0525	-651.94
0.8852,0.1148	-653.40
0.8931,0.1069	-653.21
0.8536,0.1464	-654.22
0.9693,0.0307	-651.46
0.9346,0.0654	-652.22
0.9377,0.0623	-652.16
0.8968,0.1032	-653.12
0.8959,0.1041	-653.14
0.8899,0.1101	-653.29
0.9792,0.0208	-651.25
0.9347,0.0653	-652.22
0.9337,0.0663	-652.25
0.8949,0.1051	-653.16
0.8921,0.1079	-653.23
0.9081,0.0919	-652.84
0.9754,0.0246	-651.33
0.9332,0.0668	-652.26
0.9310,0.0690	-652.31
0.9086,0.0914	-652.83
0.8815,0.1185	-653.50
0.8985,0.1015	-653.07
0.9739,0.0261	-651.36
0.9346,0.0654	-652.23
0.9324,0.0676	-652.28
0.9068,0.0932	-652.87
0.9044,0.0956	-652.93
0.8958,0.1042	-653.14
0.9684,0.0316	-651.48
0.9434,0.0566	-652.03
0.9403,0.0597	-652.10
0.9085,0.0915	-652.83
0.8877,0.1123	-653.34
0.9044,0.0956	-652.93
0.9606,0.0394	-651.65
0.9541,0.0459	-651.79
0.9129,0.0871	-652.73
0.8979,0.1021	-653.09
0.8987,0.1013	-653.07
0.9016,0.0984	-653.00
0.9611,0.0389	-651.64
0.9473,0.0527	-651.94
0.9116,0.0884	-652.76
0.8912,0.1088	-653.25
0.8794,0.1206	-653.55
0.9188,0.0812	-652.59
0.9499,0.0501	-651.88
0.9541,0.0459	-651.79
0.8997,0.1003	-653.05
0.8800,0.1200	-653.53
0.8747,0.1253	-653.67
0.9064,0.0936	-652.88
0.9593,0.0407	-651.68
0.9609,0.0391	-651.64
0.8861,0.1139	-653.38
0.8862,0.1138	-653.38
0.8948,0.1052	-653.17
0.9214,0.0786	-652.53
0.9632,0.0368	-651.59
0.9569,0.0431	-651.73
0.8894,0.1106	-653.30
0.9025,0.0975	-652.98
0.8949,0.1051	-653.16
0.9408,0.0592	-652.09
0.9659,0.0341	-651.53
0.9659,0.0341	-651.54
0.8938,0.1062	-653.19
0.9147,0.0853	-652.69
0.9085,0.0915	-652.83
0.9426,0.0574	-652.04
0.9636,0.0364	-651.58
0.9645,0.0355	-651.57
0.8796,0.1204	-653.54
0.9075,0.0925	-652.86
0.9152,0.0848	-652.67
0.9460,0.0540	-651.97
0.9590,0.0410	-651.68
0.9597,0.0403	-651.67
0.8843,0.1157	-653.43
0.8912,0.1088	-653.25
0.8835,0.1165	-653.45
0.9463,0.0537	-651.96
0.9605,0.0395	-651.65
0.9605,0.0395	-651.65
0.8632,0.1368	-653.97
0.8784,0.1216	-653.58
0.8566,0.1434	-654.14
0.9315,0.0685	-652.30
0.9680,0.0320	-651.49
0.9608,0.0392	-651.65
0.8839,0.1161	-653.43
0.8566,0.1434	-654.14
0.8382,0.1618	-654.64
0.9465,0.0535	-651.96
0.9627,0.0373	-651.60
0.9612,0.0388	-651.64
0.9034,0.0966	-652.96
0.8898,0.1102	-653.29
0.8376,0.1624	-654.66
0.9396,0.0604	-652.11
0.9665,0.0335	-651.52
0.9705,0.0295	-651.44
0.9209,0.0791	-652.54
0.9047,0.0953	-652.93
0.8648,0.1352	-653.93
0.9272,0.0728	-652.40
0.9522,0.0478	-651.83
0.9662,0.0338	-651.53
0.9310,0.0690	-652.31
0.9197,0.0803	-652.57
0.8557,0.1443	-654.16
0.9377,0.0623	-652.16
0.9584,0.0416	-651.70
0.9642,0.0358	-651.57
0.9299,0.0701	-652.33
0.9054,0.0946	-652.91
0.8422,0.1578	-654.53
0.9345,0.0655	-652.23
0.9562,0.0438	-651.74
0.9690,0.0310	-651.47
0.9249,0.0751	-652.45
0.8952,0.1048	-653.15
0.8413,0.1587	-654.55
0.9267,0.0733	-652.41
0.9683,0.0317	-651.48
0.9645,0.0355	-651.57
0.9181,0.0819	-652.61
0.8782,0.1218	-653.58
0.8704,0.1296	-653.78
0.9156,0.0844	-652.67
0.9687,0.0313	-651.48
0.9600,0.0400	-651.66
0.9128,0.0872	-652.73
0.9047,0.0953	-652.93
0.8879,0.1121	-653.34
0.9179,0.0821	-652.61
0.9698,0.0302	-651.45
0.9689,0.0311	-651.47
0.9157,0.0843	-652.66
0.9167,0.0833	-652.64
0.8686,0.1314	-653.83
0.9160,0.0840	-652.66
0.9739,0.0261	-651.37
0.9704,0.0296	-651.44
0.9359,0.0641	-652.20
0.9186,0.0814	-652.60
0.8787,0.1213	-653.57
0.9119,0.0881	-652.75
0.9707,0.0293	-651.43
0.9758,0.0242	-651.32
0.9296,0.0704	-652.34
0.8950,0.1050	-653.16
0.8366,0.1634	-654.68
0.8959,0.1041	-653.14
0.9740,0.0260	-651.36
0.9793,0.0207	-651.25
0.9253,0.0747	-652.44
0.9094,0.0906	-652.81
0.8661,0.1339	-653.89
0.8857,0.1143	-653.39
0.9783,0.0217	-651.27
0.9793,0.0207	-651.25
0.9200,0.0800	-652.56
0.9154,0.0846	-652.67
0.8682,0.1318	-653.84
0.8978,0.1022	-653.09
0.9805,0.0195	-651.23
0.9754,0.0246	-651.33
0.9224,0.0776	-652.51
0.9248,0.0752	-652.45
0.8931,0.1069	-653.21
0.9019,0.0981	-652.99
0.9786,0.0214	-651.27
0.9683,0.0317	-651.48
0.9332,0.0668	-652.26
0.9221,0.0779	-652.51
0.8757,0.1243	-653.64
0.8831,0.1169	-653.46
0.9777,0.0223	-651.29
0.9715,0.0285	-651.42
0.9259,0.0741	-652.42
0.9175,0.0825	-652.62
0.8912,0.1088	-653.25
0.9041,0.0959	-652.94
0.9729,0.0271	-651.39
0.9690,0.0310	-651.47
0.9341,0.0659	-652.24
0.9322,0.0678	-652.28
0.8946,0.1054	-653.17
0.8880,0.1120	-653.33
0.9641,0.0359	-651.57
0.9700,0.0300	-651.45
0.9421,0.0579	-652.06
0.9242,0.0758	-652.46
0.8968,0.1032	-653.12
0.8646,0.1354	-653.93
0.9682,0.0318	-651.49
0.9706,0.0294	-651.43
0.9535,0.0465	-651.80
0.9410,0.0590	-652.08
0.8712,0.1288	-653.76
0.8532,0.1468	-654.23
0.9606,0.0394	-651.65
0.9743,0.0257	-651.36
0.9611,0.0389	-651.64
0.9435,0.0565	-652.03
0.8778,0.1222	-653.59
0.8372,0.1628	-654.67
0.9575,0.0425	-651.72
0.9785,0.0215	-651.27
0.9700,0.0300	-651.45
0.9529,0.0471	-651.82
0.8850,0.1150	-653.41
0.8039,0.1961	-655.62
0.9612,0.0388	-651.64
0.9794,0.0206	-651.25
0.9663,0.0337	-651.53
0.9486,0.0514	-651.91
0.8832,0.1168	-653.45
0.8294,0.1706	-654.88
0.9660,0.0340	-651.53
0.9775,0.0225	-651.29
0.9626,0.0374	-651.61
0.9520,0.0480	-651.84
0.8537,0.1463	-654.22
0.8376,0.1624	-654.66
0.9574,0.0426	-651.72
0.9774,0.0226	-651.29
0.9576,0.0424	-651.71
0.9491,0.0509	-651.90
0.8626,0.1374	-653.98
0.8426,0.1574	-654.52
0.9623,0.0377	-651.61
0.9800,0.0200	-651.24
0.9570,0.0430	-651.73
0.9583,0.0417	-651.70
0.8600,0.1400	-654.05
0.8292,0.1708	-654.89
0.9563,0.0437	-651.74
0.9769,0.0231	-651.30
0.9591,0.0409	-651.68
0.9516,0.0484	-651.84
0.8645,0.1355	-653.93
0.8296,0.1704	-654.88
0.9409,0.0591	-652.08
0.9795,0.0205	-651.25
0.9489,0.0511	-651.91
0.9482,0.0518	-651.92
0.8556,0.1444	-654.17
0.8304,0.1696	-654.86
0.9500,0.0500	-651.88
0.9773,0.0227	-651.29
0.9375,0.0625	-652.16
0.9252,0.0748	-652.44
0.8541,0.1459	-654.21
0.8307,0.1693	-654.85
0.9509,0.0491	-651.86
0.9788,0.0212	-651.26
0.9235,0.0765	-652.48
0.9157,0.0843	-652.66
0.8443,0.1557	-654.47
0.8282,0.1718	-654.92
0.9503,0.0497	-651.87
0.9739,0.0261	-651.37
0.9123,0.0877	-652.74
0.9229,0.0771	-652.49
0.8559,0.1441	-654.16
0.8576,0.1424	-654.11
0.9391,0.0609	-652.12
0.9721,0.0279	-651.40
0.9215,0.0785	-652.53
0.9122,0.0878	-652.75
0.8707,0.1293	-653.77
0.8357,0.1643	-654.71
0.9185,0.0815	-652.60
0.9702,0.0298	-651.44
0.9383,0.0617	-652.14
0.9119,0.0881	-652.75
0.8481,0.1519	-654.37
0.8414,0.1586	-654.55
0.9204,0.0796	-652.55
0.9721,0.0279	-651.40
0.9358,0.0642	-652.20
0.9041,0.0959	-652.94
0.8405,0.1595	-654.58
0.8606,0.1394	-654.03
0.9387,0.0613	-652.13
0.9690,0.0310	-651.47
0.9203,0.0797	-652.55
0.9095,0.0905	-652.81
0.8376,0.1624	-654.65
0.8732,0.1268	-653.71
0.9368,0.0632	-652.18
0.9741,0.0259	-651.36
0.9155,0.0845	-652.67
0.8922,0.1078	-653.23
0.8234,0.1766	-655.05
0.8762,0.1238	-653.63
0.9501,0.0499	-651.88
0.9747,0.0253	-651.35
0.9083,0.0917	-652.84
0.8793,0.1207	-653.55
0.8467,0.1533	-654.41
0.9035,0.0965	-652.95
0.9544,0.0456	-651.78
0.9690,0.0310	-651.47
0.9130,0.0870	-652.73
0.8866,0.1134	-653.37
0.8564,0.1436	-654.15
0.9188,0.0812	-652.59
0.9581,0.0419	-651.70
0.9582,0.0418	-651.70
0.8915,0.1085	-653.25
0.8851,0.1149	-653.41
0.8409,0.1591	-654.56
0.9116,0.0884	-652.76
0.9478,0.0522	-651.93
0.9589,0.0411	-651.68
0.8802,0.1198	-653.53
0.8919,0.1081	-653.24
0.8235,0.1765	-655.05
0.9258,0.0742	-652.43
0.9513,0.0487	-651.85
0.9627,0.0373	-651.60
0.8727,0.1273	-653.72
0.9098,0.0902	-652.80
0.8317,0.1683	-654.82
0.9285,0.0715	-652.36
0.9535,0.0465	-651.80
0.9627,0.0373	-651.60
0.8528,0.1472	-654.24
0.9023,0.0977	-652.98
0.8359,0.1641	-654.70
0.9171,0.0829	-652.63
0.9648,0.0352	-651.56
0.9614,0.0386	-651.63
0.8418,0.1582	-654.54
0.8826,0.1174	-653.47
0.8621,0.1379	-654.00
0.9215,0.0785	-652.53
0.9724,0.0276	-651.40
0.9666,0.0334	-651.52
0.8671,0.1329	-653.86
0.8895,0.1105	-653.30
0.8406,0.1594	-654.57
0.9184,0.0816	-652.60
0.9706,0.0294	-651.44
0.9700,0.0300	-651.45
0.8303,0.1697	-654.86
0.8984,0.1016	-653.08
0.8535,0.1465	-654.22
0.9046,0.0954	-652.93
0.9770,0.0230	-651.30
0.9766,0.0234	-651.31
0.8334,0.1666	-654.77
0.9170,0.0830	-652.63
0.8745,0.1255	-653.67
0.8972,0.1028	-653.11
0.9770,0.0230	-651.30
0.9783,0.0217	-651.27
0.8577,0.1423	-654.11
0.8966,0.1034	-653.12
0.8864,0.1136	-653.37
0.9122,0.0878	-652.75
0.9776,0.0224	-651.29
0.9834,0.0166	-651.17
0.8511,0.1489	-654.29
0.8956,0.1044	-653.14
0.8950,0.1050	-653.16
0.9183,0.0817	-652.60
0.9795,0.0205	-651.25
0.9869,0.0131	-651.09
0.8448,0.1552	-654.46
0.9052,0.0948	-652.91
0.8971,0.1029	-653.11
0.9177,0.0823	-652.62
0.9808,0.0192	-651.22
0.9884,0.0116	-651.06
0.8586,0.1414	-654.09
0.9059,0.0941	-652.89
0.9168,0.0832	-652.64
0.9205,0.0795	-652.55
0.9818,0.0182	-651.20
0.9841,0.0159	-651.15
0.8970,0.1030	-653.11
0.9066,0.0934	-652.88
0.9278,0.0722	-652.38
0.9151,0.0849	-652.68
0.9827,0.0173	-651.18
0.9839,0.0161	-651.16
0.9118,0.0882	-652.76
0.9118,0.0882	-652.76
0.9336,0.0664	-652.25
0.9400,0.0600	-652.10
0.9813,0.0187	-651.21
0.9861,0.0139	-651.11
0.9007,0.0993	-653.02
0.9263,0.0737	-652.42
0.9406,0.0594	-652.09
0.9413,0.0587	-652.07
0.9837,0.0163	-651.16
0.9865,0.0135	-651.10
0.9053,0.0947	-652.91
0.9320,0.0680	-652.28
0.9594,0.0406	-651.68
0.9509,0.0491	-651.86
0.9855,0.0145	-651.12
0.9906,0.0094	-651.02
0.9209,0.0791	-652.54
0.9388,0.0612	-652.13
0.9647,0.0353	-651.56
0.9449,0.0551	-651.99
0.9801,0.0199	-651.24
0.9918,0.0082	-650.99
0.9129,0.0871	-652.73
0.9370,0.0630	-652.17
0.9714,0.0286	-651.42
0.9449,0.0551	-651.99
0.9814,0.0186	-651.21
0.9920,0.0080	-650.99
0.9090,0.0910	-652.82
0.9466,0.0534	-651.96
0.9740,0.0260	-651.36
0.9501,0.0499	-651.88
0.9827,0.0173	-651.18
0.9908,0.0092	-651.02
0.9172,0.0828	-652.63
0.9389,0.0611	-652.13
0.9696,0.0304	-651.46
0.9489,0.0511	-651.91
0.9827,0.0173	-651.18
0.9874,0.0126	-651.08
0.9113,0.0887	-652.77
0.9520,0.0480	-651.84
0.9745,0.0255	-651.35
0.9469,0.0531	-651.95
0.9804,0.0196	-651.23
0.9843,0.0157	-651.15
0.8910,0.1090	-653.26
0.9503,0.0497	-651.87
0.9685,0.0315	-651.48
0.9486,0.0514	-651.91
0.9739,0.0261	-651.36
0.9844,0.0156	-651.15
0.8903,0.1097	-653.28
0.9535,0.0465	-651.80
0.9736,0.0264	-651.37
0.9467,0.0533	-651.95
0.9736,0.0264	-651.37
0.9858,0.0142	-651.12
0.9107,0.0893	-652.78
0.9627,0.0373	-651.60
0.9735,0.0265	-651.37
0.9484,0.0516	-651.92
0.9753,0.0247	-651.33
0.9866,0.0134	-651.10
0.9225,0.0775	-652.50
0.9633,0.0367	-651.59
0.9547,0.0453	-651.78
0.9596,0.0404	-651.67
0.9756,0.0244	-651.33
0.9833,0.0167	-651.17
0.9308,0.0692	-652.31
0.9655,0.0345	-651.54
0.9505,0.0495	-651.87
0.9576,0.0424	-651.71
0.9695,0.0305	-651.46
0.9840,0.0160	-651.15
0.9257,0.0743	-652.43
0.9682,0.0318	-651.49
0.9511,0.0489	-651.86
0.9612,0.0388	-651.64
0.9700,0.0300	-651.45
0.9856,0.0144	-651.12
0.9356,0.0644	-652.20
0.9578,0.0422	-651.71
0.9558,0.0442	-651.75
0.9594,0.0406	-651.67
0.9706,0.0294	-651.43
0.9861,0.0139	-651.11
0.9250,0.0750	-652.44
0.9591,0.0409	-651.68
0.9543,0.0457	-651.79
0.9642,0.0358	-651.57
0.9792,0.0208	-651.25
0.9835,0.0165	-651.16
0.9288,0.0712	-652.36
0.9568,0.0432	-651.73
0.9572,0.0428	-651.72
0.9611,0.0389	-651.64
0.9794,0.0206	-651.25
0.9823,0.0177	-651.19
0.9393,0.0607	-652.12
0.9547,0.0453	-651.78
0.9584,0.0416	-651.70
0.9547,0.0453	-651.78
0.9686,0.0314	-651.48
0.9824,0.0176	-651.19
0.9314,0.0686	-652.30
0.9577,0.0423	-651.71
0.9695,0.0305	-651.46
0.9538,0.0462	-651.80
0.9776,0.0224	-651.29
0.9800,0.0200	-651.24
0.9191,0.0809	-652.58
0.9617,0.0383	-651.62
0.9691,0.0309	-651.47
0.9550,0.0450	-651.77
0.9750,0.0250	-651.34
0.9759,0.0241	-651.32
0.9274,0.0726	-652.39
0.9582,0.0418	-651.70
0.9653,0.0347	-651.55
0.9614,0.0386	-651.63
0.9774,0.0226	-651.29
0.9729,0.0271	-651.39
0.9133,0.0867	-652.72
0.9552,0.0448	-651.77
0.9576,0.0424	-651.71
0.9672,0.0328	-651.51
0.9739,0.0261	-651.37
0.9710,0.0290	-651.43
0.9248,0.0752	-652.45
0.9571,0.0429	-651.73
0.9566,0.0434	-651.73
0.9697,0.0303	-651.46
0.9750,0.0250	-651.34
0.9732,0.0268	-651.38
0.9164,0.0836	-652.65
0.9630,0.0370	-651.60
0.9596,0.0404	-651.67
0.9653,0.0347	-651.55
0.9689,0.0311	-651.47
0.9743,0.0257	-651.36
0.9234,0.0766	-652.48
0.9661,0.0339	-651.53
0.9581,0.0419	-651.70
0.9655,0.0345	-651.54
0.9721,0.0279	-651.40
0.9727,0.0273	-651.39
0.9233,0.0767	-652.48
0.9634,0.0366	-651.59
0.9557,0.0443	-651.76
0.9643,0.0357	-651.57
0.9659,0.0341	-651.54
0.9752,0.0248	-651.34
0.9334,0.0666	-652.25
0.9606,0.0394	-651.65
0.9521,0.0479	-651.84
0.9664,0.0336	-651.53
0.9632,0.0368	-651.59
0.9768,0.0232	-651.30
0.9327,0.0673	-652.27
0.9593,0.0407	-651.68
0.9600,0.0400	-651.66
0.9611,0.0389	-651.64
0.9706,0.0294	-651.44
0.9770,0.0230	-651.30
0.9338,0.0662	-652.24
0.9618,0.0382	-651.62
0.9668,0.0332	-651.52
0.9559,0.0441	-651.75
0.9783,0.0217	-651.27
0.9759,0.0241	-651.32
0.9249,0.0751	-652.45
0.9559,0.0441	-651.75
0.9713,0.0287	-651.42
0.9521,0.0479	-651.84
0.9745,0.0255	-651.35
0.9703,0.0297	-651.44
0.9192,0.0808	-652.58
0.9354,0.0646	-652.21
0.9724,0.0276	-651.40
0.9500,0.0500	-651.88
0.9770,0.0230	-651.30
0.9739,0.0261	-651.36
0.9389,0.0611	-652.13
0.9334,0.0666	-652.25
0.9725,0.0275	-651.40
0.9460,0.0540	-651.97
0.9674,0.0326	-651.50
0.9713,0.0287	-651.42
0.9277,0.0723	-652.38
0.9221,0.0779	-652.51
0.9749,0.0251	-651.34
0.9447,0.0553	-652.00
0.9527,0.0473	-651.82
0.9668,0.0332	-651.52
0.9387,0.0613	-652.13
0.9444,0.0556	-652.00
0.9783,0.0217	-651.27
0.9385,0.0615	-652.14
0.9638,0.0362	-651.58
0.9721,0.0279	-651.40
0.9369,0.0631	-652.17
0.9430,0.0570	-652.04
0.9803,0.0197	-651.23
0.9406,0.0594	-652.09
0.9621,0.0379	-651.62
0.9717,0.0283	-651.41
0.9304,0.0696	-652.32
0.9428,0.0572	-652.04
0.9798,0.0202	-651.24
0.9449,0.0551	-651.99
0.9591,0.0409	-651.68
0.9714,0.0286	-651.42
0.9321,0.0679	-652.28
0.9374,0.0626	-652.16
0.9763,0.0237	-651.31
0.9438,0.0562	-652.02
0.9544,0.0456	-651.78
0.9750,0.0250	-651.34
0.9381,0.0619	-652.15
0.9425,0.0575	-652.05
0.9736,0.0264	-651.37
0.9537,0.0463	-651.80
0.9515,0.0485	-651.85
0.9785,0.0215	-651.27
0.9538,0.0462	-651.80
0.9465,0.0535	-651.96
0.9656,0.0344	-651.54
0.9506,0.0494	-651.87
0.9550,0.0450	-651.77
0.9724,0.0276	-651.40
0.9515,0.0485	-651.85
0.9578,0.0422	-651.71
0.9585,0.0415	-651.70
0.9534,0.0466	-651.81
0.9424,0.0576	-652.05
0.9681,0.0319	-651.49
0.9622,0.0378	-651.61
0.9444,0.0556	-652.00
0.9583,0.0417	-651.70
0.9533,0.0467	-651.81
0.9339,0.0661	-652.24
0.9661,0.0339	-651.53
0.9684,0.0316	-651.48
0.9389,0.0611	-652.13
0.9543,0.0457	-651.79
0.9507,0.0493	-651.87
0.9437,0.0563	-652.02
0.9677,0.0323	-651.50
0.9653,0.0347	-651.55
0.9424,0.0576	-652.05
0.9500,0.0500	-651.88
0.9445,0.0555	-652.00
0.9276,0.0724	-652.38
0.9629,0.0371	-651.60
0.9651,0.0349	-651.55
0.9455,0.0545	-651.98
0.9440,0.0560	-652.01
0.9452,0.0548	-651.99
0.9155,0.0845	-652.67
0.9654,0.0346	-651.55
0.9718,0.0282	-651.41
0.9379,0.0621	-652.15
0.9271,0.0729	-652.40
0.9485,0.0515	-651.91
0.9172,0.0828	-652.63
0.9625,0.0375	-651.61
0.9654,0.0346	-651.54
0.9366,0.0634	-652.18
0.9192,0.0808	-652.58
0.9464,0.0536	-651.96
0.8986,0.1014	-653.07
0.9573,0.0427	-651.72
0.9704,0.0296	-651.44
0.9386,0.0614	-652.13
0.9311,0.0689	-652.30
0.9305,0.0695	-652.32
0.8945,0.1055	-653.17
0.9619,0.0381	-651.62
0.9653,0.0347	-651.55
0.9333,0.0667	-652.26
0.9421,0.0579	-652.06
0.9252,0.0748	-652.44
0.8837,0.1163	-653.44
0.9630,0.0370	-651.60
0.9569,0.0431	-651.73
0.9402,0.0598	-652.10
0.9447,0.0553	-652.00
0.9237,0.0763	-652.48
0.8793,0.1207	-653.55
0.9670,0.0330	-651.51
0.9597,0.0403	-651.67
0.9468,0.0532	-651.95
0.9498,0.0502	-651.89
0.8991,0.1009	-653.06
0.8665,0.1335	-653.88
0.9697,0.0303	-651.45
0.9612,0.0388	-651.64
0.9443,0.0557	-652.01
0.9407,0.0593	-652.09
0.8746,0.1254	-653.67
0.8817,0.1183	-653.49
0.9746,0.0254	-651.35
0.9580,0.0420	-651.71
0.9520,0.0480	-651.84
0.9486,0.0514	-651.91
0.8631,0.1369	-653.97
0.8848,0.1152	-653.41
0.9741,0.0259	-651.36
0.9665,0.0335	-651.52
0.9604,0.0396	-651.65
0.9404,0.0596	-652.09
0.8811,0.1189	-653.51
0.8643,0.1357	-653.94
0.9791,0.0209	-651.26
0.9544,0.0456	-651.78
0.9696,0.0304	-651.46
0.9492,0.0508	-651.90
0.8955,0.1045	-653.15
0.8829,0.1171	-653.46
0.9774,0.0226	-651.29
0.9537,0.0463	-651.80
0.9663,0.0337	-651.53
0.9506,0.0494	-651.87
0.8847,0.1153	-653.42
0.8845,0.1155	-653.42
0.9767,0.0233	-651.31
0.9496,0.0504	-651.89
0.9652,0.0348	-651.55
0.9541,0.0459	-651.79
0.8674,0.1326	-653.86
0.8833,0.1167	-653.45
0.9835,0.0165	-651.17
0.9568,0.0432	-651.73
0.9527,0.0473	-651.82
0.9600,0.0400	-651.66
0.8809,0.1191	-653.51
0.8840,0.1160	-653.43
0.9835,0.0165	-651.16
0.9607,0.0393	-651.65
0.9451,0.0549	-651.99
0.9679,0.0321	-651.49
0.8752,0.1248	-653.66
0.8535,0.1465	-654.22
0.9845,0.0155	-651.14
0.9668,0.0332	-651.51
0.9493,0.0507	-651.90
0.9704,0.0296	-651.44
0.8692,0.1308	-653.81
0.8532,0.1468	-654.23
0.9827,0.0173	-651.18
0.9706,0.0294	-651.44
0.9500,0.0500	-651.88
0.9650,0.0350	-651.55
0.8641,0.1359	-653.94
0.8676,0.1324	-653.85
0.9846,0.0154	-651.14
0.9608,0.0392	-651.65
0.9435,0.0565	-652.03
0.9672,0.0328	-651.51
0.8451,0.1549	-654.45
0.8692,0.1308	-653.81
0.9847,0.0153	-651.14
0.9613,0.0387	-651.63
0.9330,0.0670	-652.26
0.9614,0.0386	-651.63
0.8454,0.1546	-654.44
0.8757,0.1243	-653.64
0.9845,0.0155	-651.14
0.9638,0.0362	-651.58
0.9415,0.0585	-652.07
0.9715,0.0285	-651.42
0.8682,0.1318	-653.84
0.8906,0.1094	-653.27
0.9853,0.0147	-651.13
0.9664,0.0336	-651.52
0.9378,0.0622	-652.15
0.9742,0.0258	-651.36
0.8469,0.1531	-654.40
0.8944,0.1056	-653.17
0.9818,0.0182	-651.20
0.9596,0.0404	-651.67
0.9339,0.0661	-652.24
0.9735,0.0265	-651.37
0.8537,0.1463	-654.22
0.9216,0.0784	-652.52
0.9860,0.0140	-651.11
0.9647,0.0353	-651.56
0.9437,0.0563	-652.02
0.9763,0.0237	-651.32
0.8534,0.1466	-654.23
0.9269,0.0731	-652.40
0.9856,0.0144	-651.12
0.9674,0.0326	-651.50
0.9431,0.0569	-652.03
0.9747,0.0253	-651.35
0.8557,0.1443	-654.16
0.9328,0.0672	-652.27
0.9865,0.0135	-651.10
0.9629,0.0371	-651.60
0.9364,0.0636	-652.18
0.9806,0.0194	-651.22
0.8305,0.1695	-654.85
0.9277,0.0723	-652.38
0.9867,0.0133	-651.10
0.9714,0.0286	-651.42
0.9421,0.0579	-652.06
0.9833,0.0167	-651.17
0.8127,0.1873	-655.36
0.9397,0.0603	-652.11
0.9898,0.0102	-651.03
0.9665,0.0335	-651.52
0.9553,0.0447	-651.76
0.9794,0.0206	-651.25
0.8258,0.1742	-654.99
0.9339,0.0661	-652.24
0.9891,0.0109	-651.05
0.9668,0.0332	-651.52
0.9581,0.0419	-651.70
0.9815,0.0185	-651.21
0.8422,0.1578	-654.53
0.9337,0.0663	-652.24
0.9885,0.0115	-651.06
0.9677,0.0323	-651.50
0.9662,0.0338	-651.53
0.9790,0.0210	-651.26
0.8014,0.1986	-655.70
0.9450,0.0550	-651.99
0.9857,0.0143	-651.12
0.9721,0.0279	-651.40
0.9658,0.0342	-651.54
0.9723,0.0277	-651.40
0.8328,0.1672	-654.79
0.9564,0.0436	-651.74
0.9876,0.0124	-651.08
0.9776,0.0224	-651.29
0.9656,0.0344	-651.54
0.9753,0.0247	-651.34
0.8197,0.1803	-655.16
0.9533,0.0467	-651.81
0.9856,0.0144	-651.12
0.9752,0.0248	-651.34
0.9619,0.0381	-651.62
0.9770,0.0230	-651.30
0.8585,0.1415	-654.09
0.9605,0.0395	-651.65
0.9859,0.0141	-651.11
0.9803,0.0197	-651.23
0.9568,0.0432	-651.73
0.9813,0.0187	-651.21
0.8796,0.1204	-653.54
0.9686,0.0314	-651.48
0.9885,0.0115	-651.06
0.9781,0.0219	-651.28
0.9673,0.0327	-651.50
0.9830,0.0170	-651.18
0.8765,0.1235	-653.62
0.9719,0.0281	-651.41
0.9905,0.0095	-651.02
0.9719,0.0281	-651.41
0.9622,0.0378	-651.61
0.9843,0.0157	-651.15
0.8906,0.1094	-653.27
0.9654,0.0346	-651.55
0.9902,0.0098	-651.03
0.9760,0.0240	-651.32
0.9602,0.0398	-651.66
0.9862,0.0138	-651.11
0.9087,0.0913	-652.83
0.9690,0.0310	-651.47
0.9896,0.0104	-651.04
0.9776,0.0224	-651.29
0.9576,0.0424	-651.72
0.9875,0.0125	-651.08
0.9055,0.0945	-652.90
0.9732,0.0268	-651.38
0.9901,0.0099	-651.03
0.9819,0.0181	-651.20
0.9682,0.0318	-651.49
0.9849,0.0151	-651.14
0.8991,0.1009	-653.06
0.9659,0.0341	-651.54
0.9907,0.0093	-651.02
0.9804,0.0196	-651.23
0.9761,0.0239	-651.32
0.9844,0.0156	-651.15
0.9126,0.0874	-652.74
0.9637,0.0363	-651.58
0.9895,0.0105	-651.04
0.9799,0.0201	-651.24
0.9736,0.0264	-651.37
0.9839,0.0161	-651.16
0.9162,0.0838	-652.65
0.9531,0.0469	-651.81
0.9924,0.0076	-650.98
0.9783,0.0217	-651.27
0.9787,0.0213	-651.27
0.9787,0.0213	-651.26
0.8782,0.1218	-653.58
0.9479,0.0521	-651.93
0.9907,0.0093	-651.02
0.9815,0.0185	-651.21
0.9774,0.0226	-651.29
0.9786,0.0214	-651.27
0.8637,0.1363	-653.95
0.9556,0.0444	-651.76
0.9894,0.0106	-651.04
0.9834,0.0166	-651.17
0.9780,0.0220	-651.28
0.9826,0.0174	-651.18
0.8777,0.1223	-653.59
0.9472,0.0528	-651.94
0.9889,0.0111	-651.05
0.9811,0.0189	-651.21
0.9771,0.0229	-651.30
0.9764,0.0236	-651.31
0.8995,0.1005	-653.05
0.9514,0.0486	-651.85
0.9886,0.0114	-651.06
0.9852,0.0148	-651.13
0.9743,0.0257	-651.36
0.9717,0.0283	-651.41
0.8973,0.1027	-653.10
0.9453,0.0547	-651.98
0.9901,0.0099	-651.03
0.9837,0.0163	-651.16
0.9750,0.0250	-651.34
0.9763,0.0237	-651.31
0.9075,0.0925	-652.86
0.9477,0.0523	-651.93
0.9897,0.0103	-651.04
0.9834,0.0166	-651.17
0.9760,0.0240	-651.32
0.9754,0.0246	-651.33
0.9074,0.0926	-652.86
0.9494,0.0506	-651.89
0.9903,0.0097	-651.02
0.9849,0.0151	-651.13
0.9785,0.0215	-651.27
0.9767,0.0233	-651.31
0.8991,0.1009	-653.06
0.9512,0.0488	-651.85
0.9887,0.0113	-651.06
0.9874,0.0126	-651.08
0.9794,0.0206	-651.25
0.9678,0.0322	-651.49
0.9129,0.0871	-652.73
0.9418,0.0582	-652.06
0.9882,0.0118	-651.07
0.9877,0.0123	-651.08
0.9752,0.0248	-651.34
0.9714,0.0286	-651.42
0.9128,0.0872	-652.73
0.9399,0.0601	-652.11
0.9893,0.0107	-651.05
0.9862,0.0138	-651.11
0.9721,0.0279	-651.40
0.9666,0.0334	-651.52
0.8914,0.1086	-653.25
0.9533,0.0467	-651.81
0.9908,0.0092	-651.01
0.9884,0.0116	-651.06
0.9619,0.0381	-651.62
0.9657,0.0343	-651.54
0.8543,0.1457	-654.20
0.9682,0.0318	-651.49
0.9894,0.0106	-651.04
0.9879,0.0121	-651.07
0.9608,0.0392	-651.64
0.9690,0.0310	-651.47
0.8529,0.1471	-654.24
0.9724,0.0276	-651.40
0.9874,0.0126	-651.08
0.9892,0.0108	-651.05
0.9610,0.0390	-651.64
0.9664,0.0336	-651.52
0.8622,0.1378	-653.99
0.9734,0.0266	-651.38
0.9849,0.0151	-651.13
0.9894,0.0106	-651.04
0.9665,0.0335	-651.52
0.9726,0.0274	-651.39
0.8932,0.1068	-653.20
0.9717,0.0283	-651.41
0.9847,0.0153	-651.14
0.9895,0.0105	-651.04
0.9632,0.0368	-651.59
0.9646,0.0354	-651.56
0.9183,0.0817	-652.60
0.9772,0.0228	-651.30
0.9839,0.0161	-651.16
0.9893,0.0107	-651.04
0.9532,0.0468	-651.81
0.9636,0.0364	-651.59
0.9086,0.0914	-652.83
0.9705,0.0295	-651.44
0.9788,0.0212	-651.26
0.9888,0.0112	-651.05
0.9585,0.0415	-651.69
0.9627,0.0373	-651.60
0.9209,0.0791	-652.54
0.9659,0.0341	-651.53
0.9766,0.0234	-651.31
0.9883,0.0117	-651.07
0.9599,0.0401	-651.66
0.9607,0.0393	-651.65
0.9329,0.0671	-652.26
0.9673,0.0327	-651.50
0.9767,0.0233	-651.31
0.9879,0.0121	-651.07
0.9658,0.0342	-651.54
0.9632,0.0368	-651.59
0.9504,0.0496	-651.87
0.9566,0.0434	-651.74
0.9769,0.0231	-651.30
0.9845,0.0155	-651.14
0.9735,0.0265	-651.37
0.9686,0.0314	-651.48
0.9669,0.0331	-651.51
0.9540,0.0460	-651.79
0.9725,0.0275	-651.39
0.9826,0.0174	-651.18
0.9655,0.0345	-651.54
0.9711,0.0289	-651.42
0.9498,0.0502	-651.88
0.9615,0.0385	-651.63
0.9721,0.0279	-651.40
0.9836,0.0164	-651.16
0.9646,0.0354	-651.56
0.9725,0.0275	-651.40
0.9524,0.0476	-651.83
0.9649,0.0351	-651.56
0.9685,0.0315	-651.48
0.9846,0.0154	-651.14
0.9654,0.0346	-651.55
0.9679,0.0321	-651.49
0.9568,0.0432	-651.73
0.9618,0.0382	-651.62
0.9766,0.0234	-651.31
0.9851,0.0149	-651.13
0.9706,0.0294	-651.44
0.9693,0.0307	-651.46
0.9546,0.0454	-651.78
0.9625,0.0375	-651.61
0.9705,0.0295	-651.44
0.9876,0.0124	-651.08
0.9785,0.0215	-651.27
0.9660,0.0340	-651.53
0.9575,0.0425	-651.72
0.9537,0.0463	-651.80
0.9693,0.0307	-651.46
0.9865,0.0135	-651.10
0.9764,0.0236	-651.31
0.9665,0.0335	-651.52
0.9472,0.0528	-651.94
0.9574,0.0426	-651.72
0.9627,0.0373	-651.60
0.9814,0.0186	-651.21
0.9781,0.0219	-651.28
0.9672,0.0328	-651.51
0.9422,0.0578	-652.05
0.9546,0.0454	-651.78
0.9612,0.0388	-651.64
0.9822,0.0178	-651.19
0.9786,0.0214	-651.27
0.9673,0.0327	-651.51
0.9292,0.0708	-652.35
0.9459,0.0541	-651.97
0.9635,0.0365	-651.59
0.9808,0.0192	-651.22
0.9759,0.0241	-651.32
0.9693,0.0307	-651.46
0.9251,0.0749	-652.44
0.9456,0.0544	-651.98
0.9664,0.0336	-651.52
0.9841,0.0159	-651.15
0.9710,0.0290	-651.43
0.9669,0.0331	-651.51
0.9244,0.0756	-652.46
0.9329,0.0671	-652.26
0.9524,0.0476	-651.83
0.9855,0.0145	-651.12
0.9678,0.0322	-651.49
0.9668,0.0332	-651.52
0.9302,0.0698	-652.33
0.9301,0.0699	-652.33
0.9509,0.0491	-651.86
0.9823,0.0177	-651.19
0.9727,0.0273	-651.39
0.9591,0.0409	-651.68
0.9129,0.0871	-652.73
0.9325,0.0675	-652.27
0.9566,0.0434	-651.74
0.9814,0.0186	-651.21
0.9724,0.0276	-651.40
0.9563,0.0437	-651.74
0.9010,0.0990	-653.01
0.9263,0.0737	-652.42
0.9496,0.0504	-651.89
0.9798,0.0202	-651.24
0.9829,0.0171	-651.18
0.9650,0.0350	-651.55
0.8908,0.1092	-653.26
0.9276,0.0724	-652.39
0.9409,0.0591	-652.08
0.9836,0.0164	-651.16
0.9859,0.0141	-651.11
0.9678,0.0322	-651.49
0.8786,0.1214	-653.57
0.9207,0.0793	-652.54
0.9362,0.0638	-652.19
0.9783,0.0217	-651.27
0.9845,0.0155	-651.14
0.9734,0.0266	-651.38
0.9012,0.0988	-653.01
0.9122,0.0878	-652.75
0.9494,0.0506	-651.89
0.9833,0.0167	-651.17
0.9851,0.0149	-651.13
0.9792,0.0208	-651.25
0.9211,0.0789	-652.54
0.9092,0.0908	-652.82
0.9554,0.0446	-651.76
0.9781,0.0219	-651.28
0.9872,0.0128	-651.09
0.9734,0.0266	-651.38
0.9195,0.0805	-652.57
0.8931,0.1069	-653.21
0.9463,0.0537	-651.96
0.9799,0.0201	-651.24
0.9891,0.0109	-651.05
0.9694,0.0306	-651.46
0.9375,0.0625	-652.16
0.8911,0.1089	-653.26
0.9440,0.0560	-652.01
0.9751,0.0249	-651.34
0.9922,0.0078	-650.99
0.9692,0.0308	-651.46
0.9251,0.0749	-652.44
0.8590,0.1410	-654.08
0.9439,0.0561	-652.01
0.9664,0.0336	-651.52
0.9928,0.0072	-650.97
0.9635,0.0365	-651.59
0.9144,0.0856	-652.69
0.8605,0.1395	-654.04
0.9345,0.0655	-652.23
0.9690,0.0310	-651.47
0.9944,0.0056	-650.94
0.9622,0.0378	-651.62
0.9178,0.0822	-652.61
0.8694,0.1306	-653.81
0.9281,0.0719	-652.37
0.9675,0.0325	-651.50
0.9944,0.0056	-650.94
0.9638,0.0362	-651.58
0.9082,0.0918	-652.84
0.8664,0.1336	-653.88
0.9300,0.0700	-652.33
0.9582,0.0418	-651.70
0.9958,0.0042	-650.91
0.9660,0.0340	-651.53
0.9109,0.0891	-652.78
0.8870,0.1130	-653.36
0.9307,0.0693	-652.31
0.9608,0.0392	-651.65
0.9951,0.0049	-650.93
0.9642,0.0358	-651.57
0.9174,0.0826	-652.62
0.8969,0.1031	-653.11
0.9249,0.0751	-652.45
0.9473,0.0527	-651.94
0.9955,0.0045	-650.92
0.9590,0.0410	-651.68
0.8870,0.1130	-653.36
0.9062,0.0938	-652.89
0.9363,0.0637	-652.19
0.9422,0.0578	-652.05
0.9957,0.0043	-650.91
0.9524,0.0476	-651.83
0.8899,0.1101	-653.29
0.8992,0.1008	-653.06
0.9276,0.0724	-652.39
0.9267,0.0733	-652.41
0.9959,0.0041	-650.91
0.9464,0.0536	-651.96
0.8839,0.1161	-653.44
0.9131,0.0869	-652.72
0.9339,0.0661	-652.24
0.9110,0.0890	-652.77
0.9944,0.0056	-650.94
0.9319,0.0681	-652.29
0.8487,0.1513	-654.35
0.8885,0.1115	-653.32
0.9541,0.0459	-651.79
0.9034,0.0966	-652.96
0.9942,0.0058	-650.94
0.9429,0.0571	-652.04
0.8169,0.1831	-655.24
0.8672,0.1328	-653.86
0.9626,0.0374	-651.61
0.9108,0.0892	-652.78
0.9951,0.0049	-650.93
0.9292,0.0708	-652.35
0.8066,0.1934	-655.54
0.8730,0.1270	-653.71
0.9623,0.0377	-651.61
0.9227,0.0773	-652.50
0.9941,0.0059	-650.95
0.9436,0.0564	-652.02
0.7954,0.2046	-655.88
0.8775,0.1225	-653.60
0.9602,0.0398	-651.66
0.9346,0.0654	-652.23
0.9933,0.0067	-650.96
0.9356,0.0644	-652.20
0.7979,0.2021	-655.80
0.8975,0.1025	-653.10
0.9661,0.0339	-651.53
0.9261,0.0739	-652.42
0.9944,0.0056	-650.94
0.9406,0.0594	-652.09
0.8303,0.1697	-654.86
0.9088,0.0912	-652.83
0.9700,0.0300	-651.45
0.9206,0.0794	-652.55
0.9927,0.0073	-650.98
0.9337,0.0663	-652.25
0.8469,0.1531	-654.40
0.8899,0.1101	-653.29
0.9612,0.0388	-651.64
0.9326,0.0674	-652.27
0.9895,0.0105	-651.04
0.9257,0.0743	-652.43
0.8601,0.1399	-654.05
0.8824,0.1176	-653.47
0.9506,0.0494	-651.87
0.9115,0.0885	-652.76
0.9875,0.0125	-651.08
0.9354,0.0646	-652.21
0.8627,0.1373	-653.98
0.8755,0.1245	-653.65
0.9573,0.0427	-651.72
0.9001,0.0999	-653.04
0.9919,0.0081	-650.99
0.9185,0.0815	-652.60
0.8579,0.1421	-654.11
0.9017,0.0983	-653.00
0.9529,0.0471	-651.82
0.9157,0.0843	-652.66
0.9925,0.0075	-650.98
0.9217,0.0783	-652.52
0.8440,0.1560	-654.48
0.8928,0.1072	-653.21
0.9572,0.0428	-651.72
0.9077,0.0923	-652.85
0.9889,0.0111	-651.05
0.9141,0.0859	-652.70
0.8698,0.1302	-653.80
0.8443,0.1557	-654.47
0.9542,0.0458	-651.79
0.8935,0.1065	-653.20
0.9903,0.0097	-651.03
0.9137,0.0863	-652.71
0.8660,0.1340	-653.89
0.8463,0.1537	-654.42
0.9491,0.0509	-651.90
0.8711,0.1289	-653.76
0.9885,0.0115	-651.06
0.9262,0.0738	-652.42
0.8731,0.1269	-653.71
0.8752,0.1248	-653.66
0.9539,0.0461	-651.79
0.8916,0.1084	-653.24
0.9845,0.0155	-651.14
0.9340,0.0660	-652.24
0.8515,0.1485	-654.28
0.8664,0.1336	-653.88
0.9326,0.0674	-652.27
0.8846,0.1154	-653.42
0.9854,0.0146	-651.13
0.9167,0.0833	-652.64
0.8808,0.1192	-653.51
0.8944,0.1056	-653.17
0.9322,0.0678	-652.28
0.8689,0.1311	-653.82
0.9868,0.0132	-651.10
0.9096,0.0904	-652.81
0.8554,0.1446	-654.17
0.9074,0.0926	-652.86
0.9505,0.0495	-651.87
0.8716,0.1284	-653.75
0.9847,0.0153	-651.14
0.9134,0.0866	-652.72
0.8814,0.1186	-653.50
0.9161,0.0839	-652.65
0.9480,0.0520	-651.92
0.8735,0.1265	-653.70
0.9875,0.0125	-651.08
0.9042,0.0958	-652.94
0.8842,0.1158	-653.43
0.9251,0.0749	-652.44
0.9489,0.0511	-651.90
0.8688,0.1312	-653.82
0.9888,0.0112	-651.05
0.9184,0.0816	-652.60
0.8964,0.1036	-653.13
0.9380,0.0620	-652.15
0.9509,0.0491	-651.86
0.8726,0.1274	-653.72
0.9889,0.0111	-651.05
0.9491,0.0509	-651.90
0.9109,0.0891	-652.78
0.9396,0.0604	-652.11
0.9547,0.0453	-651.78
0.8975,0.1025	-653.10
0.9876,0.0124	-651.08
0.9478,0.0522	-651.93
0.8974,0.1026	-653.10
0.9435,0.0565	-652.03
0.9516,0.0484	-651.85
0.9259,0.0741	-652.42
0.9847,0.0153	-651.14
0.9516,0.0484	-651.85
0.9118,0.0882	-652.75
0.9536,0.0464	-651.80
0.9412,0.0588	-652.08
0.9124,0.0876	-652.74
0.9850,0.0150	-651.13
0.9594,0.0406	-651.67
0.9061,0.0939	-652.89
0.9584,0.0416	-651.70
0.9485,0.0515	-651.91
0.9271,0.0729	-652.40
0.9806,0.0194	-651.22
0.9620,0.0380	-651.62
0.9316,0.0684	-652.29
0.9636,0.0364	-651.59
0.9567,0.0433	-651.73
0.9243,0.0757	-652.46
0.9798,0.0202	-651.24
0.9603,0.0397	-651.65
0.9410,0.0590	-652.08
0.9663,0.0337	-651.53
0.9438,0.0562	-652.02
0.9418,0.0582	-652.06
0.9847,0.0153	-651.14
0.9578,0.0422	-651.71
0.9510,0.0490	-651.86
0.9655,0.0345	-651.54
0.9513,0.0487	-651.85
0.9333,0.0667	-652.26
0.9860,0.0140	-651.11
0.9628,0.0372	-651.60
0.9621,0.0379	-651.62
0.9723,0.0277	-651.40
0.9395,0.0605	-652.11
0.9430,0.0570	-652.04
0.9885,0.0115	-651.06
0.9664,0.0336	-651.52
0.9482,0.0518	-651.92
0.9669,0.0331	-651.51
0.9558,0.0442	-651.75
0.9462,0.0538	-651.97
0.9891,0.0109	-651.05
0.9615,0.0385	-651.63
0.9565,0.0435	-651.74
0.9659,0.0341	-651.53
0.9530,0.0470	-651.81
0.9353,0.0647	-652.21
0.9888,0.0112	-651.06
0.9695,0.0305	-651.46
0.9652,0.0348	-651.55
0.9598,0.0402	-651.67
0.9539,0.0461	-651.80
0.9364,0.0636	-652.18
0.9888,0.0112	-651.05
0.9656,0.0344	-651.54
0.9552,0.0448	-651.77
0.9456,0.0544	-651.98
0.9534,0.0466	-651.81
0.9402,0.0598	-652.10
0.9875,0.0125	-651.08
0.9644,0.0356	-651.57
0.9584,0.0416	-651.70
0.9325,0.0675	-652.27
0.9469,0.0531	-651.95
0.9447,0.0553	-652.00
0.9858,0.0142	-651.12
0.9571,0.0429	-651.73
0.9589,0.0411	-651.69
0.9295,0.0705	-652.34
0.9573,0.0427	-651.72
0.9390,0.0610	-652.13
0.9892,0.0108	-651.05
0.9492,0.0508	-651.90
0.9608,0.0392	-651.65
0.9415,0.0585	-652.07
0.9471,0.0529	-651.95
0.9444,0.0556	-652.01
0.9902,0.0098	-651.03
0.9430,0.0570	-652.04
0.9464,0.0536	-651.96
0.9404,0.0596	-652.09
0.9450,0.0550	-651.99
0.9374,0.0626	-652.16
0.9911,0.0089	-651.01
0.9245,0.0755	-652.46
0.9352,0.0648	-652.21
0.9376,0.0624	-652.16
0.9351,0.0649	-652.21
0.9074,0.0926	-652.86
0.9902,0.0098	-651.03
0.9292,0.0708	-652.35
0.9370,0.0630	-652.17
0.9478,0.0522	-651.93
0.9382,0.0618	-652.14
0.9249,0.0751	-652.45
0.9892,0.0108	-651.05
0.9420,0.0580	-652.06
0.9382,0.0618	-652.14
0.9309,0.0691	-652.31
0.9334,0.0666	-652.25
0.9223,0.0777	-652.51
0.9905,0.0095	-651.02
0.9398,0.0602	-652.11
0.9413,0.0587	-652.07
0.9348,0.0652	-652.22
0.9457,0.0543	-651.98
0.9321,0.0679	-652.28
0.9913,0.0087	-651.00
0.9324,0.0676	-652.28
0.9396,0.0604	-652.11
0.9353,0.0647	-652.21
0.9506,0.0494	-651.87
0.9260,0.0740	-652.42
0.9925,0.0075	-650.98
0.9427,0.0573	-652.04
0.9383,0.0617	-652.14
0.9239,0.0761	-652.47
0.9576,0.0424	-651.71
0.9133,0.0867	-652.72
0.9932,0.0068	-650.96
0.9365,0.0635	-652.18
0.9266,0.0734	-652.41
0.9244,0.0756	-652.46
0.9415,0.0585	-652.07
0.9028,0.0972	-652.97
0.9923,0.0077	-650.98
0.9430,0.0570	-652.04
0.9338,0.0662	-652.24
0.9269,0.0731	-652.40
0.9283,0.0717	-652.37
0.9041,0.0959	-652.94
0.9931,0.0069	-650.97
0.9369,0.0631	-652.17
0.9536,0.0464	-651.80
0.9215,0.0785	-652.53
0.9231,0.0769	-652.49
0.8838,0.1162	-653.44
0.9933,0.0067	-650.96
0.9365,0.0635	-652.18
0.9530,0.0470	-651.81
0.9275,0.0725	-652.39
0.9279,0.0721	-652.38
0.8727,0.1273	-653.72
0.9927,0.0073	-650.98
0.9376,0.0624	-652.16
0.9571,0.0429	-651.72
0.9081,0.0919	-652.84
0.9201,0.0799	-652.56
0.8917,0.1083	-653.24
0.9926,0.0074	-650.98
0.9262,0.0738	-652.42
0.9608,0.0392	-651.65
0.9118,0.0882	-652.75
0.9348,0.0652	-652.22
0.8726,0.1274	-653.72
0.9936,0.0064	-650.96
0.9330,0.0670	-652.26
0.9587,0.0413	-651.69
0.9113,0.0887	-652.77
0.9366,0.0634	-652.18
0.9138,0.0862	-652.71
0.9945,0.0055	-650.94
0.9325,0.0675	-652.27
0.9626,0.0374	-651.60
0.8917,0.1083	-653.24
0.9420,0.0580	-652.06
0.9030,0.0970	-652.97
0.9948,0.0052	-650.93
0.9206,0.0794	-652.55
0.9605,0.0395	-651.65
0.8839,0.1161	-653.44
0.9482,0.0518	-651.92
0.8882,0.1118	-653.33
0.9945,0.0055	-650.94
0.9214,0.0786	-652.53
0.9587,0.0413	-651.69
0.8884,0.1116	-653.32
0.9492,0.0508	-651.90
0.8772,0.1228	-653.60
0.9928,0.0072	-650.97
0.9185,0.0815	-652.60
0.9644,0.0356	-651.57
0.8867,0.1133	-653.37
0.9457,0.0543	-651.98
0.8798,0.1202	-653.54
0.9928,0.0072	-650.97
0.9225,0.0775	-652.50
0.9614,0.0386	-651.63
0.8827,0.1173	-653.47
0.9507,0.0493	-651.87
0.8839,0.1161	-653.44
0.9920,0.0080	-650.99
0.9023,0.0977	-652.98
0.9583,0.0417	-651.70
0.8667,0.1333	-653.87
0.9579,0.0421	-651.71
0.9018,0.0982	-652.99
0.9908,0.0092	-651.01
0.9035,0.0965	-652.95
0.9591,0.0409	-651.68
0.8897,0.1103	-653.29
0.9628,0.0372	-651.60
0.9081,0.0919	-652.84
0.9910,0.0090	-651.01
0.9033,0.0967	-652.96
0.9650,0.0350	-651.55
0.9004,0.0996	-653.03
0.9523,0.0477	-651.83
0.9240,0.0760	-652.47
0.9902,0.0098	-651.03
0.9171,0.0829	-652.63
0.9629,0.0371	-651.60
0.8826,0.1174	-653.47
0.9481,0.0519	-651.92
0.9223,0.0777	-652.51
0.9883,0.0117	-651.06
0.9155,0.0845	-652.67
0.9674,0.0326	-651.50
0.9023,0.0977	-652.98
0.9577,0.0423	-651.71
0.9106,0.0894	-652.78
0.9829,0.0171	-651.18
0.9293,0.0707	-652.35
0.9719,0.0281	-651.41
0.9116,0.0884	-652.76
0.9538,0.0462	-651.80
0.9213,0.0787	-652.53
0.9775,0.0225	-651.29
0.9085,0.0915	-652.83
0.9690,0.0310	-651.47
0.9302,0.0698	-652.33
0.9633,0.0367	-651.59
0.9204,0.0796	-652.55
0.9733,0.0267	-651.38
0.9196,0.0804	-652.57
0.9675,0.0325	-651.50
0.9310,0.0690	-652.31
0.9582,0.0418	-651.70
0.9121,0.0879	-652.75
0.9652,0.0348	-651.55
0.9094,0.0906	-652.81
0.9742,0.0258	-651.36
0.9393,0.0607	-652.12
0.9584,0.0416	-651.70
0.9187,0.0813	-652.59
0.9647,0.0353	-651.56
0.9104,0.0896	-652.79
0.9709,0.0291	-651.43
0.9365,0.0635	-652.18
0.9567,0.0433	-651.73
0.9156,0.0844	-652.67
0.9569,0.0431	-651.73
0.8959,0.1041	-653.14
0.9648,0.0352	-651.56
0.9351,0.0649	-652.21
0.9663,0.0337	-651.53
0.9058,0.0942	-652.90
0.9514,0.0486	-651.85
0.9190,0.0810	-652.59
0.9559,0.0441	-651.75
0.9419,0.0581	-652.06
0.9634,0.0366	-651.59
0.9061,0.0939	-652.89
0.9502,0.0498	-651.88
0.9212,0.0788	-652.53
0.9532,0.0468	-651.81
0.9566,0.0434	-651.74
0.9521,0.0479	-651.83
0.9305,0.0695	-652.32
0.9560,0.0440	-651.75
0.9248,0.0752	-652.45
0.9655,0.0345	-651.54
0.9530,0.0470	-651.81
0.9619,0.0381	-651.62
0.9335,0.0665	-652.25
0.9632,0.0368	-651.59
0.9346,0.0654	-652.23
0.9680,0.0320	-651.49
0.9577,0.0423	-651.71
0.9694,0.0306	-651.46
0.9456,0.0544	-651.98
0.9684,0.0316	-651.48
0.9380,0.0620	-652.15
0.9642,0.0358	-651.57
0.9466,0.0534	-651.96
0.9711,0.0289	-651.43
0.9395,0.0605	-652.11
0.9674,0.0326	-651.50
0.9338,0.0662	-652.24
0.9604,0.0396	-651.65
0.9501,0.0499	-651.88
0.9717,0.0283	-651.41
0.9606,0.0394	-651.65
0.9644,0.0356	-651.57
0.9369,0.0631	-652.17
0.9595,0.0405	-651.67
0.9512,0.0488	-651.85
0.9773,0.0227	-651.29
0.9634,0.0366	-651.59
0.9654,0.0346	-651.54
0.9021,0.0979	-652.99
0.9641,0.0359	-651.57
0.9443,0.0557	-652.01
0.9804,0.0196	-651.23
0.9660,0.0340	-651.53
0.9719,0.0281	-651.41
0.9112,0.0888	-652.77
0.9705,0.0295	-651.44
0.9570,0.0430	-651.73
0.9821,0.0179	-651.19
0.9602,0.0398	-651.66
0.9794,0.0206	-651.25
0.9291,0.0709	-652.35
0.9700,0.0300	-651.45
0.9595,0.0405	-651.67
0.9795,0.0205	-651.25
0.9659,0.0341	-651.54
0.9836,0.0164	-651.16
0.9489,0.0511	-651.90
0.9615,0.0385	-651.63
0.9580,0.0420	-651.70
0.9799,0.0201	-651.24
0.9650,0.0350	-651.56
0.9834,0.0166	-651.17
0.9502,0.0498	-651.88
0.9739,0.0261	-651.37
0.9591,0.0409	-651.68
0.9858,0.0142	-651.12
0.9666,0.0334	-651.52
0.9840,0.0160	-651.15
0.9590,0.0410	-651.68
0.9625,0.0375	-651.61
0.9599,0.0401	-651.66
0.9864,0.0136	-651.11
0.9712,0.0288	-651.42
0.9838,0.0162	-651.16
0.9678,0.0322	-651.50
0.9692,0.0308	-651.46
0.9711,0.0289	-651.42
0.9898,0.0102	-651.04
0.9693,0.0307	-651.46
0.9844,0.0156	-651.15
0.9678,0.0322	-651.49
0.9693,0.0307	-651.46
0.9717,0.0283	-651.41
0.9898,0.0102	-651.03
0.9660,0.0340	-651.53
0.9822,0.0178	-651.19
0.9708,0.0292	-651.43
0.9669,0.0331	-651.51
0.9691,0.0309	-651.47
0.9865,0.0135	-651.10
0.9631,0.0369	-651.60
0.9832,0.0168	-651.17
0.9749,0.0251	-651.34
0.9629,0.0371	-651.60
0.9712,0.0288	-651.42
0.9853,0.0147	-651.13
0.9724,0.0276	-651.40
0.9846,0.0154	-651.14
0.9787,0.0213	-651.26
0.9667,0.0333	-651.52
0.9779,0.0221	-651.28
0.9846,0.0154	-651.14
0.9726,0.0274	-651.39
0.9865,0.0135	-651.10
0.9680,0.0320	-651.49
0.9641,0.0359	-651.57
0.9742,0.0258	-651.36
0.9857,0.0143	-651.12
0.9685,0.0315	-651.48
0.9861,0.0139	-651.11
0.9652,0.0348	-651.55
