#isoforms=['ENSG00000101294.SE.1.A.up_ENSG00000101294.SE.1.A.SE1_ENSG00000101294.SE.1.A.dn','ENSG00000101294.SE.1.B.up_ENSG00000101294.SE.1.B.dn']	exon_lens=('ENSG00000101294.SE.1.A.up',99),('ENSG00000101294.SE.1.A.SE1',376),('ENSG00000101294.SE.1.A.dn',89),('ENSG00000101294.SE.1.B.up',99),('ENSG00000101294.SE.1.B.dn',89)	iters=5000	burn_in=500	lag=10	percent_accept=73.36	proposal_type=drift	counts=(0,0):2059,(1,0):675,(1,1):716	assigned_counts=0:925,1:466	chrom=chr20	strand=+	mRNA_starts=31527484,31527484	mRNA_ends=31545035,31545035
sampled_psi	log_score
0.3308,0.6692	-8959.81
0.3559,0.6441	-8970.77
0.3311,0.6689	-8953.45
0.3186,0.6814	-8939.38
0.3288,0.6712	-8963.58
0.3410,0.6590	-8952.62
0.3208,0.6792	-8970.06
0.3299,0.6701	-8960.60
0.3378,0.6622	-8957.98
0.3698,0.6302	-8968.38
0.3651,0.6349	-8963.09
0.3519,0.6481	-8961.12
0.3505,0.6495	-8969.11
0.3484,0.6516	-8981.73
0.3588,0.6412	-8977.13
0.3445,0.6555	-8948.22
0.3721,0.6279	-8961.26
0.3455,0.6545	-8964.27
0.3589,0.6411	-8961.46
0.3625,0.6375	-8966.82
0.3579,0.6421	-8954.96
0.3651,0.6349	-8965.30
0.3738,0.6262	-8973.91
0.3656,0.6344	-8983.53
0.3211,0.6789	-8952.77
0.3762,0.6238	-8971.04
0.3595,0.6405	-8966.12
0.3592,0.6408	-8967.84
0.3639,0.6361	-8964.09
0.3767,0.6233	-8972.09
0.3386,0.6614	-8951.93
0.3652,0.6348	-8977.47
0.3406,0.6594	-8959.89
0.3574,0.6426	-8968.99
0.3829,0.6171	-8979.92
0.3344,0.6656	-8967.09
0.3449,0.6551	-8962.37
0.3604,0.6396	-8974.18
0.3532,0.6468	-8959.95
0.3434,0.6566	-8948.80
0.3372,0.6628	-8960.03
0.3578,0.6422	-8953.78
0.3089,0.6911	-8955.43
0.3525,0.6475	-8974.52
0.3375,0.6625	-8947.88
0.3373,0.6627	-8969.48
0.3718,0.6282	-8966.98
0.3399,0.6601	-8958.58
0.3411,0.6589	-8961.84
0.3491,0.6509	-8967.93
0.3217,0.6783	-8950.48
0.3087,0.6913	-8946.59
0.3434,0.6566	-8970.84
0.3373,0.6627	-8945.85
0.3482,0.6518	-8962.32
0.3439,0.6561	-8964.33
0.3305,0.6695	-8953.49
0.3299,0.6701	-8949.97
0.3645,0.6355	-8958.02
0.3337,0.6663	-8951.27
0.3223,0.6777	-8942.99
0.3474,0.6526	-8972.42
0.3146,0.6854	-8940.38
0.3175,0.6825	-8937.90
0.3557,0.6443	-8977.90
0.3431,0.6569	-8966.31
0.3406,0.6594	-8940.07
0.3729,0.6271	-8974.38
0.3483,0.6517	-8966.08
0.3882,0.6118	-8973.49
0.3674,0.6326	-8974.19
0.3325,0.6675	-8954.09
0.3346,0.6654	-8971.20
0.3730,0.6270	-8974.90
0.3382,0.6618	-8957.30
0.3613,0.6387	-8977.02
0.3499,0.6501	-8967.28
0.3485,0.6515	-8980.46
0.3453,0.6547	-8970.03
0.3835,0.6165	-8983.76
0.3482,0.6518	-8967.34
0.3511,0.6489	-8972.16
0.3562,0.6438	-8971.36
0.3402,0.6598	-8973.15
0.3320,0.6680	-8963.20
0.3338,0.6662	-8959.57
0.3671,0.6329	-8973.09
0.3570,0.6430	-8968.40
0.3169,0.6831	-8944.07
0.3620,0.6380	-8961.13
0.3363,0.6637	-8951.25
0.3681,0.6319	-8972.58
0.3399,0.6601	-8966.54
0.3486,0.6514	-8964.82
0.3248,0.6752	-8949.50
0.3714,0.6286	-8976.42
0.3205,0.6795	-8952.84
0.3571,0.6429	-8964.28
0.3599,0.6401	-8968.44
0.3819,0.6181	-8973.60
0.3422,0.6578	-8961.80
0.3787,0.6213	-8977.24
0.3395,0.6605	-8961.92
0.3839,0.6161	-8979.04
0.3264,0.6736	-8936.37
0.3562,0.6438	-8966.62
0.3611,0.6389	-8970.75
0.3454,0.6546	-8963.63
0.3323,0.6677	-8956.19
0.3476,0.6524	-8960.44
0.3643,0.6357	-8959.67
0.3505,0.6495	-8969.11
0.3582,0.6418	-8971.91
0.3582,0.6418	-8963.74
0.3454,0.6546	-8961.08
0.3512,0.6488	-8956.81
0.3577,0.6423	-8956.11
0.3506,0.6494	-8958.63
0.3477,0.6523	-8971.76
0.3498,0.6502	-8951.78
0.3520,0.6480	-8970.89
0.3625,0.6375	-8967.95
0.3558,0.6442	-8960.68
0.3363,0.6637	-8961.44
0.3650,0.6350	-8956.43
0.3411,0.6589	-8963.82
0.3286,0.6714	-8950.02
0.3421,0.6579	-8964.42
0.3246,0.6754	-8956.84
0.3509,0.6491	-8950.64
0.3717,0.6283	-8994.27
0.3461,0.6539	-8971.89
0.3527,0.6473	-8968.44
0.3729,0.6271	-8982.70
0.3514,0.6486	-8986.24
0.3516,0.6484	-8958.06
0.3382,0.6618	-8967.36
0.3650,0.6350	-8964.18
0.3708,0.6292	-8971.64
0.3493,0.6507	-8957.97
0.3591,0.6409	-8975.95
0.3238,0.6762	-8948.83
0.3629,0.6371	-8968.53
0.3392,0.6608	-8948.60
0.3468,0.6532	-8968.03
0.3377,0.6623	-8954.62
0.3669,0.6331	-8966.54
0.3320,0.6680	-8965.30
0.3280,0.6720	-8954.35
0.3813,0.6187	-8976.92
0.3547,0.6453	-8971.40
0.3572,0.6428	-8971.34
0.3717,0.6283	-8971.17
0.3762,0.6238	-8974.07
0.3410,0.6590	-8954.60
0.3750,0.6250	-8965.30
0.3224,0.6776	-8951.90
0.3501,0.6499	-8977.17
0.3571,0.6429	-8957.82
0.3719,0.6281	-8971.71
0.3464,0.6536	-8968.68
0.3699,0.6301	-8962.01
0.2935,0.7065	-8924.28
0.3584,0.6416	-8968.41
0.3299,0.6701	-8958.48
0.3633,0.6367	-8958.44
0.3517,0.6483	-8977.02
0.3400,0.6600	-8964.55
0.3239,0.6761	-8944.41
0.3328,0.6672	-8947.81
0.3538,0.6462	-8967.21
0.3437,0.6563	-8946.23
0.3731,0.6269	-8959.34
0.3240,0.6760	-8950.29
0.3383,0.6617	-8961.99
0.3449,0.6551	-8961.72
0.3510,0.6490	-8945.12
0.3519,0.6481	-8965.40
0.3648,0.6352	-8968.61
0.3371,0.6629	-8955.31
0.3300,0.6700	-8955.63
0.3381,0.6619	-8970.73
0.3472,0.6528	-8975.58
0.3642,0.6358	-8978.61
0.3571,0.6429	-8961.34
0.3448,0.6552	-8958.52
0.3290,0.6710	-8950.01
0.3590,0.6410	-8961.46
0.3412,0.6588	-8961.84
0.3677,0.6323	-8962.81
0.3299,0.6701	-8953.52
0.3506,0.6494	-8944.46
0.3307,0.6693	-8964.75
0.3650,0.6350	-8971.38
0.3318,0.6682	-8973.73
0.3262,0.6738	-8952.32
0.3631,0.6369	-8970.78
0.3647,0.6353	-8965.83
0.3408,0.6592	-8957.24
0.3814,0.6186	-8968.72
0.3244,0.6756	-8942.92
0.3364,0.6636	-8949.21
0.3658,0.6342	-8967.56
0.3812,0.6188	-8979.83
0.3457,0.6543	-8954.69
0.3454,0.6546	-8948.29
0.3459,0.6541	-8954.06
0.3428,0.6572	-8965.03
0.3401,0.6599	-8965.20
0.3728,0.6272	-8979.58
0.3403,0.6597	-8960.56
0.3526,0.6474	-8945.34
0.3578,0.6422	-8950.86
0.3443,0.6557	-8942.42
0.3548,0.6452	-8965.41
0.3414,0.6586	-8964.46
0.3328,0.6672	-8940.86
0.3695,0.6305	-8967.30
0.3540,0.6460	-8956.38
0.3429,0.6571	-8974.78
0.3689,0.6311	-8965.64
0.3308,0.6692	-8950.65
0.3229,0.6771	-8945.93
0.3170,0.6830	-8934.85
0.3567,0.6433	-8967.81
0.3392,0.6608	-8971.28
0.3383,0.6617	-8951.93
0.3207,0.6793	-8954.33
0.3467,0.6533	-8952.83
0.3119,0.6881	-8947.74
0.3520,0.6480	-8971.50
0.3317,0.6683	-8941.51
0.3419,0.6581	-8957.23
0.3187,0.6813	-8952.29
0.3447,0.6553	-8960.44
0.3335,0.6665	-8967.89
0.3777,0.6223	-8990.16
0.3449,0.6551	-8963.65
0.3533,0.6467	-8982.94
0.3339,0.6661	-8945.05
0.3494,0.6506	-8955.48
0.3553,0.6447	-8964.23
0.3730,0.6270	-8971.27
0.3488,0.6512	-8965.44
0.3528,0.6472	-8970.25
0.3504,0.6496	-8966.65
0.3377,0.6623	-8951.92
0.3687,0.6313	-8965.61
0.3350,0.6650	-8936.17
0.3535,0.6465	-8966.01
0.3785,0.6215	-8978.22
0.3598,0.6402	-8974.77
0.3545,0.6455	-8973.80
0.3269,0.6731	-8953.72
0.3348,0.6652	-8949.88
0.3721,0.6279	-8980.62
0.3706,0.6294	-8958.39
0.4008,0.5992	-8984.23
0.3692,0.6308	-8971.55
0.3310,0.6690	-8949.24
0.3475,0.6525	-8968.63
0.3442,0.6558	-8968.83
0.3396,0.6604	-8971.22
0.3449,0.6551	-8960.44
0.3615,0.6385	-8969.05
0.3541,0.6459	-8959.40
0.3355,0.6645	-8959.45
0.3329,0.6671	-8947.12
0.3436,0.6564	-8954.63
0.3812,0.6188	-8970.62
0.3425,0.6575	-8959.18
0.3585,0.6415	-8976.56
0.3362,0.6638	-8953.97
0.3920,0.6080	-8982.88
0.3583,0.6417	-8960.83
0.3462,0.6538	-8958.53
0.3374,0.6626	-8955.97
0.3314,0.6686	-8966.07
0.3398,0.6602	-8959.25
0.3893,0.6107	-8977.72
0.3692,0.6308	-8968.34
0.3284,0.6716	-8951.46
0.3521,0.6479	-8966.62
0.3883,0.6117	-8976.69
0.3272,0.6728	-8951.53
0.3651,0.6349	-8971.94
0.3454,0.6546	-8973.86
0.3275,0.6725	-8944.32
0.3076,0.6924	-8933.79
0.3784,0.6216	-8972.75
0.3432,0.6568	-8956.57
0.3909,0.6091	-8968.60
0.3741,0.6259	-8973.42
0.3526,0.6474	-8956.28
0.3399,0.6601	-8943.98
0.3481,0.6519	-8966.71
0.3588,0.6412	-8970.16
0.3732,0.6268	-8976.47
0.3907,0.6093	-8979.66
0.3590,0.6410	-8977.69
0.3287,0.6713	-8985.00
0.3877,0.6123	-8970.68
0.3863,0.6137	-8971.82
0.3707,0.6293	-8973.75
0.3796,0.6204	-8988.59
0.3560,0.6440	-8957.73
0.3631,0.6369	-8969.10
0.3610,0.6390	-8975.89
0.3704,0.6296	-8977.98
0.3616,0.6384	-8972.46
0.3647,0.6353	-8964.16
0.3481,0.6519	-8961.69
0.3370,0.6630	-8951.25
0.3603,0.6397	-8971.32
0.3930,0.6070	-8971.22
0.3534,0.6466	-8968.42
0.3449,0.6551	-8966.85
0.3754,0.6246	-8978.60
0.3557,0.6443	-8961.86
0.3689,0.6311	-8972.07
0.3810,0.6190	-8975.45
0.3691,0.6309	-8969.94
0.3613,0.6387	-8961.63
0.3677,0.6323	-8968.78
0.3261,0.6739	-8951.61
0.3598,0.6402	-8964.98
0.3731,0.6269	-8962.97
0.3711,0.6289	-8978.52
0.3874,0.6126	-8974.29
0.3462,0.6538	-8957.25
0.3359,0.6641	-8958.06
0.3379,0.6621	-8961.34
0.3516,0.6484	-8967.24
0.3552,0.6448	-8960.06
0.3497,0.6503	-8969.15
0.3456,0.6544	-8966.18
0.3378,0.6622	-8945.87
0.3613,0.6387	-8969.04
0.3477,0.6523	-8959.81
0.3262,0.6738	-8958.13
0.3415,0.6585	-8969.71
0.3352,0.6648	-8958.78
0.3445,0.6555	-8954.66
0.3856,0.6144	-8983.83
0.3381,0.6619	-8947.22
0.3434,0.6566	-8973.43
0.3517,0.6483	-8970.30
0.3373,0.6627	-8964.75
0.3402,0.6598	-8957.91
0.4063,0.5937	-9003.58
0.3532,0.6468	-8964.80
0.3341,0.6659	-8949.20
0.3274,0.6726	-8966.64
0.3648,0.6352	-8973.60
0.3460,0.6540	-8978.26
0.3404,0.6596	-8951.29
0.3646,0.6354	-8966.38
0.3393,0.6607	-8972.60
0.3560,0.6440	-8964.84
0.3533,0.6467	-8953.92
0.3390,0.6610	-8963.95
0.3214,0.6786	-8952.75
0.3248,0.6752	-8959.75
0.3521,0.6479	-8966.01
0.3540,0.6460	-8962.40
0.3375,0.6625	-8953.27
0.3390,0.6610	-8955.27
0.3422,0.6578	-8938.28
0.3191,0.6809	-8950.73
0.3670,0.6330	-8960.55
0.3600,0.6400	-8966.14
0.3811,0.6189	-8974.49
0.3122,0.6878	-8937.43
0.3661,0.6339	-8957.14
0.3199,0.6801	-8945.37
0.3538,0.6462	-8976.85
0.3434,0.6566	-8964.35
0.3915,0.6085	-8980.20
0.3545,0.6455	-8956.42
0.3222,0.6778	-8936.30
0.3768,0.6232	-8978.64
0.3310,0.6690	-8954.16
0.3387,0.6613	-8965.31
0.3912,0.6088	-8975.74
0.3441,0.6559	-8960.45
0.3238,0.6762	-8939.26
0.3557,0.6443	-8961.86
0.3102,0.6898	-8953.57
0.3378,0.6622	-8973.46
0.3652,0.6348	-8982.45
0.3465,0.6535	-8966.14
0.3320,0.6680	-8942.22
0.3615,0.6385	-8979.86
0.3062,0.6938	-8928.18
0.3214,0.6786	-8946.77
0.3729,0.6271	-8969.19
0.3610,0.6390	-8975.31
0.3273,0.6727	-8947.92
0.3682,0.6318	-8972.04
0.3562,0.6438	-8977.87
0.3675,0.6325	-8974.73
0.3543,0.6457	-8976.21
0.3556,0.6444	-8956.51
0.3349,0.6651	-8942.33
0.3584,0.6416	-8949.78
0.3341,0.6659	-8967.82
0.3800,0.6200	-8973.89
0.3629,0.6371	-8960.09
0.3652,0.6348	-8966.97
0.3393,0.6607	-8960.60
0.3471,0.6529	-8964.22
0.3606,0.6394	-8973.61
0.3703,0.6297	-8968.43
0.3606,0.6394	-8965.59
0.3396,0.6604	-8973.22
0.3384,0.6616	-8960.64
0.3660,0.6340	-8973.61
0.3574,0.6426	-8978.37
0.3410,0.6590	-8950.65
0.3467,0.6533	-8960.43
0.3318,0.6682	-8966.72
0.3508,0.6492	-8960.48
0.3728,0.6272	-8981.66
0.3662,0.6338	-8964.84
0.3523,0.6477	-8962.96
0.3232,0.6768	-8952.57
0.3854,0.6146	-8979.62
0.3497,0.6503	-8956.74
0.3015,0.6985	-8942.00
0.3851,0.6149	-8984.28
0.3469,0.6531	-8962.96
0.3514,0.6486	-8954.98
0.3450,0.6550	-8959.16
0.3336,0.6664	-8959.58
0.3056,0.6944	-8947.09
0.3867,0.6133	-8988.03
0.3536,0.6464	-8956.36
0.3910,0.6090	-8971.27
0.3728,0.6272	-8971.77
0.3590,0.6410	-8975.37
0.3320,0.6680	-8955.51
0.3937,0.6063	-8990.37
0.3789,0.6211	-8977.74
0.3998,0.6002	-8982.89
0.3701,0.6299	-8962.56
0.3523,0.6477	-8960.53
0.3555,0.6445	-8966.62
0.3581,0.6419	-8973.66
0.3556,0.6444	-8974.34
0.3480,0.6520	-8969.22
0.3602,0.6398	-8966.14
0.3440,0.6560	-8954.00
0.3274,0.6726	-8959.44
0.3453,0.6547	-8954.68
0.3383,0.6617	-8965.35
0.3284,0.6716	-8957.90
0.3444,0.6556	-8955.30
0.3531,0.6469	-8957.53
0.3715,0.6285	-8981.68
0.3417,0.6583	-8954.61
0.3440,0.6560	-8972.08
0.3342,0.6658	-8949.89
0.3485,0.6515	-8968.58
0.3545,0.6455	-8961.21
0.3510,0.6490	-8962.33
0.3262,0.6738	-8966.11
0.3521,0.6479	-8973.33
0.3468,0.6532	-8956.63
0.3417,0.6583	-8941.49
0.3432,0.6568	-8946.84
0.3632,0.6368	-8973.59
0.3372,0.6628	-8952.60
0.3598,0.6402	-8966.13
0.3283,0.6717	-8947.89
0.3372,0.6628	-8960.71
0.3260,0.6740	-8953.07
0.3625,0.6375	-8968.51
0.3484,0.6516	-8947.92
0.3378,0.6622	-8954.62
0.3646,0.6354	-8969.71
0.3256,0.6744	-8945.81
0.3694,0.6306	-8969.42
0.3715,0.6285	-8974.32
0.3801,0.6199	-8978.30
0.3253,0.6747	-8939.99
0.3672,0.6328	-8973.09
0.3362,0.6638	-8942.40
0.3647,0.6353	-8965.27
0.3614,0.6386	-8963.35
0.3550,0.6450	-8968.40
0.3419,0.6581	-8953.30
0.3628,0.6372	-8976.41
0.3612,0.6388	-8967.33
0.3738,0.6262	-8971.85
0.3655,0.6345	-8971.40
0.3540,0.6460	-8975.63
0.3468,0.6532	-8956.63
0.3542,0.6458	-8963.61
0.3298,0.6702	-8948.56
0.3468,0.6532	-8958.53
0.3610,0.6390	-8970.18
0.3552,0.6448	-8941.57
0.3399,0.6601	-8949.29
0.3406,0.6594	-8962.53
0.3356,0.6644	-8958.08
0.3792,0.6208	-8979.24
0.3451,0.6549	-8972.61
0.3481,0.6519	-8964.83
0.3388,0.6612	-8958.62
0.3546,0.6454	-8974.99
0.3530,0.6470	-8959.95
0.3452,0.6548	-8960.44
0.3613,0.6387	-8966.19
0.3519,0.6481	-8979.45
0.3187,0.6813	-8952.29
0.3498,0.6502	-8954.26
0.3370,0.6630	-8958.01
0.3214,0.6786	-8945.27
0.3451,0.6549	-8954.03
0.3616,0.6384	-8963.37
0.3609,0.6391	-8971.32
0.3899,0.6101	-8977.34
0.3240,0.6760	-8943.67
0.3499,0.6501	-8956.75
0.3233,0.6767	-8955.51
0.3808,0.6192	-8974.94
0.3493,0.6507	-8965.43
0.3627,0.6373	-8971.90
0.3899,0.6101	-8978.23
0.3500,0.6500	-8974.09
0.3476,0.6524	-8961.06
0.3354,0.6646	-8942.36
0.3443,0.6557	-8952.08
0.3360,0.6640	-8940.35
0.3404,0.6596	-8957.91
0.3408,0.6592	-8961.20
0.3303,0.6697	-8952.79
0.3411,0.6589	-8955.92
0.3669,0.6331	-8971.45
0.3320,0.6680	-8940.13
0.3347,0.6653	-8956.75
0.3270,0.6730	-8947.21
0.3614,0.6386	-8973.60
0.3652,0.6348	-8971.95
0.3505,0.6495	-8963.56
0.3622,0.6378	-8961.14
0.3409,0.6591	-8964.49
0.3445,0.6555	-8972.03
0.3512,0.6488	-8955.58
0.3420,0.6580	-8963.12
0.3649,0.6351	-8970.83
0.3410,0.6590	-8957.90
0.3541,0.6459	-8968.41
0.3672,0.6328	-8983.44
0.3234,0.6766	-8945.17
0.3422,0.6578	-8951.34
0.3413,0.6587	-8959.86
0.3535,0.6465	-8959.97
0.3784,0.6216	-8974.24
0.3447,0.6553	-8946.31
0.3287,0.6713	-8949.30
0.3457,0.6543	-8968.73
0.3386,0.6614	-8952.60
0.4037,0.5963	-8982.66
0.3518,0.6482	-8970.90
0.3120,0.6880	-8936.65
0.3398,0.6602	-8941.98
0.3654,0.6346	-8957.60
0.3459,0.6541	-8962.98
0.4070,0.5930	-8982.46
0.3444,0.6556	-8951.43
0.3383,0.6617	-8970.71
0.3785,0.6215	-8973.75
0.3699,0.6301	-8968.93
0.3430,0.6570	-8964.37
0.3918,0.6082	-8980.67
0.3382,0.6618	-8959.31
0.3712,0.6288	-8962.71
0.3316,0.6684	-8948.52
0.3493,0.6507	-8951.75
0.3323,0.6677	-8951.31
0.3521,0.6479	-8961.74
0.3346,0.6654	-8965.00
0.3343,0.6657	-8958.84
0.3247,0.6753	-8943.65
0.3193,0.6807	-8943.90
0.3427,0.6573	-8969.60
0.3099,0.6901	-8966.43
0.3568,0.6432	-8957.21
0.3240,0.6760	-8958.38
0.3514,0.6486	-8970.92
0.3144,0.6856	-8935.72
0.3471,0.6529	-8970.54
0.3050,0.6950	-8948.03
0.3558,0.6442	-8967.80
0.3541,0.6459	-8953.98
0.3468,0.6532	-8964.23
0.3533,0.6467	-8970.24
0.3639,0.6361	-8960.74
0.3228,0.6772	-8944.46
0.3706,0.6294	-8976.93
0.3612,0.6388	-8963.34
0.3297,0.6703	-8955.65
0.3376,0.6624	-8950.58
0.3687,0.6313	-8964.00
0.3460,0.6540	-8957.25
0.3866,0.6134	-8967.25
0.3644,0.6356	-8984.17
0.3441,0.6559	-8944.97
0.3544,0.6456	-8955.82
0.3530,0.6470	-8978.12
0.3481,0.6519	-8966.71
0.3592,0.6408	-8967.84
0.3259,0.6741	-8935.63
0.3445,0.6555	-8951.44
0.3598,0.6402	-8967.28
0.3711,0.6289	-8973.25
0.3712,0.6288	-8977.47
0.3492,0.6508	-8952.98
0.3257,0.6743	-8952.36
0.3580,0.6420	-8955.55
0.3457,0.6543	-8959.80
0.3667,0.6333	-8972.53
0.3567,0.6433	-8958.97
0.3198,0.6802	-8936.32
0.3429,0.6571	-8954.62
0.3598,0.6402	-8966.13
0.3172,0.6828	-8947.12
0.3570,0.6430	-8967.22
0.3499,0.6501	-8949.93
0.3290,0.6710	-8944.30
0.3196,0.6804	-8940.10
0.3816,0.6184	-8976.47
0.3788,0.6212	-8973.28
0.3502,0.6498	-8946.87
0.3427,0.6573	-8951.36
0.3234,0.6766	-8952.55
0.3312,0.6688	-8952.04
0.3483,0.6517	-8952.30
0.3459,0.6541	-8947.06
0.3520,0.6480	-8959.91
0.3630,0.6370	-8961.78
0.3477,0.6523	-8959.81
0.3500,0.6500	-8963.56
0.3350,0.6650	-8951.25
0.3583,0.6417	-8968.99
0.3554,0.6446	-8960.07
0.3583,0.6417	-8974.82
0.3403,0.6597	-8958.57
0.3366,0.6634	-8972.95
0.3166,0.6834	-8944.87
0.3498,0.6502	-8962.94
0.3489,0.6511	-8964.81
0.3470,0.6530	-8959.17
0.3490,0.6510	-8956.71
0.3415,0.6585	-8969.71
0.3278,0.6722	-8946.47
0.3581,0.6419	-8976.58
0.3722,0.6278	-8978.53
0.3161,0.6839	-8931.02
0.3412,0.6588	-8961.18
0.3691,0.6309	-8991.92
0.3663,0.6337	-8964.30
0.3650,0.6350	-8976.92
0.3763,0.6237	-8979.13
0.3471,0.6529	-8962.96
0.3646,0.6354	-8959.16
0.3521,0.6479	-8964.18
0.3439,0.6561	-8964.98
0.3732,0.6268	-8956.76
0.4159,0.5841	-8990.75
0.3530,0.6470	-8953.28
0.3923,0.6077	-8984.22
0.3354,0.6646	-8967.66
0.3435,0.6565	-8963.70
0.3792,0.6208	-8977.27
0.3563,0.6437	-8971.95
0.3391,0.6609	-8969.28
0.3606,0.6394	-8964.44
0.3381,0.6619	-8957.30
0.3351,0.6649	-8957.42
0.3722,0.6278	-8978.53
0.3728,0.6272	-8971.25
0.3697,0.6303	-8969.45
0.3633,0.6367	-8974.15
0.3579,0.6421	-8978.93
0.3280,0.6720	-8965.83
0.3486,0.6514	-8952.94
0.3751,0.6249	-8971.44
0.3437,0.6563	-8952.05
0.3357,0.6643	-8958.07
0.3400,0.6600	-8951.28
0.3320,0.6680	-8957.61
0.3583,0.6417	-8978.31
0.3472,0.6528	-8981.89
0.3363,0.6637	-8947.85
0.3790,0.6210	-8974.29
0.3547,0.6453	-8957.63
0.2960,0.7040	-8939.58
0.3506,0.6494	-8964.18
0.3737,0.6263	-8975.97
0.3494,0.6506	-8976.62
0.3764,0.6236	-8967.53
0.3633,0.6367	-8982.56
0.3121,0.6879	-8944.55
0.3567,0.6433	-8967.22
0.3405,0.6595	-8951.29
0.3435,0.6565	-8946.21
0.3524,0.6476	-8963.57
0.3353,0.6647	-8946.46
0.3356,0.6644	-8947.83
0.3752,0.6248	-8969.41
0.3357,0.6643	-8946.47
0.3466,0.6534	-8964.87
0.3607,0.6393	-8973.03
0.3401,0.6599	-8962.56
0.3572,0.6428	-8959.00
0.3489,0.6511	-8967.93
0.3489,0.6511	-8964.81
0.3203,0.6797	-8949.85
0.3679,0.6321	-8986.10
0.3208,0.6792	-8953.56
0.3569,0.6431	-8963.10
0.3550,0.6450	-8957.05
0.3632,0.6368	-8973.03
0.3233,0.6767	-8959.21
0.3424,0.6576	-8942.87
0.3427,0.6573	-8962.43
0.3557,0.6443	-8971.96
0.3473,0.6527	-8951.60
0.3727,0.6273	-8968.12
0.3842,0.6158	-8975.29
0.3502,0.6498	-8958.00
0.3629,0.6371	-8980.34
0.3635,0.6365	-8967.43
0.3312,0.6688	-8955.55
0.3544,0.6456	-8971.41
0.3570,0.6430	-8964.28
0.3279,0.6721	-8962.98
0.3593,0.6407	-8966.69
0.3393,0.6607	-8957.27
0.3347,0.6653	-8957.44
0.3624,0.6376	-8963.42
0.3435,0.6565	-8962.41
0.3413,0.6587	-8963.15
0.3702,0.6298	-8979.58
0.3318,0.6682	-8958.32
0.3479,0.6521	-8970.49
0.3397,0.6603	-8960.58
0.3312,0.6688	-8947.12
0.3753,0.6247	-8967.89
0.3652,0.6348	-8970.84
0.3348,0.6652	-8955.38
0.3392,0.6608	-8961.94
0.3343,0.6657	-8959.53
0.3435,0.6565	-8953.99
0.3950,0.6050	-8982.74
0.3507,0.6493	-8952.48
0.3283,0.6717	-8960.77
0.3501,0.6499	-8973.46
0.3521,0.6479	-8969.67
0.3661,0.6339	-8973.62
0.3677,0.6323	-8971.48
0.3583,0.6417	-8975.40
0.3483,0.6517	-8961.69
0.3193,0.6807	-8956.01
0.3933,0.6067	-8973.89
0.3688,0.6312	-8975.83
0.3420,0.6580	-8961.81
0.3572,0.6428	-8966.05
0.3488,0.6512	-8947.96
0.3253,0.6747	-8959.69
0.3707,0.6293	-8964.22
0.4017,0.5983	-8989.53
0.3441,0.6559	-8967.55
0.3740,0.6260	-8972.90
0.3363,0.6637	-8961.44
0.3495,0.6505	-8969.77
0.3716,0.6284	-8966.44
0.3533,0.6467	-8952.71
0.3431,0.6569	-8966.32
0.3377,0.6623	-8948.56
0.3522,0.6478	-8969.06
0.3534,0.6466	-8967.82
0.3427,0.6573	-8956.57
0.3561,0.6439	-8973.73
0.3630,0.6370	-8976.40
0.3265,0.6735	-8947.96
0.3406,0.6594	-8953.94
0.3644,0.6356	-8960.80
0.3140,0.6860	-8941.21
0.3706,0.6294	-8977.46
0.3691,0.6309	-8969.40
0.3360,0.6640	-8947.84
0.3156,0.6844	-8958.88
0.3539,0.6461	-8969.62
0.3127,0.6873	-8956.29
0.3740,0.6260	-8977.01
0.3848,0.6152	-8972.07
0.3603,0.6397	-8969.59
0.3378,0.6622	-8964.72
0.3240,0.6760	-8943.67
0.3285,0.6715	-8937.16
0.3624,0.6376	-8965.68
0.3507,0.6493	-8964.18
0.3660,0.6340	-8980.21
0.3576,0.6424	-8979.54
0.3433,0.6567	-8950.74
0.3763,0.6237	-8983.68
0.3755,0.6245	-8985.21
0.3536,0.6464	-8958.77
0.3705,0.6295	-8972.68
0.3410,0.6590	-8953.28
0.3650,0.6350	-8973.05
0.3735,0.6265	-8977.00
0.3591,0.6409	-8963.79
0.3198,0.6802	-8940.09
0.3327,0.6673	-8960.34
0.3672,0.6328	-8979.63
0.3581,0.6419	-8971.33
0.3843,0.6157	-8970.59
0.3570,0.6430	-8961.93
0.3232,0.6768	-8957.01
0.3319,0.6681	-8957.61
0.3383,0.6617	-8957.96
0.3584,0.6416	-8981.81
0.3615,0.6385	-8956.53
0.3440,0.6560	-8958.52
0.3617,0.6383	-8968.48
0.3291,0.6709	-8950.71
0.3526,0.6474	-8966.01
0.3600,0.6400	-8967.29
0.3575,0.6425	-8959.61
0.3744,0.6256	-8975.49
0.3334,0.6666	-8954.74
0.3332,0.6668	-8949.90
0.3172,0.6828	-8950.18
0.3371,0.6629	-8949.22
0.3573,0.6427	-8971.34
0.3366,0.6634	-8958.71
0.3628,0.6372	-8962.89
0.3370,0.6630	-8952.60
0.3364,0.6636	-8954.64
0.3359,0.6641	-8966.92
0.3469,0.6531	-8966.76
0.3210,0.6790	-8948.29
0.3642,0.6358	-8967.47
0.3527,0.6473	-8958.72
0.3464,0.6536	-8957.89
0.3435,0.6565	-8970.83
0.3692,0.6308	-8964.05
0.3337,0.6663	-8947.12
0.3563,0.6437	-8967.22
0.3526,0.6474	-8968.44
0.3501,0.6499	-8956.76
0.3594,0.6406	-8986.93
0.3563,0.6437	-8969.58
0.3381,0.6619	-8952.60
0.3452,0.6548	-8961.08
0.3434,0.6566	-8949.44
0.3739,0.6261	-8972.89
0.3559,0.6441	-8980.26
0.3275,0.6725	-8973.10
0.3497,0.6503	-8976.59
0.3447,0.6553	-8974.57
0.3300,0.6700	-8960.59
0.3570,0.6430	-8969.58
0.3314,0.6686	-8963.97
0.3338,0.6662	-8947.82
0.3626,0.6374	-8976.98
0.3462,0.6538	-8967.42
0.3363,0.6637	-8952.61
0.3653,0.6347	-8961.45
0.3392,0.6608	-8957.27
0.3648,0.6352	-8963.06
0.3396,0.6604	-8959.25
0.3866,0.6134	-8981.57
0.3885,0.6115	-8982.61
0.3526,0.6474	-8967.22
0.3175,0.6825	-8947.09
0.3736,0.6264	-8974.93
0.3436,0.6564	-8974.06
0.3765,0.6235	-8970.05
0.3527,0.6473	-8952.04
0.3739,0.6261	-8979.07
0.3550,0.6450	-8952.28
0.3680,0.6320	-8960.68
0.3401,0.6599	-8957.91
0.3540,0.6460	-8958.19
0.3511,0.6489	-8966.63
0.3444,0.6556	-8976.54
0.3492,0.6508	-8957.34
0.3332,0.6668	-8961.69
0.3350,0.6650	-8962.91
0.3242,0.6758	-8956.89
0.3692,0.6308	-8978.52
0.3621,0.6379	-8968.50
0.3693,0.6307	-8980.12
0.3640,0.6360	-8954.06
0.3437,0.6563	-8965.63
0.3390,0.6610	-8957.94
0.3739,0.6261	-8971.34
0.3572,0.6428	-8980.73
0.3744,0.6256	-8977.54
0.3326,0.6674	-8955.48
0.3425,0.6575	-8955.27
0.3210,0.6790	-8950.54
0.3676,0.6324	-8959.55
0.3379,0.6621	-8958.65
0.3905,0.6095	-8975.19
0.3349,0.6651	-8946.45
0.3443,0.6557	-8954.01
0.3281,0.6719	-8961.51
0.3656,0.6344	-8980.77
0.3203,0.6797	-8938.57
0.3891,0.6109	-8982.65
0.3460,0.6540	-8962.98
0.3594,0.6406	-8966.11
0.3213,0.6787	-8948.27
0.3627,0.6373	-8967.95
0.3441,0.6559	-8950.78
0.3597,0.6403	-8974.20
0.3423,0.6577	-8975.51
0.3559,0.6441	-8977.89
0.3185,0.6815	-8934.06
0.3853,0.6147	-8975.41
0.3192,0.6808	-8957.54
0.3304,0.6696	-8964.08
0.3653,0.6347	-8967.53
0.3595,0.6405	-8971.32
0.3318,0.6682	-8945.72
0.3555,0.6445	-8967.80
0.3509,0.6491	-8954.95
0.3186,0.6814	-8940.14
0.3570,0.6430	-8981.34
0.3531,0.6469	-8962.98
0.3365,0.6635	-8965.51
0.3574,0.6426	-8976.03
0.3444,0.6556	-8966.24
0.3217,0.6783	-8932.57
0.3384,0.6616	-8963.32
0.3593,0.6407	-8969.00
0.3299,0.6701	-8969.10
0.3690,0.6310	-8979.05
0.3472,0.6528	-8962.33
0.3422,0.6578	-8952.65
0.3547,0.6453	-8974.39
0.3370,0.6630	-8958.01
0.3330,0.6670	-8958.93
0.3830,0.6170	-8986.60
0.3826,0.6174	-8972.25
0.3578,0.6422	-8966.06
0.3514,0.6486	-8964.18
0.3581,0.6419	-8958.49
0.3310,0.6690	-8937.98
0.3734,0.6266	-8970.27
0.3506,0.6494	-8972.81
0.3622,0.6378	-8971.33
0.3717,0.6283	-8960.15
0.3658,0.6342	-8972.51
0.3803,0.6197	-8985.15
0.3872,0.6128	-8977.02
0.3669,0.6331	-8960.54
0.3803,0.6197	-8986.13
0.3364,0.6636	-8968.23
0.3703,0.6297	-8977.98
0.3861,0.6139	-8980.14
0.3555,0.6445	-8963.05
0.3335,0.6665	-8960.28
0.3687,0.6313	-8962.92
0.3353,0.6647	-8957.41
0.3878,0.6122	-8974.34
0.3867,0.6133	-8986.18
0.3698,0.6302	-8958.80
0.3365,0.6635	-8945.14
0.3770,0.6230	-8973.13
0.3520,0.6480	-8958.07
0.3482,0.6518	-8961.69
0.3564,0.6436	-8958.35
0.3524,0.6476	-8977.57
0.3461,0.6539	-8958.52
0.3408,0.6592	-8971.09
0.3534,0.6466	-8965.40
0.3433,0.6567	-8952.68
0.3446,0.6554	-8952.73
0.3754,0.6246	-8971.47
0.3420,0.6580	-8953.95
0.3596,0.6404	-8963.24
0.3220,0.6780	-8960.14
0.3442,0.6558	-8959.81
0.3547,0.6453	-8957.64
0.3667,0.6333	-8953.95
0.3530,0.6470	-8962.37
0.3450,0.6550	-8966.21
0.3411,0.6589	-8961.18
0.3551,0.6449	-8968.40
0.3609,0.6391	-8968.46
0.3578,0.6422	-8963.14
0.3357,0.6643	-8944.42
0.3152,0.6848	-8933.36
0.3231,0.6769	-8956.27
0.3506,0.6494	-8959.24
0.3573,0.6427	-8966.64
0.3417,0.6583	-8957.88
0.3150,0.6850	-8960.56
0.3377,0.6623	-8941.82
0.3338,0.6662	-8967.17
0.3392,0.6608	-8973.94
0.3775,0.6225	-8984.17
0.3632,0.6368	-8966.29
0.3645,0.6355	-8959.14
0.3382,0.6618	-8953.94
0.3322,0.6678	-8958.99
0.3403,0.6597	-8953.94
0.3763,0.6237	-8970.54
0.3548,0.6452	-8960.03
0.3673,0.6327	-8972.55
0.3424,0.6576	-8948.09
0.3477,0.6523	-8963.58
0.3540,0.6460	-8957.58
0.3433,0.6567	-8963.06
0.3538,0.6462	-8968.42
0.3593,0.6407	-8958.01
0.3543,0.6457	-8958.80
0.3445,0.6555	-8971.38
0.3409,0.6591	-8957.24
0.2903,0.7097	-8936.37
0.3331,0.6669	-8949.20
0.3660,0.6340	-8972.52
0.3483,0.6517	-8957.31
0.3767,0.6233	-8978.14
0.3173,0.6827	-8960.90
0.3332,0.6668	-8961.00
0.3657,0.6343	-8964.80
0.3684,0.6316	-8963.43
0.3513,0.6487	-8962.95
0.3679,0.6321	-8973.66
0.3407,0.6593	-8958.56
0.3390,0.6610	-8953.94
0.3254,0.6746	-8959.67
0.3883,0.6117	-8980.33
0.3472,0.6528	-8962.33
0.3746,0.6254	-8972.94
0.3633,0.6367	-8959.56
0.3765,0.6235	-8982.16
0.3404,0.6596	-8953.28
0.3528,0.6472	-8948.41
0.3463,0.6537	-8959.16
0.3865,0.6135	-8982.95
0.3871,0.6129	-8987.12
0.3422,0.6578	-8970.30
0.3033,0.6967	-8940.02
0.3750,0.6250	-8965.82
0.3671,0.6329	-8977.45
0.3464,0.6536	-8959.80
0.3843,0.6157	-8971.99
0.3494,0.6506	-8974.13
0.3206,0.6794	-8944.57
0.3721,0.6279	-8971.72
0.3340,0.6660	-8953.34
0.3768,0.6232	-8979.15
0.3382,0.6618	-8950.58
0.3351,0.6649	-8960.16
0.3071,0.6929	-8946.84
0.3709,0.6291	-8965.30
0.3298,0.6702	-8943.59
0.3567,0.6433	-8960.14
0.3580,0.6420	-8971.91
0.3333,0.6667	-8947.12
0.2958,0.7042	-8927.48
0.3227,0.6773	-8969.67
0.3407,0.6593	-8948.00
0.3733,0.6267	-8967.15
0.3712,0.6288	-8965.34
0.3444,0.6556	-8959.80
0.3284,0.6716	-8953.61
0.3280,0.6720	-8960.81
0.3310,0.6690	-8959.09
0.3699,0.6301	-8976.39
0.3669,0.6331	-8957.80
0.3508,0.6492	-8960.48
0.3414,0.6586	-8953.29
0.3555,0.6445	-8957.69
0.3172,0.6828	-8927.18
0.3475,0.6525	-8962.32
0.3460,0.6540	-8959.16
0.3602,0.6398	-8973.61
0.3613,0.6387	-8961.07
0.3547,0.6453	-8951.05
0.3489,0.6511	-8967.93
0.3683,0.6317	-8977.44
0.3370,0.6630	-8960.72
0.3568,0.6432	-8959.56
0.3548,0.6452	-8967.81
0.3552,0.6448	-8975.56
0.3580,0.6420	-8977.75
0.3764,0.6236	-8971.56
0.3347,0.6653	-8968.43
0.3521,0.6479	-8959.91
0.3587,0.6413	-8987.01
0.3551,0.6449	-8952.30
0.3533,0.6467	-8968.42
0.3562,0.6438	-8956.56
0.3531,0.6469	-8967.82
0.3368,0.6632	-8939.05
0.3534,0.6466	-8966.61
0.3595,0.6405	-8965.54
0.3535,0.6465	-8962.99
0.3683,0.6317	-8962.33
0.3497,0.6503	-8964.80
0.3355,0.6645	-8953.30
0.3769,0.6231	-8961.05
0.3419,0.6581	-8971.64
0.3246,0.6754	-8961.23
0.3410,0.6590	-8955.92
0.3274,0.6726	-8958.72
0.3763,0.6237	-8983.17
0.3342,0.6658	-8965.74
0.3522,0.6478	-8965.40
0.3806,0.6194	-8972.49
0.3348,0.6652	-8946.45
0.3647,0.6353	-8960.28
0.3855,0.6145	-8975.90
0.3416,0.6584	-8972.32
0.3551,0.6449	-8964.82
0.3556,0.6444	-8977.91
0.3119,0.6881	-8947.73
0.3607,0.6393	-8968.46
0.3708,0.6292	-8966.36
0.3473,0.6527	-8961.70
0.3526,0.6474	-8951.43
0.3639,0.6361	-8961.30
0.3355,0.6645	-8943.05
0.3245,0.6755	-8950.98
0.3203,0.6797	-8956.63
0.3231,0.6769	-8942.22
0.3307,0.6693	-8945.72
0.3636,0.6364	-8960.16
0.3612,0.6388	-8966.19
0.3376,0.6624	-8975.52
0.3604,0.6396	-8962.14
0.3106,0.6894	-8949.52
0.3334,0.6666	-8964.44
0.3416,0.6584	-8957.23
0.3496,0.6504	-8964.80
0.3591,0.6409	-8958.58
0.3596,0.6404	-8962.08
0.3079,0.6921	-8954.82
0.3278,0.6722	-8949.34
0.3596,0.6404	-8970.16
0.3401,0.6599	-8959.24
0.3810,0.6190	-8977.39
0.3761,0.6239	-8985.70
0.3220,0.6780	-8959.39
0.3420,0.6580	-8974.24
0.3408,0.6592	-8959.88
0.3672,0.6328	-8974.18
0.4249,0.5751	-8994.98
0.3652,0.6348	-8978.03
0.3662,0.6338	-8971.43
0.3483,0.6517	-8964.83
0.3311,0.6689	-8947.12
0.3981,0.6019	-8984.32
0.4150,0.5850	-8991.30
0.3420,0.6580	-8951.34
0.3828,0.6172	-8986.12
0.3700,0.6300	-8981.71
0.3642,0.6358	-8957.99
0.3490,0.6510	-8969.80
0.3743,0.6257	-8976.00
0.3189,0.6811	-8955.31
0.3859,0.6141	-8984.77
0.3800,0.6200	-8971.45
0.3427,0.6573	-8963.08
0.3891,0.6109	-8978.15
0.3774,0.6226	-8975.16
0.3070,0.6930	-8946.05
0.3596,0.6404	-8968.43
0.3722,0.6278	-8987.94
0.3813,0.6187	-8973.54
0.3564,0.6436	-8972.54
0.3660,0.6340	-8971.97
0.3469,0.6531	-8952.21
0.3574,0.6426	-8970.16
0.3318,0.6682	-8970.22
0.3971,0.6029	-8986.31
0.3706,0.6294	-8960.50
0.3399,0.6601	-8951.94
0.3485,0.6515	-8972.95
0.3624,0.6376	-8967.38
0.3378,0.6622	-8964.04
0.3700,0.6300	-8973.72
0.3560,0.6440	-8956.54
0.3456,0.6544	-8955.33
0.3723,0.6277	-8971.22
0.3482,0.6518	-8973.61
0.3208,0.6792	-8947.56
0.3361,0.6639	-8950.57
0.3682,0.6318	-8965.02
0.3329,0.6671	-8951.29
0.3635,0.6365	-8978.07
0.3586,0.6414	-8968.41
0.3337,0.6663	-8938.14
0.3408,0.6592	-8957.24
0.3482,0.6518	-8956.05
0.3580,0.6420	-8974.25
0.3383,0.6617	-8957.96
0.3576,0.6424	-8970.75
0.3298,0.6702	-8940.05
0.3494,0.6506	-8966.67
0.3650,0.6350	-8969.17
0.3848,0.6152	-8975.36
0.3401,0.6599	-8951.29
0.3704,0.6296	-8981.70
0.3540,0.6460	-8955.18
0.3344,0.6656	-8960.90
0.3757,0.6243	-8972.01
0.3639,0.6361	-8965.21
0.3294,0.6706	-8959.23
0.3645,0.6355	-8978.60
0.3461,0.6539	-8948.35
0.3166,0.6834	-8955.64
0.3580,0.6420	-8956.15
0.3638,0.6362	-8964.65
0.3229,0.6771	-8952.59
0.3183,0.6817	-8940.92
0.3204,0.6796	-8957.36
0.3599,0.6401	-8967.28
0.3694,0.6306	-8971.03
0.3823,0.6177	-8970.77
0.3470,0.6530	-8954.74
0.3278,0.6722	-8960.12
0.3276,0.6724	-8947.91
0.3482,0.6518	-8960.44
0.3574,0.6426	-8976.62
0.3426,0.6574	-8933.76
0.3462,0.6538	-8967.42
0.3193,0.6807	-8921.95
0.3424,0.6576	-8963.75
0.3452,0.6548	-8958.52
0.3597,0.6403	-8976.51
0.3323,0.6677	-8959.68
0.3674,0.6326	-8966.58
0.3357,0.6643	-8945.11
0.3733,0.6267	-8967.67
0.3265,0.6735	-8942.16
0.3622,0.6378	-8963.41
0.3710,0.6290	-8982.21
0.3575,0.6425	-8956.09
0.3666,0.6334	-8976.36
0.3470,0.6530	-8981.29
0.3273,0.6727	-8949.36
0.3625,0.6375	-8967.95
0.3558,0.6442	-8973.74
0.3698,0.6302	-8969.99
0.3493,0.6507	-8964.81
0.3509,0.6491	-8972.17
0.3688,0.6312	-8973.68
0.3563,0.6437	-8974.90
0.3473,0.6527	-8970.53
0.3701,0.6299	-8973.20
0.3513,0.6487	-8959.88
0.3407,0.6593	-8947.34
0.3671,0.6329	-8980.72
0.3328,0.6672	-8951.29
0.3594,0.6406	-8976.52
0.3659,0.6341	-8965.92
0.3666,0.6334	-8971.99
0.3505,0.6495	-8962.94
0.3328,0.6672	-8938.77
0.3363,0.6637	-8947.85
0.3776,0.6224	-8988.17
0.3427,0.6573	-8948.76
0.3815,0.6185	-8976.94
0.3643,0.6357	-8976.38
0.3544,0.6456	-8958.81
0.3207,0.6793	-8965.58
0.3659,0.6341	-8953.82
0.3320,0.6680	-8959.01
0.3332,0.6668	-8961.69
0.3525,0.6475	-8958.10
0.3451,0.6549	-8960.44
0.3348,0.6652	-8949.88
0.3583,0.6417	-8960.84
0.3435,0.6565	-8960.46
0.3688,0.6312	-8976.91
0.3580,0.6420	-8980.09
0.3477,0.6523	-8969.24
0.3744,0.6256	-8977.54
0.3641,0.6359	-8969.69
0.3650,0.6350	-8963.64
0.3736,0.6264	-8970.80
0.3483,0.6517	-8949.79
0.3257,0.6743	-8939.99
0.3566,0.6434	-8963.68
0.3559,0.6441	-8948.82
0.3416,0.6584	-8957.23
0.3394,0.6606	-8943.28
0.3475,0.6525	-8968.62
0.3362,0.6638	-8962.13
0.3441,0.6559	-8959.16
0.3551,0.6449	-8963.63
0.3424,0.6576	-8958.53
0.3434,0.6566	-8950.74
0.3358,0.6642	-8956.70
0.3213,0.6787	-8955.00
0.3318,0.6682	-8954.82
0.3356,0.6644	-8965.60
0.3361,0.6639	-8941.71
0.3407,0.6593	-8962.52
0.3231,0.6769	-8950.36
0.3369,0.6631	-8941.77
0.3697,0.6303	-8980.12
0.3498,0.6502	-8962.32
0.3242,0.6758	-8939.26
0.3399,0.6601	-8963.23
0.3633,0.6367	-8975.83
0.3402,0.6598	-8965.86
0.3865,0.6135	-8974.16
0.3305,0.6695	-8957.72
0.3511,0.6489	-8945.75
0.3523,0.6477	-8961.14
0.3416,0.6584	-8955.26
0.3496,0.6504	-8959.84
0.3549,0.6451	-8957.05
0.3446,0.6554	-8970.73
0.3480,0.6520	-8968.60
0.3387,0.6613	-8959.29
0.3548,0.6452	-8961.23
0.3499,0.6501	-8964.80
0.3196,0.6804	-8958.24
0.3529,0.6471	-8970.86
0.3683,0.6317	-8969.35
0.3379,0.6621	-8966.72
0.3481,0.6519	-8964.20
0.3820,0.6180	-8977.94
0.3498,0.6502	-8964.80
0.3547,0.6453	-8965.41
0.3901,0.6099	-8972.44
0.3585,0.6415	-8973.07
0.3477,0.6523	-8962.32
0.3719,0.6281	-8959.66
0.3567,0.6433	-8979.61
0.3382,0.6618	-8957.30
0.3770,0.6230	-8974.63
0.3705,0.6295	-8981.17
0.3671,0.6329	-8975.27
0.3719,0.6281	-8980.10
0.3587,0.6413	-8969.00
0.3423,0.6577	-8963.75
0.3672,0.6328	-8972.01
0.3431,0.6569	-8964.37
0.3272,0.6728	-8952.98
0.3243,0.6757	-8968.63
0.3502,0.6498	-8966.03
0.3763,0.6237	-8980.65
0.3878,0.6122	-8980.74
0.3671,0.6329	-8984.53
0.3543,0.6457	-8957.61
0.3092,0.6908	-8935.27
0.3402,0.6598	-8959.23
0.3342,0.6658	-8948.51
0.3262,0.6738	-8963.20
0.3588,0.6412	-8968.42
0.3280,0.6720	-8942.88
0.3303,0.6697	-8956.32
0.3329,0.6671	-8964.50
0.3345,0.6655	-8955.39
0.3507,0.6493	-8965.41
0.3659,0.6341	-8966.46
0.3354,0.6646	-8959.46
0.3474,0.6526	-8959.80
0.3489,0.6511	-8972.93
0.3306,0.6694	-8944.31
0.3477,0.6523	-8972.39
0.3771,0.6229	-8974.64
0.3582,0.6418	-8968.99
0.3448,0.6552	-8958.52
0.3303,0.6697	-8947.13
0.3320,0.6680	-8944.32
0.3324,0.6676	-8950.61
0.3966,0.6034	-8982.07
0.3282,0.6718	-8965.80
0.3337,0.6663	-8949.89
0.3361,0.6639	-8947.16
0.3435,0.6565	-8968.88
0.3240,0.6760	-8948.82
0.3863,0.6137	-8991.27
0.3597,0.6403	-8977.08
0.3382,0.6618	-8957.30
0.3292,0.6708	-8954.27
0.3247,0.6753	-8946.58
0.3372,0.6628	-8955.98
0.4001,0.5999	-8981.31
0.3449,0.6551	-8968.14
0.3279,0.6721	-8960.82
0.3087,0.6913	-8936.11
0.3809,0.6191	-8978.35
0.3375,0.6625	-8949.90
0.3611,0.6389	-8956.48
0.3435,0.6565	-8956.58
0.3417,0.6583	-8951.33
0.3745,0.6255	-8981.14
0.3636,0.6364	-8950.63
0.3599,0.6401	-8956.92
0.3345,0.6655	-8941.63
0.3437,0.6563	-8953.99
0.3399,0.6601	-8956.59
0.3643,0.6357	-8964.69
0.3802,0.6198	-8970.98
0.3712,0.6288	-8971.67
0.3719,0.6281	-8973.28
0.3368,0.6632	-8961.41
0.3583,0.6417	-8965.50
0.3582,0.6418	-8967.83
0.3584,0.6416	-8961.42
0.3509,0.6491	-8954.95
0.3589,0.6411	-8979.44
0.3286,0.6714	-8952.88
0.3320,0.6680	-8945.72
0.3486,0.6514	-8964.19
0.3578,0.6422	-8964.89
0.3365,0.6635	-8952.60
0.3434,0.6566	-8962.41
0.3546,0.6454	-8977.39
0.3460,0.6540	-8950.88
0.3696,0.6304	-8961.96
0.3436,0.6564	-8958.52
0.3390,0.6610	-8967.29
0.3447,0.6553	-8961.73
0.3851,0.6149	-8979.60
0.3537,0.6463	-8972.64
0.3542,0.6458	-8968.41
0.3532,0.6468	-8956.33
0.3335,0.6665	-8972.04
0.3530,0.6470	-8970.85
0.3542,0.6458	-8966.61
0.3513,0.6487	-8973.99
0.3291,0.6709	-8947.86
0.3708,0.6292	-8970.59
0.3339,0.6661	-8958.18
0.3443,0.6557	-8974.62
0.3330,0.6670	-8937.40
0.3474,0.6526	-8961.06
0.3337,0.6663	-8949.20
0.3750,0.6250	-8972.96
0.3364,0.6636	-8951.25
0.3582,0.6418	-8973.07
0.3510,0.6490	-8945.13
0.3397,0.6603	-8959.25
0.3752,0.6248	-8975.53
0.3476,0.6524	-8952.25
0.3289,0.6711	-8955.00
0.3865,0.6135	-8999.58
0.3786,0.6214	-8982.68
0.3658,0.6342	-8967.01
0.3273,0.6727	-8953.69
0.3361,0.6639	-8955.33
0.3489,0.6511	-8966.69
0.3537,0.6463	-8972.04
0.3650,0.6350	-8974.15
0.3622,0.6378	-8964.54
0.3460,0.6540	-8969.99
0.3409,0.6591	-8952.62
0.3835,0.6165	-8964.29
0.3219,0.6781	-8950.46
0.3441,0.6559	-8970.13
0.3692,0.6308	-8977.98
0.3545,0.6455	-8965.41
0.3592,0.6408	-8960.89
0.4210,0.5790	-8996.33
0.3545,0.6455	-8964.81
0.3460,0.6540	-8957.25
0.3892,0.6108	-8983.56
0.3542,0.6458	-8967.81
0.3367,0.6633	-8974.98
0.4275,0.5725	-8993.91
0.3578,0.6422	-8976.01
0.3615,0.6385	-8967.34
0.3915,0.6085	-8981.95
0.3543,0.6457	-8961.21
0.3657,0.6343	-8960.39
0.4211,0.5789	-8992.84
0.3486,0.6514	-8973.57
0.3750,0.6250	-8976.54
0.3911,0.6089	-8990.77
0.3323,0.6677	-8947.12
0.3369,0.6631	-8955.99
0.4010,0.5990	-8985.86
0.3447,0.6553	-8946.95
0.3531,0.6469	-8966.01
0.3902,0.6098	-8971.12
0.3455,0.6545	-8949.57
0.3300,0.6700	-8934.39
0.3454,0.6546	-8954.04
0.3421,0.6579	-8961.15
0.3516,0.6484	-8969.69
0.3892,0.6108	-8994.83
0.3702,0.6298	-8968.95
0.3445,0.6555	-8948.87
0.3632,0.6368	-8960.68
0.3374,0.6626	-8948.55
0.3269,0.6731	-8976.10
0.3676,0.6324	-8974.19
0.3241,0.6759	-8954.69
0.3517,0.6483	-8951.95
0.3595,0.6405	-8965.54
0.3381,0.6619	-8957.30
0.3435,0.6565	-8952.69
0.3602,0.6398	-8970.17
0.3324,0.6676	-8954.09
0.3458,0.6542	-8966.17
0.3348,0.6652	-8963.62
0.3348,0.6652	-8945.08
0.3414,0.6586	-8946.72
0.3378,0.6622	-8957.31
0.3525,0.6475	-8965.40
0.3144,0.6856	-8948.20
0.3207,0.6793	-8959.57
0.3189,0.6811	-8946.96
0.3435,0.6565	-8957.87
0.3516,0.6484	-8978.25
0.3506,0.6494	-8971.57
0.3429,0.6571	-8968.28
0.3384,0.6616	-8954.61
0.3443,0.6557	-8964.96
0.3375,0.6625	-8947.20
0.3377,0.6623	-8954.62
0.3514,0.6486	-8985.63
0.3309,0.6691	-8963.32
0.3286,0.6714	-8949.31
0.3734,0.6266	-8968.20
0.3260,0.6740	-8959.60
0.3652,0.6348	-8972.50
0.3513,0.6487	-8967.86
0.3481,0.6519	-8957.30
0.3351,0.6649	-8959.47
0.3319,0.6681	-8940.82
0.3499,0.6501	-8969.14
0.3505,0.6495	-8968.49
0.3483,0.6517	-8940.39
0.3525,0.6475	-8951.41
0.3420,0.6580	-8965.08
0.3062,0.6938	-8933.09
0.3284,0.6716	-8957.90
0.3346,0.6654	-8947.82
0.3804,0.6196	-8979.78
0.3605,0.6395	-8966.16
0.3804,0.6196	-8972.47
0.3307,0.6693	-8947.83
0.3289,0.6711	-8943.59
0.3511,0.6489	-8966.02
0.3656,0.6344	-8973.61
0.3272,0.6728	-8945.04
0.3672,0.6328	-8966.57
0.3414,0.6586	-8972.35
0.3480,0.6520	-8956.67
0.3566,0.6434	-8973.12
0.3393,0.6607	-8943.94
0.3639,0.6361	-8966.33
0.3610,0.6390	-8951.90
0.3240,0.6760	-8959.85
0.3549,0.6451	-8971.99
0.3568,0.6432	-8964.86
0.3715,0.6285	-8957.49
0.3549,0.6451	-8969.60
0.3632,0.6368	-8987.07
0.3373,0.6627	-8960.03
0.3573,0.6427	-8977.79
0.3622,0.6378	-8970.20
0.3499,0.6501	-8963.56
0.3248,0.6752	-8946.57
0.3681,0.6319	-8967.72
0.3605,0.6395	-8960.42
0.3700,0.6300	-8971.06
0.3377,0.6623	-8953.27
0.3502,0.6498	-8964.18
0.3437,0.6563	-8962.40
0.3280,0.6720	-8955.07
0.3783,0.6217	-8977.71
0.3542,0.6458	-8962.40
0.3673,0.6327	-8973.10
0.3312,0.6688	-8950.64
0.4021,0.5979	-8991.94
0.3133,0.6867	-8954.61
0.3580,0.6420	-8961.98
0.3333,0.6667	-8954.05
0.3867,0.6133	-8977.88
0.3270,0.6730	-8957.31
0.3842,0.6158	-8980.95
0.3526,0.6474	-8963.58
0.3702,0.6298	-8966.83
0.3374,0.6626	-8958.67
0.3427,0.6573	-8950.06
0.3887,0.6113	-8974.02
0.3696,0.6304	-8969.44
0.3464,0.6536	-8975.67
0.3635,0.6365	-8980.87
0.3329,0.6671	-8959.63
0.3762,0.6238	-8974.58
0.3774,0.6226	-8981.17
0.3728,0.6272	-8971.25
0.3665,0.6335	-8959.94
0.4015,0.5985	-8975.94
0.3315,0.6685	-8954.84
0.3791,0.6209	-8977.76
0.3839,0.6161	-8974.31
0.3389,0.6611	-8959.95
0.3366,0.6634	-8944.46
0.3469,0.6531	-8973.72
0.3345,0.6655	-8960.20
0.3561,0.6439	-8966.03
0.3911,0.6089	-8980.59
0.3355,0.6645	-8960.82
0.3703,0.6297	-8975.86
0.3673,0.6327	-8977.99
0.3266,0.6734	-8961.70
0.3633,0.6367	-8970.78
0.3725,0.6275	-8985.31
0.3481,0.6519	-8956.67
0.3289,0.6711	-8956.43
0.3494,0.6506	-8956.72
0.2974,0.7026	-8920.40
0.3444,0.6556	-8956.58
0.3445,0.6555	-8970.10
0.3490,0.6510	-8963.57
0.3334,0.6666	-8951.28
0.3434,0.6566	-8953.33
0.3166,0.6834	-8951.03
0.3588,0.6412	-8963.19
0.3401,0.6599	-8953.27
0.3500,0.6500	-8954.27
0.3321,0.6679	-8954.11
0.3483,0.6517	-8959.81
0.3553,0.6447	-8963.04
0.3314,0.6686	-8957.65
0.3477,0.6523	-8965.47
0.3278,0.6722	-8963.71
0.3290,0.6710	-8954.28
0.3681,0.6319	-8967.18
0.3730,0.6270	-8972.31
0.3410,0.6590	-8955.92
0.3784,0.6216	-8974.74
0.3507,0.6493	-8953.71
0.3533,0.6467	-8960.56
0.3242,0.6758	-8950.27
0.3562,0.6438	-8963.66
0.3561,0.6439	-8963.07
0.3440,0.6560	-8961.10
0.3448,0.6552	-8954.66
0.3549,0.6451	-8986.33
0.3336,0.6664	-8956.81
0.3140,0.6860	-8955.28
0.3354,0.6646	-8960.83
0.3570,0.6430	-8955.46
0.3274,0.6726	-8955.12
0.3746,0.6254	-8984.21
0.3333,0.6667	-8944.35
0.3339,0.6661	-8958.87
0.3558,0.6442	-8976.11
0.3316,0.6684	-8970.26
0.3454,0.6546	-8947.65
0.3730,0.6270	-8976.98
0.3771,0.6229	-8979.16
0.3588,0.6412	-8956.23
0.3491,0.6509	-8960.45
0.3138,0.6862	-8949.83
0.3645,0.6355	-8972.48
0.3687,0.6313	-8965.61
0.3606,0.6394	-8966.73
0.3359,0.6641	-8972.38
0.3583,0.6417	-8965.50
0.3216,0.6784	-8959.44
0.3363,0.6637	-8965.52
0.3276,0.6724	-8957.98
0.3540,0.6460	-8973.83
0.3522,0.6478	-8970.27
0.3469,0.6531	-8952.21
0.3938,0.6062	-8987.36
0.3405,0.6595	-8955.26
0.3384,0.6616	-8943.21
0.3270,0.6730	-8938.55
0.3333,0.6667	-8966.53
0.3265,0.6735	-8945.06
0.3586,0.6414	-8969.58
0.3564,0.6436	-8956.58
0.3386,0.6614	-8955.28
0.3392,0.6608	-8963.27
0.3453,0.6547	-8947.00
0.3624,0.6376	-8974.16
0.3630,0.6370	-8969.65
0.3311,0.6689	-8966.11
0.3291,0.6709	-8954.99
0.3331,0.6669	-8961.01
0.3356,0.6644	-8959.44
0.3669,0.6331	-8972.54
0.3566,0.6434	-8962.50
0.3446,0.6554	-8952.73
0.3558,0.6442	-8966.62
0.3298,0.6702	-8946.43
0.3792,0.6208	-8966.91
0.3560,0.6440	-8970.77
0.3673,0.6327	-8975.27
0.3290,0.6710	-8957.13
0.3458,0.6542	-8968.08
0.3439,0.6561	-8966.92
0.3472,0.6528	-8961.70
0.3586,0.6414	-8973.65
0.3749,0.6251	-8977.05
0.3337,0.6663	-8946.43
0.3434,0.6566	-8957.22
0.3451,0.6549	-8967.49
0.3653,0.6347	-8965.31
0.3762,0.6238	-8970.03
0.3807,0.6193	-8980.28
0.3367,0.6633	-8961.41
0.3586,0.6414	-8966.09
0.3260,0.6740	-8954.52
0.3627,0.6373	-8967.95
0.3704,0.6296	-8982.76
0.3580,0.6420	-8963.15
0.3436,0.6564	-8966.28
0.3579,0.6421	-8973.67
0.3256,0.6744	-8934.16
0.3802,0.6198	-8979.29
0.3155,0.6845	-8960.46
0.3433,0.6567	-8964.36
0.3488,0.6512	-8966.06
0.3450,0.6550	-8956.59
0.3305,0.6695	-8950.66
0.3803,0.6197	-8972.46
0.3352,0.6648	-8939.61
0.3516,0.6484	-8969.69
0.3519,0.6481	-8958.68
0.3430,0.6570	-8962.42
0.3074,0.6926	-8928.12
0.3490,0.6510	-8962.32
0.3133,0.6867	-8939.70
0.3525,0.6475	-8967.22
0.3875,0.6125	-8976.13
0.3629,0.6371	-8961.21
0.3844,0.6156	-8972.96
0.3586,0.6414	-8970.74
0.3824,0.6176	-8978.45
0.3535,0.6465	-8972.04
0.3716,0.6284	-8969.59
0.3575,0.6425	-8971.92
0.3413,0.6587	-8958.55
0.3439,0.6561	-8954.00
0.3501,0.6499	-8955.52
0.3327,0.6673	-8937.37
0.3270,0.6730	-8960.93
0.3326,0.6674	-8958.26
0.3347,0.6653	-8956.07
0.3476,0.6524	-8959.18
0.3466,0.6534	-8973.75
0.3521,0.6479	-8970.28
0.3661,0.6339	-8963.74
0.3428,0.6572	-8955.27
0.3467,0.6533	-8952.20
0.3409,0.6591	-8957.90
0.3385,0.6615	-8968.00
0.3369,0.6631	-8949.89
0.3403,0.6597	-8954.60
0.3546,0.6454	-8964.81
0.3410,0.6590	-8951.31
0.3634,0.6366	-8958.46
0.3556,0.6444	-8985.05
0.3443,0.6557	-8946.92
0.3396,0.6604	-8963.25
0.3613,0.6387	-8965.05
0.3351,0.6649	-8936.18
0.3318,0.6682	-8942.22
0.3470,0.6530	-8959.17
0.3335,0.6665	-8943.66
0.3599,0.6401	-8952.89
0.3276,0.6724	-8949.35
0.3710,0.6290	-8967.43
0.3510,0.6490	-8952.49
0.3184,0.6816	-8954.61
0.3266,0.6734	-8962.43
0.3583,0.6417	-8961.42
0.3292,0.6708	-8949.29
0.3692,0.6308	-8961.38
0.3697,0.6303	-8967.85
0.3464,0.6536	-8952.81
0.3498,0.6502	-8972.24
0.3591,0.6409	-8966.68
0.3435,0.6565	-8952.04
0.3784,0.6216	-8977.72
0.3616,0.6384	-8962.23
0.3628,0.6372	-8966.27
0.3781,0.6219	-8976.71
0.3927,0.6073	-8965.51
0.3352,0.6648	-8968.37
0.3742,0.6258	-8969.82
0.3487,0.6513	-8954.82
0.3654,0.6346	-8967.53
0.3487,0.6513	-8956.70
0.3413,0.6587	-8946.05
0.3129,0.6871	-8933.44
0.3393,0.6607	-8971.93
0.3252,0.6748	-8951.67
0.3436,0.6564	-8960.46
0.3554,0.6446	-8971.97
0.3672,0.6328	-8969.29
0.3373,0.6627	-8958.00
0.3481,0.6519	-8949.14
0.3548,0.6452	-8948.07
0.3394,0.6606	-8952.60
0.3260,0.6740	-8961.78
0.3286,0.6714	-8944.31
0.3210,0.6790	-8976.76
0.3491,0.6509	-8967.93
0.3705,0.6295	-8960.50
0.2958,0.7042	-8935.30
0.3508,0.6492	-8954.33
0.3477,0.6523	-8962.95
0.3414,0.6586	-8959.86
0.4018,0.5982	-8986.35
0.3715,0.6285	-8973.79
0.3229,0.6771	-8960.00
0.3669,0.6331	-8969.27
0.3781,0.6219	-8990.64
0.3397,0.6603	-8953.93
0.4137,0.5863	-8984.14
0.3613,0.6387	-8965.62
0.3386,0.6614	-8970.67
0.3663,0.6337	-8956.07
0.3552,0.6448	-8964.23
0.3754,0.6246	-8973.00
0.4167,0.5833	-8986.16
0.3346,0.6654	-8958.82
0.3309,0.6691	-8944.31
0.4144,0.5856	-8997.44
0.3704,0.6296	-8962.07
0.3460,0.6540	-8966.17
0.3684,0.6316	-8966.66
0.3369,0.6631	-8958.70
0.3609,0.6391	-8956.46
0.3820,0.6180	-8980.35
0.3525,0.6475	-8964.18
0.3228,0.6772	-8943.71
0.3472,0.6528	-8948.44
0.3225,0.6775	-8948.18
0.3666,0.6334	-8975.27
0.3777,0.6223	-8979.18
0.3299,0.6701	-8969.82
0.3429,0.6571	-8966.98
0.3420,0.6580	-8972.28
0.3129,0.6871	-8935.80
0.3463,0.6537	-8957.89
0.3338,0.6662	-8950.58
0.3421,0.6579	-8966.38
0.3440,0.6560	-8972.07
0.3357,0.6643	-8953.98
0.3079,0.6921	-8943.48
0.3472,0.6528	-8953.49
0.3507,0.6493	-8970.95
0.3316,0.6684	-8953.43
0.3521,0.6479	-8962.96
0.3281,0.6719	-8961.52
0.3662,0.6338	-8965.94
0.3211,0.6789	-8953.53
0.3606,0.6394	-8962.15
0.3251,0.6749	-8949.48
0.3540,0.6460	-8947.36
0.3202,0.6798	-8951.37
0.3550,0.6450	-8960.64
0.3283,0.6717	-8950.03
0.3472,0.6528	-8950.96
0.3262,0.6738	-8965.37
0.3586,0.6414	-8973.07
0.3799,0.6201	-8978.78
0.3333,0.6667	-8958.21
0.3648,0.6352	-8970.83
0.3357,0.6643	-8951.93
0.3168,0.6832	-8955.60
0.3404,0.6596	-8958.57
0.3601,0.6399	-8969.02
0.3313,0.6687	-8948.53
0.3492,0.6508	-8970.41
0.3650,0.6350	-8984.68
0.3308,0.6692	-8954.17
0.3721,0.6279	-8960.21
0.3447,0.6553	-8960.44
0.3617,0.6383	-8967.91
0.3394,0.6606	-8964.59
0.3724,0.6276	-8959.22
0.3690,0.6310	-8960.82
0.3613,0.6387	-8964.48
0.3739,0.6261	-8977.53
0.3537,0.6463	-8950.93
0.3522,0.6478	-8968.45
0.3620,0.6380	-8974.16
0.3551,0.6449	-8934.98
0.3342,0.6658	-8954.71
0.3939,0.6061	-8980.90
0.3556,0.6444	-8966.02
0.3427,0.6573	-8963.74
0.3416,0.6584	-8963.14
0.3433,0.6567	-8959.17
0.3438,0.6562	-8959.81
0.3565,0.6435	-8961.31
0.3689,0.6311	-8964.55
0.3514,0.6486	-8972.76
0.3309,0.6691	-8943.60
0.3566,0.6434	-8956.59
0.3628,0.6372	-8957.25
0.3338,0.6662	-8946.43
0.3724,0.6276	-8972.79
0.3448,0.6552	-8974.56
0.3629,0.6371	-8957.27
0.3491,0.6509	-8961.07
0.3265,0.6735	-8948.68
0.3290,0.6710	-8959.98
0.3334,0.6666	-8953.36
0.3647,0.6353	-8968.60
0.3400,0.6600	-8955.26
0.3580,0.6420	-8962.56
0.3320,0.6680	-8953.41
0.3802,0.6198	-8973.91
0.3611,0.6389	-8967.90
0.3675,0.6325	-8954.65
0.3428,0.6572	-8959.83
0.3372,0.6628	-8967.46
0.3349,0.6651	-8956.74
0.3837,0.6163	-8976.18
0.3432,0.6568	-8949.44
0.3692,0.6308	-8975.30
0.3489,0.6511	-8952.96
0.3453,0.6547	-8959.80
0.3476,0.6524	-8960.44
0.3718,0.6282	-8984.29
0.3662,0.6338	-8963.19
0.3236,0.6764	-8945.16
0.3765,0.6235	-8973.59
0.3357,0.6643	-8947.15
0.3657,0.6343	-8981.87
0.3105,0.6895	-8944.74
0.3491,0.6509	-8965.43
0.3454,0.6546	-8950.85
0.3372,0.6628	-8951.25
0.3355,0.6645	-8952.62
0.3655,0.6345	-8974.16
0.3490,0.6510	-8946.73
0.3420,0.6580	-8955.26
0.3642,0.6358	-8975.82
0.3723,0.6277	-8988.45
0.3110,0.6890	-8939.11
0.3577,0.6423	-8953.18
0.3651,0.6349	-8973.60
0.3301,0.6699	-8955.63
0.3464,0.6536	-8951.54
0.3534,0.6466	-8966.61
0.3288,0.6712	-8945.02
0.3953,0.6047	-8975.11
0.3394,0.6606	-8962.59
0.3249,0.6751	-8948.03
0.3590,0.6410	-8955.08
0.3622,0.6378	-8958.88
0.3486,0.6514	-8971.70
0.3884,0.6116	-8986.69
0.3404,0.6596	-8959.89
0.3305,0.6695	-8959.13
0.3745,0.6255	-8969.33
0.3656,0.6344	-8963.13
0.3684,0.6316	-8973.67
0.3636,0.6364	-8957.92
0.3355,0.6645	-8953.98
0.3629,0.6371	-8986.53
0.3350,0.6650	-8937.54
0.3660,0.6340	-8968.67
0.3690,0.6310	-8956.51
0.3486,0.6514	-8951.69
0.3418,0.6582	-8960.51
0.3351,0.6649	-8967.70
0.3360,0.6640	-8968.27
0.3406,0.6594	-8959.89
0.3677,0.6323	-8970.94
0.3454,0.6546	-8958.52
0.3672,0.6328	-8974.73
0.3283,0.6717	-8960.06
0.3529,0.6471	-8960.55
0.3605,0.6395	-8966.16
0.3706,0.6294	-8971.63
0.3402,0.6598	-8960.56
0.3489,0.6511	-8964.81
0.3445,0.6555	-8961.09
0.3505,0.6495	-8964.18
0.3575,0.6425	-8961.96
0.3454,0.6546	-8961.72
0.3230,0.6770	-8956.29
0.3840,0.6160	-8971.01
0.3711,0.6289	-8971.66
0.3544,0.6456	-8971.41
0.3242,0.6758	-8948.07
0.3849,0.6151	-8981.93
0.3420,0.6580	-8946.76
0.3720,0.6280	-8977.48
0.3608,0.6392	-8966.17
0.3666,0.6334	-8958.87
0.3348,0.6652	-8974.60
0.3597,0.6403	-8969.59
0.3102,0.6898	-8938.39
0.3468,0.6532	-8945.24
0.3539,0.6461	-8975.64
0.3895,0.6105	-8988.97
0.3435,0.6565	-8960.46
0.3525,0.6475	-8953.85
0.3162,0.6838	-8937.96
0.3594,0.6406	-8971.32
0.3228,0.6772	-8965.20
0.3337,0.6663	-8951.27
0.3350,0.6650	-8945.08
0.3607,0.6393	-8969.03
0.3298,0.6702	-8951.39
0.3455,0.6545	-8961.07
0.3311,0.6689	-8968.21
0.3464,0.6536	-8966.78
0.3621,0.6379	-8971.33
0.3638,0.6362	-8957.94
0.3376,0.6624	-8944.51
0.3489,0.6511	-8954.21
0.3394,0.6606	-8967.25
0.3374,0.6626	-8978.91
0.3349,0.6651	-8951.26
0.3765,0.6235	-8977.62
0.3216,0.6784	-8963.92
0.3823,0.6177	-8982.28
0.3575,0.6425	-8973.09
0.3389,0.6611	-8969.30
0.3254,0.6746	-8950.92
0.3690,0.6310	-8966.18
0.3556,0.6444	-8964.24
0.3342,0.6658	-8960.23
0.3523,0.6477	-8950.18
0.3445,0.6555	-8968.16
0.3339,0.6661	-8954.03
0.3592,0.6408	-8967.84
0.3369,0.6631	-8955.31
0.3625,0.6375	-8955.53
0.3363,0.6637	-8952.61
0.3443,0.6557	-8959.80
0.3344,0.6656	-8965.72
0.3387,0.6613	-8953.27
0.3282,0.6718	-8941.44
0.3867,0.6133	-8960.36
0.3355,0.6645	-8951.93
0.3135,0.6865	-8941.26
0.3187,0.6813	-8951.54
0.3295,0.6705	-8947.14
0.3423,0.6577	-8968.33
0.3389,0.6611	-8954.60
0.3659,0.6341	-8971.96
0.3584,0.6416	-8967.25
0.3537,0.6463	-8964.80
0.3248,0.6752	-8939.26
0.3340,0.6660	-8947.13
0.3554,0.6446	-8963.04
0.3572,0.6428	-8954.29
0.3551,0.6449	-8958.85
0.3473,0.6527	-8963.59
0.3351,0.6649	-8949.20
0.3459,0.6541	-8957.25
0.3407,0.6593	-8961.20
0.3360,0.6640	-8966.92
0.3368,0.6632	-8970.21
0.3389,0.6611	-8953.94
0.3524,0.6476	-8949.58
0.3493,0.6507	-8952.37
0.3389,0.6611	-8942.57
0.3335,0.6665	-8955.43
0.3623,0.6377	-8962.85
0.3537,0.6463	-8955.76
0.3347,0.6653	-8947.14
0.3706,0.6294	-8971.10
0.3249,0.6751	-8970.71
0.3091,0.6909	-8959.40
0.3306,0.6694	-8953.48
0.3550,0.6450	-8961.83
0.3558,0.6442	-8977.89
0.3555,0.6445	-8980.89
0.3281,0.6719	-8957.21
0.3186,0.6814	-8950.79
0.3418,0.6582	-8955.92
0.3575,0.6425	-8959.61
0.3171,0.6829	-8941.76
0.3196,0.6804	-8958.24
0.3798,0.6202	-8969.95
0.3409,0.6591	-8969.11
0.3625,0.6375	-8966.82
0.3575,0.6425	-8968.99
0.3356,0.6644	-8943.74
0.3245,0.6755	-8948.79
0.3391,0.6609	-8949.93
0.3318,0.6682	-8961.12
0.3368,0.6632	-8958.02
0.3705,0.6295	-8975.87
0.3623,0.6377	-8961.71
0.3059,0.6941	-8961.80
0.3261,0.6739	-8954.51
0.3531,0.6469	-8961.77
0.3426,0.6574	-8960.48
0.3643,0.6357	-8963.01
0.3293,0.6707	-8954.98
0.3167,0.6833	-8957.93
0.3181,0.6819	-8950.85
0.3703,0.6297	-8969.49
0.3497,0.6503	-8949.29
0.3722,0.6278	-8973.82
0.3588,0.6412	-8978.29
0.3140,0.6860	-8927.15
0.3278,0.6722	-8952.93
0.3477,0.6523	-8971.13
0.3354,0.6646	-8956.04
0.3242,0.6758	-8959.82
0.3885,0.6115	-8982.16
0.3130,0.6870	-8954.66
0.3292,0.6708	-8946.44
0.3315,0.6685	-8961.85
0.3448,0.6552	-8955.95
0.3430,0.6570	-8969.58
0.3458,0.6542	-8947.05
0.3101,0.6899	-8932.80
0.3607,0.6393	-8966.17
0.3206,0.6794	-8952.08
0.3579,0.6421	-8959.63
0.3656,0.6344	-8969.75
0.3625,0.6375	-8975.28
0.3197,0.6803	-8944.63
0.3119,0.6881	-8932.70
0.3374,0.6626	-8962.05
0.3575,0.6425	-8968.40
0.3421,0.6579	-8964.42
0.3491,0.6509	-8951.11
0.3180,0.6820	-8958.49
0.3590,0.6410	-8967.26
0.3156,0.6844	-8948.05
0.3382,0.6618	-8947.90
0.3407,0.6593	-8955.92
0.3234,0.6766	-8964.36
0.3452,0.6548	-8959.80
0.3497,0.6503	-8967.29
0.3455,0.6545	-8948.93
0.3474,0.6526	-8956.02
0.3486,0.6514	-8952.94
0.3599,0.6401	-8958.65
0.3294,0.6706	-8937.90
0.3880,0.6120	-8977.56
0.3562,0.6438	-8961.89
0.3330,0.6670	-8955.46
0.3346,0.6654	-8941.63
0.3384,0.6616	-8972.04
0.3374,0.6626	-8953.27
0.3764,0.6236	-8981.66
0.3126,0.6874	-8939.76
0.3486,0.6514	-8962.94
0.3487,0.6513	-8959.20
0.3485,0.6515	-8983.60
0.3540,0.6460	-8952.18
0.3728,0.6272	-8986.34
0.3242,0.6758	-8945.87
0.3772,0.6228	-8975.15
0.3710,0.6290	-8969.02
0.3265,0.6735	-8960.99
0.3599,0.6401	-8963.26
0.3479,0.6521	-8960.44
0.3248,0.6752	-8964.87
0.3377,0.6623	-8977.52
0.3629,0.6371	-8974.72
0.3689,0.6311	-8972.08
0.3303,0.6697	-8958.44
0.3291,0.6709	-8963.53
0.3676,0.6324	-8967.68
0.3120,0.6880	-8942.97
0.3479,0.6521	-8974.89
0.3674,0.6326	-8964.40
0.3548,0.6452	-8967.81
0.3444,0.6556	-8950.79
0.3652,0.6348	-8975.81
0.3634,0.6366	-8974.71
0.3645,0.6355	-8978.60
0.3388,0.6612	-8951.93
0.3687,0.6313	-8961.85
0.3749,0.6251	-8975.00
0.3357,0.6643	-8953.98
0.3854,0.6146	-8981.02
0.3626,0.6374	-8979.23
0.3409,0.6591	-8965.81
0.3281,0.6719	-8953.63
0.3795,0.6205	-8969.91
0.3214,0.6786	-8960.96
0.3553,0.6447	-8960.06
0.3539,0.6461	-8974.44
0.3481,0.6519	-8954.79
0.3485,0.6515	-8946.68
0.3479,0.6521	-8959.18
0.3117,0.6883	-8955.69
0.3728,0.6272	-8970.22
0.3457,0.6543	-8961.07
0.3615,0.6385	-8962.22
0.3505,0.6495	-8955.54
0.3459,0.6541	-8964.26
0.2833,0.7167	-8964.09
0.3968,0.6032	-8982.93
0.3592,0.6408	-8984.06
0.3444,0.6556	-8961.74
0.3660,0.6340	-8985.16
0.3526,0.6474	-8955.07
0.3175,0.6825	-8937.90
0.3872,0.6128	-8984.36
0.3584,0.6416	-8960.84
0.3820,0.6180	-8972.17
0.3738,0.6262	-8969.26
0.3455,0.6545	-8952.13
0.3333,0.6667	-8953.36
0.3489,0.6511	-8961.70
0.3219,0.6781	-8958.66
0.3551,0.6449	-8962.43
0.3663,0.6337	-8981.84
0.3390,0.6610	-8966.63
0.3366,0.6634	-8937.00
0.3553,0.6447	-8948.73
0.3404,0.6596	-8965.85
0.3252,0.6748	-8954.59
0.3803,0.6197	-8975.88
0.3272,0.6728	-8945.76
0.3631,0.6369	-8971.34
0.3633,0.6367	-8956.75
0.3392,0.6608	-8951.93
0.3423,0.6577	-8960.49
0.3807,0.6193	-8981.26
0.3342,0.6658	-8967.81
0.3509,0.6491	-8978.32
0.3680,0.6320	-8976.36
0.3369,0.6631	-8952.60
0.3374,0.6626	-8955.97
0.3465,0.6535	-8957.26
0.3694,0.6306	-8974.24
0.3656,0.6344	-8969.75
0.3591,0.6409	-8958.58
0.3608,0.6392	-8977.61
0.3595,0.6405	-8970.16
0.3646,0.6354	-8974.15
0.3697,0.6303	-8971.05
0.3636,0.6364	-8969.11
0.3297,0.6703	-8969.14
0.3179,0.6821	-8951.63
0.3449,0.6551	-8954.03
0.3448,0.6552	-8958.52
0.3257,0.6743	-8955.99
0.3553,0.6447	-8966.61
0.3481,0.6519	-8951.03
0.3591,0.6409	-8956.84
0.3503,0.6497	-8954.29
0.3443,0.6557	-8959.80
0.3604,0.6396	-8968.45
0.3544,0.6456	-8971.41
0.3602,0.6398	-8971.32
0.3577,0.6423	-8967.82
0.3584,0.6416	-8964.34
0.3474,0.6526	-8959.80
0.3500,0.6500	-8962.32
0.3370,0.6630	-8958.69
0.3656,0.6344	-8983.53
0.3432,0.6568	-8960.47
0.3505,0.6495	-8972.81
0.3300,0.6700	-8983.97
0.3246,0.6754	-8955.37
0.3518,0.6482	-8951.34
0.3235,0.6765	-8950.33
0.3309,0.6691	-8951.35
0.3682,0.6318	-8969.35
0.3288,0.6712	-8959.29
0.3116,0.6884	-8940.65
0.3119,0.6881	-8928.75
0.3232,0.6768	-8952.57
0.3100,0.6900	-8955.21
0.3880,0.6120	-8991.69
0.3653,0.6347	-8968.63
0.3044,0.6956	-8959.72
0.3439,0.6561	-8968.85
0.3421,0.6579	-8956.57
0.3248,0.6752	-8945.11
0.3696,0.6304	-8978.52
0.3652,0.6348	-8958.67
0.3365,0.6635	-8953.96
0.3001,0.6999	-8941.40
0.3501,0.6499	-8962.32
0.3656,0.6344	-8981.88
0.3505,0.6495	-8970.96
0.3679,0.6321	-8982.86
0.3537,0.6463	-8972.03
0.3220,0.6780	-8955.66
0.3410,0.6590	-8958.55
0.3560,0.6440	-8956.54
0.3743,0.6257	-8982.68
0.3305,0.6695	-8968.31
0.3442,0.6558	-8960.45
0.3330,0.6670	-8949.90
0.3470,0.6530	-8956.64
0.3463,0.6537	-8978.22
0.3704,0.6296	-8958.89
0.3150,0.6850	-8961.33
0.3187,0.6813	-8982.68
0.3384,0.6616	-8951.26
0.3296,0.6704	-8955.66
0.3362,0.6638	-8970.97
0.3340,0.6660	-8952.65
0.3551,0.6449	-8971.98
0.3605,0.6395	-8961.57
0.3341,0.6659	-8940.92
0.3511,0.6489	-8967.25
0.3612,0.6388	-8968.47
0.3180,0.6820	-8969.17
0.3417,0.6583	-8950.67
0.3561,0.6439	-8964.84
0.3360,0.6640	-8959.42
0.3343,0.6657	-8960.91
0.3578,0.6422	-8969.57
0.3792,0.6208	-8971.85
0.3422,0.6578	-8968.33
0.3388,0.6612	-8952.60
0.3523,0.6477	-8957.49
0.3334,0.6666	-8942.27
0.3492,0.6508	-8951.74
0.3853,0.6147	-8987.56
0.3732,0.6268	-8965.58
0.3578,0.6422	-8967.24
0.3539,0.6461	-8970.82
0.3494,0.6506	-8949.27
0.3319,0.6681	-8952.72
0.3685,0.6315	-8963.44
0.3783,0.6217	-8971.74
0.3345,0.6655	-8951.95
0.3428,0.6572	-8953.97
0.3454,0.6546	-8957.24
0.3231,0.6769	-8939.27
0.3534,0.6466	-8969.03
0.3386,0.6614	-8972.68
0.3586,0.6414	-8966.67
0.3298,0.6702	-8968.42
0.3276,0.6724	-8958.69
0.2977,0.7023	-8940.13
0.3634,0.6366	-8968.54
0.3494,0.6506	-8974.75
0.3508,0.6492	-8957.40
0.3302,0.6698	-8957.74
0.3299,0.6701	-8939.34
0.2938,0.7062	-8930.40
0.3510,0.6490	-8972.78
0.3670,0.6330	-8969.82
0.3315,0.6685	-8944.32
0.3261,0.6739	-8944.34
0.3289,0.6711	-8953.57
0.3244,0.6756	-8937.79
0.3406,0.6594	-8946.01
0.3229,0.6771	-8958.52
0.3461,0.6539	-8962.98
0.3363,0.6637	-8960.08
0.3284,0.6716	-8951.46
0.3659,0.6341	-8973.06
0.3435,0.6565	-8965.00
0.3597,0.6403	-8959.20
0.3308,0.6692	-8943.60
0.3592,0.6408	-8964.37
0.3401,0.6599	-8943.99
0.3688,0.6312	-8970.46
0.3475,0.6525	-8970.51
0.3370,0.6630	-8964.11
0.3257,0.6743	-8945.08
0.3421,0.6579	-8976.19
0.3589,0.6411	-8975.38
0.3356,0.6644	-8951.25
0.3122,0.6878	-8950.85
0.3277,0.6723	-8960.13
0.3163,0.6837	-8947.21
0.3396,0.6604	-8965.91
0.3506,0.6494	-8954.93
0.3898,0.6102	-8984.05
0.3602,0.6398	-8973.04
0.3345,0.6655	-8954.01
0.3124,0.6876	-8936.62
0.3560,0.6440	-8968.40
0.3425,0.6575	-8966.35
0.3484,0.6516	-8963.57
0.3577,0.6423	-8968.99
0.3548,0.6452	-8958.83
0.3636,0.6364	-8964.08
0.3343,0.6657	-8959.53
0.3268,0.6732	-8965.28
0.3299,0.6701	-8954.93
0.3502,0.6498	-8969.12
0.3788,0.6212	-8971.80
0.3876,0.6124	-8977.52
0.3226,0.6774	-8971.17
0.3647,0.6353	-8958.61
0.3392,0.6608	-8957.27
0.3726,0.6274	-8966.54
0.4048,0.5952	-8977.06
0.3610,0.6390	-8964.47
0.3189,0.6811	-8951.52
0.3584,0.6416	-8960.26
0.3199,0.6801	-8944.62
0.3568,0.6432	-8967.81
0.3954,0.6046	-8987.87
0.3252,0.6748	-8950.21
0.3220,0.6780	-8944.49
0.3591,0.6409	-8967.26
0.3563,0.6437	-8980.23
0.3293,0.6707	-8965.64
0.3142,0.6858	-8951.34
0.3358,0.6642	-8947.84
0.3370,0.6630	-8963.43
0.3883,0.6117	-8978.96
0.3580,0.6420	-8970.16
0.3021,0.6979	-8942.72
0.3380,0.6620	-8963.35
0.3343,0.6657	-8960.22
0.3295,0.6705	-8965.61
0.3708,0.6292	-8972.70
0.3641,0.6359	-8983.07
0.3414,0.6586	-8961.83
0.3642,0.6358	-8976.94
0.3410,0.6590	-8970.41
0.3469,0.6531	-8969.29
0.3582,0.6418	-8953.24
0.3535,0.6465	-8953.93
0.3741,0.6259	-8962.61
0.3510,0.6490	-8961.10
0.3542,0.6458	-8962.40
0.3468,0.6532	-8964.86
0.3520,0.6480	-8966.01
0.3532,0.6468	-8963.59
0.3353,0.6647	-8963.57
0.3467,0.6533	-8962.97
0.3386,0.6614	-8949.92
0.3485,0.6515	-8964.20
0.3756,0.6244	-8980.13
0.3412,0.6588	-8967.76
0.3368,0.6632	-8962.09
0.3597,0.6403	-8961.51
0.3427,0.6573	-8948.76
0.3544,0.6456	-8976.20
0.3664,0.6336	-8974.72
0.3271,0.6729	-8947.93
0.3627,0.6373	-8969.08
0.3740,0.6260	-8970.83
0.3366,0.6634	-8951.92
0.3293,0.6707	-8968.50
0.3556,0.6444	-8967.21
0.3566,0.6434	-8974.89
0.3477,0.6523	-8958.55
0.3872,0.6128	-8986.66
0.3274,0.6726	-8952.24
0.3377,0.6623	-8962.70
0.3432,0.6568	-8957.87
0.3339,0.6661	-8956.79
0.3643,0.6357	-8955.78
0.3733,0.6267	-8979.06
0.3104,0.6896	-8937.57
0.3429,0.6571	-8957.87
0.3257,0.6743	-8955.27
0.3277,0.6723	-8963.71
0.3437,0.6563	-8955.28
0.3801,0.6199	-8979.28
0.3249,0.6751	-8946.57
0.3344,0.6656	-8959.52
0.3458,0.6542	-8954.70
0.3310,0.6690	-8950.64
0.3326,0.6674	-8938.76
0.3490,0.6510	-8967.93
0.3563,0.6437	-8963.67
0.3231,0.6769	-8969.58
0.3656,0.6344	-8979.12
0.3330,0.6670	-8974.22
0.3216,0.6784	-8941.53
0.3329,0.6671	-8951.99
0.3717,0.6283	-8964.88
0.3410,0.6590	-8958.55
0.3471,0.6529	-8978.13
0.3041,0.6959	-8933.29
0.3747,0.6253	-8982.16
0.3622,0.6378	-8966.80
0.3628,0.6372	-8976.97
0.3361,0.6639	-8954.65
0.3386,0.6614	-8955.95
0.3702,0.6298	-8973.20
0.3549,0.6451	-8969.00
0.3234,0.6766	-8948.86
0.3555,0.6445	-8966.02
0.3275,0.6725	-8942.16
0.3265,0.6735	-8959.54
0.3789,0.6211	-8968.85
0.3707,0.6293	-8978.52
0.3357,0.6643	-8967.63
0.3613,0.6387	-8970.18
0.3351,0.6649	-8945.77
0.3294,0.6706	-8965.64
0.3654,0.6346	-8973.61
0.3218,0.6782	-8954.20
0.3516,0.6484	-8966.01
0.3344,0.6656	-8960.21
0.3491,0.6509	-8962.94
0.3786,0.6214	-8964.84
0.3672,0.6328	-8963.84
0.3591,0.6409	-8965.53
0.3486,0.6514	-8957.32
0.3400,0.6600	-8946.64
0.3759,0.6241	-8967.45
0.3754,0.6246	-8975.03
0.3449,0.6551	-8959.16
0.3561,0.6439	-8966.03
0.3726,0.6274	-8980.10
0.3693,0.6307	-8966.21
0.3477,0.6523	-8967.99
0.3115,0.6885	-8943.04
0.3514,0.6486	-8962.95
0.3509,0.6491	-8964.79
0.3428,0.6572	-8951.37
0.4224,0.5776	-8993.66
0.3475,0.6525	-8969.26
0.3366,0.6634	-8963.46
0.3421,0.6579	-8959.19
0.3499,0.6501	-8966.66
0.3402,0.6598	-8957.25
0.4250,0.5750	-8990.75
0.3655,0.6345	-8970.30
0.3681,0.6319	-8970.42
0.3411,0.6589	-8953.94
0.3521,0.6479	-8962.96
0.3557,0.6443	-8960.68
0.4181,0.5819	-9005.95
0.3661,0.6339	-8961.54
0.3643,0.6357	-8969.70
0.3431,0.6569	-8965.02
0.3391,0.6609	-8967.95
0.3828,0.6172	-8977.05
0.3434,0.6566	-8956.58
0.3485,0.6515	-8946.68
0.3769,0.6231	-8976.13
0.3393,0.6607	-8958.60
0.3487,0.6513	-8972.32
0.3482,0.6518	-8961.07
0.3255,0.6745	-8968.41
0.3188,0.6812	-8930.26
0.3358,0.6642	-8946.47
0.3243,0.6757	-8948.80
0.3693,0.6307	-8972.09
0.3664,0.6336	-8970.33
0.3395,0.6605	-8964.58
0.3530,0.6470	-8973.88
0.3535,0.6465	-8961.78
0.3510,0.6490	-8957.41
0.3490,0.6510	-8965.44
0.3537,0.6463	-8958.17
0.3450,0.6550	-8955.95
0.3558,0.6442	-8964.24
0.3569,0.6431	-8954.86
0.3402,0.6598	-8958.57
0.3169,0.6831	-8946.38
0.3452,0.6548	-8961.72
0.3587,0.6413	-8989.92
0.3600,0.6400	-8965.56
0.3566,0.6434	-8957.77
0.3492,0.6508	-8975.39
0.3355,0.6645	-8949.20
0.3588,0.6412	-8963.19
0.3196,0.6804	-8952.95
0.3791,0.6209	-8977.26
0.3826,0.6174	-8971.29
0.3233,0.6767	-8955.51
0.3541,0.6459	-8956.99
0.3544,0.6456	-8966.01
0.3700,0.6300	-8957.23
0.3620,0.6380	-8973.59
0.3510,0.6490	-8946.97
0.3290,0.6710	-8957.13
0.3502,0.6498	-8975.31
0.3499,0.6501	-8950.56
0.3624,0.6376	-8971.90
0.3583,0.6417	-8975.40
0.3469,0.6531	-8952.21
0.3281,0.6719	-8962.94
0.3488,0.6512	-8967.94
0.3577,0.6423	-8956.70
0.3617,0.6383	-8965.08
0.3901,0.6099	-8984.07
0.3576,0.6424	-8974.85
0.3247,0.6753	-8949.51
0.3632,0.6368	-8966.29
0.3541,0.6459	-8956.99
0.3353,0.6647	-8953.99
0.3620,0.6380	-8965.66
0.3225,0.6775	-8960.06
0.3772,0.6228	-8985.68
0.3539,0.6461	-8958.79
0.3403,0.6597	-8958.57
0.3231,0.6769	-8942.96
0.3865,0.6135	-8977.40
0.3387,0.6613	-8953.27
0.3685,0.6315	-8979.06
0.3331,0.6669	-8947.12
0.3679,0.6321	-8961.75
0.3133,0.6867	-8944.41
0.3386,0.6614	-8962.64
0.3449,0.6551	-8957.23
0.3335,0.6665	-8963.05
0.3204,0.6796	-8931.05
0.3731,0.6269	-8971.28
0.3613,0.6387	-8975.31
0.3374,0.6626	-8952.60
0.3679,0.6321	-8974.20
0.3547,0.6453	-8960.03
0.3191,0.6809	-8964.37
0.3527,0.6473	-8971.47
0.3547,0.6453	-8952.25
0.3053,0.6947	-8941.40
0.3549,0.6451	-8965.42
0.3267,0.6733	-8944.33
0.3583,0.6417	-8959.66
0.3583,0.6417	-8962.58
0.3277,0.6723	-8960.13
0.3489,0.6511	-8964.19
0.3485,0.6515	-8966.07
0.3564,0.6436	-8967.22
0.3470,0.6530	-8959.17
0.3572,0.6428	-8967.81
0.3501,0.6499	-8964.18
0.3463,0.6537	-8947.72
0.3400,0.6600	-8955.93
0.3376,0.6624	-8951.25
0.3450,0.6550	-8961.08
0.3543,0.6457	-8946.21
0.3534,0.6466	-8967.21
0.3502,0.6498	-8961.09
0.3561,0.6439	-8979.65
0.3364,0.6636	-8963.48
0.3184,0.6816	-8953.85
0.3465,0.6535	-8961.07
0.3736,0.6264	-8971.32
0.3652,0.6348	-8965.86
0.3889,0.6111	-8972.24
0.3364,0.6636	-8953.28
0.3394,0.6606	-8953.27
0.3687,0.6313	-8967.76
0.3523,0.6477	-8964.18
0.3512,0.6488	-8985.04
0.3213,0.6787	-8935.56
0.3459,0.6541	-8974.45
0.3236,0.6764	-8938.52
0.3485,0.6515	-8968.58
0.3710,0.6290	-8970.07
0.3395,0.6605	-8970.57
0.3468,0.6532	-8952.20
0.3441,0.6559	-8958.52
0.3366,0.6634	-8960.07
0.3865,0.6135	-8979.71
0.3666,0.6334	-8973.08
0.3456,0.6544	-8968.10
0.3900,0.6100	-8997.48
0.3523,0.6477	-8960.53
0.3369,0.6631	-8954.63
0.3737,0.6263	-8972.87
0.3542,0.6458	-8958.20
0.3452,0.6548	-8949.55
0.3833,0.6167	-8969.01
0.3633,0.6367	-8962.37
0.3437,0.6563	-8954.64
0.3660,0.6340	-8970.87
0.3922,0.6078	-8980.26
0.3652,0.6348	-8969.18
0.3709,0.6291	-8974.82
0.3270,0.6730	-8959.48
0.3822,0.6178	-8977.48
0.3346,0.6654	-8962.26
0.3874,0.6126	-8978.87
0.3487,0.6513	-8951.70
0.3910,0.6090	-8985.46
0.3165,0.6835	-8954.11
0.3709,0.6291	-8979.05
0.3375,0.6625	-8964.06
0.4077,0.5923	-8990.07
0.3432,0.6568	-8965.01
0.3586,0.6414	-8965.51
0.3294,0.6706	-8954.97
0.3776,0.6224	-8969.68
0.3493,0.6507	-8957.34
0.3712,0.6288	-8969.03
0.3845,0.6155	-8986.61
0.3781,0.6219	-8972.23
0.3235,0.6765	-8944.42
0.3809,0.6191	-8975.44
0.3278,0.6722	-8943.60
0.3611,0.6389	-8961.05
0.3722,0.6278	-8967.03
0.3714,0.6286	-8970.63
0.3146,0.6854	-8966.87
0.3898,0.6102	-8987.63
