#isoforms=['ENSG00000186575.SE.4.A.up_ENSG00000186575.SE.4.A.SE1_ENSG00000186575.SE.4.A.dn','ENSG00000186575.SE.4.B.up_ENSG00000186575.SE.4.B.dn']	exon_lens=('ENSG00000186575.SE.4.A.up',128),('ENSG00000186575.SE.4.A.SE1',163),('ENSG00000186575.SE.4.A.dn',3847),('ENSG00000186575.SE.4.B.up',128),('ENSG00000186575.SE.4.B.dn',194)	iters=5000	burn_in=500	lag=10	percent_accept=95.48	proposal_type=drift	counts=(0,0):286,(1,0):1292,(1,1):75	assigned_counts=0:1367	chrom=chr22	strand=+	mRNA_starts=29678196,29678196	mRNA_ends=29698598,29694945
sampled_psi	log_score
0.9172,0.0828	-11372.09
0.9122,0.0878	-11369.81
0.8097,0.1903	-11393.06
0.8552,0.1448	-11379.54
0.9520,0.0480	-11366.62
0.8096,0.1904	-11382.93
0.9294,0.0706	-11387.52
0.9224,0.0776	-11379.48
0.8490,0.1510	-11376.28
0.8628,0.1372	-11384.85
0.9629,0.0371	-11360.30
0.8315,0.1685	-11382.00
0.9277,0.0723	-11374.60
0.9159,0.0841	-11367.33
0.8792,0.1208	-11379.04
0.8773,0.1227	-11377.10
0.9615,0.0385	-11360.33
0.8234,0.1766	-11379.23
0.9458,0.0542	-11380.92
0.8873,0.1127	-11372.78
0.8756,0.1244	-11379.09
0.9142,0.0858	-11372.12
0.9634,0.0366	-11370.10
0.8110,0.1890	-11381.40
0.9336,0.0664	-11366.80
0.8659,0.1341	-11381.13
0.9068,0.0932	-11372.25
0.9237,0.0763	-11362.07
0.9662,0.0338	-11360.22
0.8313,0.1687	-11380.41
0.9403,0.0597	-11366.68
0.8514,0.1486	-11395.37
0.9336,0.0664	-11364.16
0.9339,0.0661	-11361.50
0.9656,0.0344	-11360.24
0.8084,0.1916	-11384.42
0.9515,0.0485	-11366.62
0.8479,0.1521	-11378.05
0.9320,0.0680	-11372.07
0.9360,0.0640	-11369.43
0.9515,0.0485	-11375.55
0.8454,0.1546	-11379.86
0.9548,0.0452	-11357.49
0.8396,0.1604	-11380.07
0.9169,0.0831	-11372.09
0.9360,0.0640	-11369.43
0.9468,0.0532	-11366.62
0.8220,0.1780	-11382.37
0.9474,0.0526	-11366.62
0.8108,0.1892	-11385.78
0.9142,0.0858	-11383.95
0.9362,0.0638	-11369.43
0.9450,0.0550	-11369.48
0.8206,0.1794	-11394.59
0.9398,0.0602	-11374.93
0.7943,0.2057	-11395.89
0.9017,0.0983	-11372.36
0.9059,0.0941	-11363.20
0.9356,0.0644	-11364.08
0.8389,0.1611	-11388.35
0.9288,0.0712	-11369.48
0.7906,0.2094	-11387.92
0.9219,0.0781	-11369.59
0.8949,0.1051	-11376.82
0.9388,0.0612	-11374.89
0.8269,0.1731	-11393.12
0.9201,0.0799	-11372.06
0.7592,0.2408	-11400.93
0.9336,0.0664	-11366.80
0.8952,0.1048	-11370.39
0.9300,0.0700	-11364.30
0.8298,0.1702	-11386.81
0.9242,0.0758	-11377.05
0.8173,0.1827	-11378.08
0.9275,0.0725	-11372.05
0.8895,0.1105	-11376.88
0.9336,0.0664	-11358.87
0.8055,0.1945	-11387.39
0.9221,0.0779	-11372.05
0.8035,0.1965	-11395.91
0.9316,0.0684	-11364.23
0.9109,0.0891	-11367.52
0.9381,0.0619	-11372.15
0.8314,0.1686	-11389.98
0.9360,0.0640	-11369.43
0.8330,0.1670	-11388.37
0.9227,0.0773	-11369.57
0.9179,0.0821	-11372.08
0.9416,0.0584	-11372.23
0.8184,0.1816	-11384.03
0.9343,0.0657	-11364.13
0.8483,0.1517	-11378.03
0.9101,0.0899	-11367.55
0.9159,0.0841	-11379.27
0.9521,0.0479	-11363.63
0.8069,0.1931	-11385.92
0.9290,0.0710	-11364.34
0.8445,0.1555	-11393.43
0.8912,0.1088	-11370.55
0.9213,0.0787	-11376.98
0.9555,0.0445	-11363.59
0.7765,0.2235	-11393.52
0.9282,0.0718	-11372.05
0.8495,0.1505	-11384.91
0.8908,0.1092	-11385.26
0.9111,0.0889	-11372.17
0.9559,0.0441	-11366.66
0.7829,0.2171	-11388.25
0.9274,0.0726	-11369.50
0.8567,0.1433	-11379.50
0.9047,0.0953	-11376.79
0.9027,0.0973	-11376.79
0.9540,0.0460	-11360.58
0.7751,0.2249	-11394.80
0.9326,0.0674	-11366.82
0.8699,0.1301	-11379.19
0.9091,0.0909	-11369.90
0.9061,0.0939	-11379.06
0.9482,0.0518	-11366.62
0.7944,0.2056	-11390.48
0.9313,0.0687	-11374.67
0.8749,0.1251	-11373.27
0.8751,0.1249	-11377.15
0.8926,0.1074	-11372.61
0.9594,0.0406	-11363.56
0.7812,0.2188	-11397.23
0.9341,0.0659	-11366.79
0.8745,0.1255	-11377.16
0.8762,0.1238	-11373.21
0.8866,0.1134	-11387.20
0.9570,0.0430	-11372.88
0.7888,0.2112	-11388.00
0.9464,0.0536	-11363.75
0.8999,0.1001	-11374.60
0.8882,0.1118	-11374.83
0.8754,0.1246	-11379.09
0.9487,0.0513	-11369.54
0.8172,0.1828	-11391.56
0.9435,0.0565	-11363.83
0.8879,0.1121	-11370.69
0.8783,0.1217	-11371.15
0.8860,0.1140	-11376.93
0.9412,0.0588	-11361.12
0.8238,0.1762	-11383.84
0.9542,0.0458	-11360.57
0.9119,0.0881	-11379.17
0.8912,0.1088	-11374.76
0.9034,0.0966	-11383.50
0.9427,0.0573	-11361.05
0.8554,0.1446	-11393.75
0.9544,0.0456	-11363.60
0.9165,0.0835	-11372.10
0.8896,0.1104	-11372.71
0.9086,0.0914	-11367.62
0.9427,0.0573	-11377.86
0.8568,0.1432	-11381.28
0.9571,0.0429	-11366.68
0.9054,0.0946	-11372.27
0.8606,0.1394	-11373.93
0.8989,0.1011	-11376.80
0.9400,0.0600	-11372.19
0.8849,0.1151	-11381.03
0.9603,0.0397	-11363.55
0.9008,0.0992	-11381.20
0.8309,0.1691	-11378.84
0.8812,0.1188	-11375.01
0.9354,0.0646	-11361.42
0.8897,0.1103	-11383.14
0.9646,0.0354	-11366.87
0.8835,0.1165	-11370.90
0.8448,0.1552	-11390.04
0.8852,0.1148	-11376.94
0.9353,0.0647	-11361.42
0.8874,0.1126	-11376.91
0.9600,0.0400	-11366.73
0.8817,0.1183	-11383.03
0.8151,0.1849	-11385.64
0.8986,0.1014	-11368.07
0.9250,0.0750	-11361.99
0.9027,0.0973	-11381.24
0.9535,0.0465	-11360.59
0.8585,0.1415	-11381.25
0.8284,0.1716	-11391.56
0.8793,0.1207	-11379.04
0.9404,0.0596	-11369.44
0.9186,0.0814	-11374.50
0.9625,0.0375	-11363.55
0.8596,0.1404	-11379.42
0.8195,0.1805	-11383.99
0.8647,0.1353	-11383.00
0.9510,0.0490	-11363.66
0.9303,0.0697	-11372.06
0.9585,0.0415	-11360.42
0.8638,0.1362	-11384.86
0.8433,0.1567	-11383.30
0.8590,0.1410	-11381.24
0.9506,0.0494	-11363.66
0.9316,0.0684	-11377.29
0.9529,0.0471	-11360.62
0.8489,0.1511	-11383.19
0.8352,0.1648	-11385.12
0.8571,0.1429	-11379.49
0.9314,0.0686	-11359.03
0.9213,0.0787	-11374.52
0.9459,0.0541	-11360.90
0.8503,0.1497	-11386.64
0.8505,0.1495	-11388.38
0.8604,0.1396	-11379.40
0.9354,0.0646	-11369.44
0.9266,0.0734	-11377.12
0.9427,0.0573	-11375.06
0.8488,0.1512	-11378.01
0.8352,0.1648	-11386.74
0.8708,0.1292	-11375.35
0.9395,0.0605	-11372.18
0.9176,0.0824	-11374.49
0.9546,0.0454	-11357.51
0.8654,0.1346	-11375.56
0.8535,0.1465	-11381.35
0.8340,0.1660	-11380.30
0.9254,0.0746	-11374.56
0.9117,0.0883	-11372.16
0.9552,0.0448	-11363.59
0.8714,0.1286	-11381.07
0.8473,0.1527	-11378.08
0.8016,0.1984	-11391.71
0.9096,0.0904	-11372.19
0.9006,0.0994	-11367.98
0.9487,0.0513	-11369.54
0.8974,0.1026	-11385.48
0.8522,0.1478	-11379.63
0.8182,0.1818	-11385.54
0.9077,0.0923	-11385.94
0.9255,0.0745	-11374.56
0.9400,0.0600	-11361.18
0.8947,0.1053	-11370.41
0.8262,0.1738	-11386.88
0.8497,0.1503	-11388.37
0.8854,0.1146	-11374.90
0.9285,0.0715	-11361.80
0.9337,0.0663	-11366.80
0.9258,0.0742	-11382.14
0.7805,0.2195	-11387.09
0.8780,0.1220	-11381.03
0.8993,0.1007	-11383.37
0.9317,0.0683	-11372.07
0.9371,0.0629	-11364.03
0.9290,0.0710	-11390.05
0.7950,0.2050	-11394.53
0.8577,0.1423	-11384.86
0.9039,0.0961	-11385.75
0.9368,0.0632	-11374.82
0.9459,0.0541	-11366.63
0.9294,0.0706	-11366.90
0.7781,0.2219	-11398.50
0.8575,0.1425	-11379.48
0.9105,0.0895	-11372.18
0.9387,0.0613	-11361.25
0.9546,0.0454	-11375.78
0.9322,0.0678	-11358.97
0.7542,0.2458	-11402.08
0.8837,0.1163	-11381.03
0.9196,0.0804	-11376.94
0.9492,0.0508	-11366.62
0.9586,0.0414	-11366.70
0.9290,0.0710	-11364.34
0.7409,0.2591	-11400.04
0.9002,0.0998	-11372.40
0.9201,0.0799	-11372.06
0.9561,0.0439	-11366.66
0.9511,0.0489	-11378.49
0.9222,0.0778	-11369.58
0.7008,0.2992	-11402.18
0.8819,0.1181	-11383.03
0.9366,0.0634	-11369.43
0.9546,0.0454	-11366.64
0.9495,0.0505	-11369.55
0.9442,0.0558	-11360.98
0.6738,0.3262	-11409.29
0.8754,0.1246	-11379.09
0.9278,0.0722	-11359.28
0.9389,0.0611	-11372.17
0.9533,0.0467	-11369.65
0.9572,0.0428	-11366.68
0.7193,0.2807	-11404.38
0.8879,0.1121	-11376.90
0.9267,0.0733	-11377.12
0.9410,0.0590	-11366.67
0.9598,0.0402	-11369.90
0.9529,0.0471	-11369.64
0.6890,0.3110	-11401.11
0.8728,0.1272	-11377.21
0.9369,0.0631	-11366.73
0.9403,0.0597	-11374.95
0.9586,0.0414	-11363.56
0.9571,0.0429	-11360.47
0.7076,0.2924	-11402.81
0.8706,0.1294	-11377.27
0.9499,0.0501	-11360.74
0.9301,0.0699	-11359.12
0.9618,0.0382	-11376.45
0.9612,0.0388	-11360.34
0.7090,0.2910	-11393.86
0.8721,0.1279	-11386.82
0.9521,0.0479	-11378.59
0.9420,0.0580	-11369.45
0.9545,0.0455	-11363.60
0.9539,0.0461	-11369.67
0.7227,0.2773	-11405.29
0.8238,0.1762	-11390.01
0.9485,0.0515	-11360.79
0.9493,0.0507	-11366.62
0.9570,0.0430	-11372.88
0.9470,0.0530	-11366.62
0.7224,0.2776	-11405.29
0.8355,0.1645	-11389.99
0.9561,0.0439	-11363.58
0.9484,0.0516	-11369.53
0.9470,0.0530	-11363.74
0.9548,0.0452	-11360.55
0.7413,0.2587	-11395.82
0.8438,0.1562	-11386.66
0.9543,0.0457	-11360.56
0.9456,0.0544	-11369.49
0.9178,0.0822	-11372.08
0.9628,0.0372	-11360.30
0.6836,0.3164	-11411.43
0.8524,0.1476	-11386.64
0.9505,0.0495	-11360.71
0.9438,0.0562	-11386.39
0.9120,0.0880	-11372.15
0.9611,0.0389	-11366.76
0.6821,0.3179	-11399.22
0.8646,0.1354	-11377.44
0.9575,0.0425	-11366.68
0.9338,0.0662	-11364.15
0.8880,0.1120	-11364.48
0.9634,0.0366	-11366.82
0.6992,0.3008	-11404.78
0.8552,0.1448	-11386.64
0.9574,0.0426	-11366.68
0.9187,0.0813	-11372.07
0.9124,0.0876	-11374.49
0.9500,0.0500	-11363.67
0.6933,0.3067	-11400.05
0.8353,0.1647	-11381.87
0.9514,0.0486	-11366.62
0.9226,0.0774	-11369.57
0.9347,0.0653	-11366.78
0.9515,0.0485	-11372.57
0.7509,0.2491	-11396.56
0.8609,0.1391	-11383.03
0.9616,0.0384	-11357.11
0.9416,0.0584	-11366.67
0.9530,0.0470	-11366.63
0.9560,0.0440	-11363.58
0.7533,0.2467	-11395.38
0.8624,0.1376	-11377.51
0.9588,0.0412	-11360.41
0.9372,0.0628	-11374.84
0.9472,0.0528	-11366.62
0.9559,0.0441	-11360.51
0.7858,0.2142	-11388.12
0.8796,0.1204	-11379.04
0.9600,0.0400	-11360.37
0.9344,0.0656	-11369.44
0.9250,0.0750	-11369.53
0.9637,0.0363	-11366.83
0.7587,0.2413	-11397.50
0.8886,0.1114	-11372.74
0.9608,0.0392	-11363.55
0.9418,0.0582	-11366.66
0.9270,0.0730	-11366.96
0.9707,0.0293	-11353.16
0.7630,0.2370	-11389.24
0.8995,0.1005	-11374.60
0.9621,0.0379	-11366.78
0.9400,0.0600	-11363.94
0.9210,0.0790	-11374.51
0.9763,0.0237	-11360.15
0.8100,0.1900	-11393.06
0.8686,0.1314	-11379.21
0.9595,0.0405	-11360.39
0.9242,0.0758	-11377.05
0.9467,0.0533	-11369.50
0.9761,0.0239	-11360.15
0.8172,0.1828	-11385.57
0.8974,0.1026	-11374.64
0.9634,0.0366	-11357.01
0.9220,0.0780	-11369.58
0.9486,0.0514	-11369.53
0.9756,0.0244	-11356.46
0.8104,0.1896	-11381.44
0.9003,0.0997	-11372.39
0.9664,0.0336	-11353.50
0.8928,0.1072	-11376.84
0.9463,0.0537	-11366.63
0.9728,0.0272	-11360.14
0.8155,0.1845	-11393.05
0.8818,0.1182	-11385.04
0.9648,0.0352	-11363.56
0.8796,0.1204	-11381.03
0.9238,0.0762	-11364.56
0.9740,0.0260	-11371.01
0.7745,0.2255	-11399.75
0.8685,0.1315	-11381.10
0.9654,0.0346	-11363.57
0.8750,0.1250	-11381.04
0.9270,0.0730	-11369.50
0.9745,0.0255	-11356.50
0.7953,0.2047	-11379.60
0.8763,0.1237	-11375.17
0.9626,0.0374	-11360.30
0.8729,0.1271	-11384.91
0.9211,0.0789	-11374.52
0.9741,0.0259	-11352.89
0.8066,0.1934	-11395.93
0.8859,0.1141	-11370.78
0.9491,0.0509	-11375.40
0.8667,0.1333	-11379.25
0.9222,0.0778	-11372.05
0.9748,0.0252	-11356.49
0.8276,0.1724	-11382.15
0.8469,0.1531	-11386.65
0.9521,0.0479	-11369.61
0.8792,0.1208	-11375.07
0.9114,0.0886	-11386.15
0.9749,0.0251	-11363.80
0.8348,0.1652	-11385.12
0.7877,0.2123	-11385.42
0.9573,0.0427	-11360.46
0.8626,0.1374	-11377.51
0.8895,0.1105	-11391.48
0.9751,0.0249	-11356.48
0.8353,0.1647	-11383.49
0.8386,0.1614	-11381.76
0.9557,0.0443	-11363.58
0.8662,0.1338	-11375.52
0.9033,0.0967	-11383.49
0.9753,0.0247	-11356.47
0.8086,0.1914	-11391.62
0.8358,0.1642	-11381.85
0.9482,0.0518	-11363.71
0.8542,0.1458	-11390.18
0.9296,0.0704	-11377.22
0.9770,0.0230	-11360.16
0.8005,0.1995	-11395.89
0.8310,0.1690	-11391.57
0.9541,0.0459	-11366.64
0.8613,0.1387	-11384.85
0.9217,0.0783	-11386.85
0.9797,0.0203	-11352.44
0.8152,0.1848	-11396.02
0.8531,0.1469	-11393.68
0.9627,0.0373	-11363.55
0.8811,0.1189	-11389.03
0.9187,0.0813	-11369.65
0.9794,0.0206	-11360.19
0.8289,0.1711	-11386.83
0.8655,0.1345	-11384.86
0.9619,0.0381	-11357.09
0.9022,0.0978	-11370.12
0.8994,0.1006	-11385.56
0.9821,0.0179	-11352.26
0.8772,0.1228	-11371.20
0.8731,0.1269	-11379.13
0.9702,0.0298	-11353.20
0.9101,0.0899	-11374.50
0.9028,0.0972	-11379.02
0.9857,0.0143	-11360.45
0.8658,0.1342	-11386.73
0.8670,0.1330	-11379.24
0.9717,0.0283	-11363.69
0.9078,0.0922	-11365.36
0.8922,0.1078	-11378.96
0.9872,0.0128	-11351.86
0.8720,0.1280	-11386.82
0.8682,0.1318	-11382.99
0.9666,0.0334	-11360.22
0.9015,0.0985	-11374.58
0.9021,0.0979	-11379.01
0.9886,0.0114	-11356.22
0.8520,0.1480	-11376.14
0.8783,0.1217	-11381.03
0.9639,0.0361	-11360.27
0.8955,0.1045	-11381.12
0.9179,0.0821	-11372.08
0.9895,0.0105	-11356.23
0.8584,0.1416	-11379.45
0.8627,0.1373	-11381.18
0.9569,0.0431	-11357.37
0.8843,0.1157	-11374.92
0.9018,0.0982	-11379.01
0.9913,0.0087	-11356.29
0.8702,0.1298	-11382.99
0.8115,0.1885	-11393.05
0.9597,0.0403	-11373.07
0.8785,0.1215	-11383.01
0.8853,0.1147	-11378.99
0.9927,0.0073	-11351.44
0.8997,0.1003	-11374.60
0.7939,0.2061	-11387.79
0.9604,0.0396	-11360.36
0.8644,0.1356	-11388.56
0.8796,0.1204	-11377.05
0.9919,0.0081	-11361.12
0.8970,0.1030	-11372.48
0.7823,0.2177	-11387.00
0.9624,0.0376	-11363.55
0.8648,0.1352	-11375.58
0.8944,0.1056	-11372.55
0.9915,0.0085	-11351.53
0.8946,0.1054	-11374.69
0.7635,0.2365	-11386.87
0.9598,0.0402	-11360.38
0.8838,0.1162	-11376.97
0.8847,0.1153	-11378.99
0.9923,0.0077	-11351.48
0.9130,0.0870	-11365.09
0.7503,0.2497	-11393.28
0.9488,0.0512	-11366.62
0.9012,0.0988	-11372.37
0.8863,0.1137	-11393.35
0.9933,0.0067	-11351.40
0.9122,0.0878	-11372.15
0.7887,0.2113	-11384.05
0.9374,0.0626	-11369.43
0.9006,0.0994	-11372.39
0.8920,0.1080	-11372.63
0.9927,0.0073	-11351.44
0.9240,0.0760	-11369.55
0.7984,0.2016	-11398.64
0.9377,0.0623	-11364.01
0.8977,0.1023	-11370.29
0.8898,0.1102	-11374.79
0.9931,0.0069	-11351.41
0.9272,0.0728	-11382.22
0.8391,0.1609	-11391.65
0.9236,0.0764	-11372.05
0.9127,0.0873	-11379.18
0.8747,0.1253	-11386.88
0.9908,0.0092	-11351.59
0.9280,0.0720	-11374.60
0.8312,0.1688	-11383.60
0.9029,0.0971	-11376.79
0.9228,0.0772	-11369.57
0.8760,0.1240	-11381.04
0.9888,0.0112	-11356.22
0.9256,0.0744	-11369.52
0.8540,0.1460	-11381.34
0.8994,0.1006	-11372.41
0.9218,0.0782	-11372.05
0.9017,0.0983	-11370.14
0.9913,0.0087	-11356.29
0.9410,0.0590	-11372.21
0.8710,0.1290	-11377.26
0.8893,0.1107	-11372.72
0.9136,0.0864	-11369.77
0.9116,0.0884	-11369.83
0.9905,0.0095	-11351.61
0.9469,0.0531	-11369.50
0.8674,0.1326	-11377.36
0.8983,0.1017	-11365.91
0.9030,0.0970	-11376.79
0.9184,0.0816	-11367.24
0.9908,0.0092	-11356.27
0.9316,0.0684	-11366.84
0.8723,0.1277	-11379.14
0.9138,0.0862	-11372.13
0.9072,0.0928	-11381.36
0.9015,0.0985	-11372.36
0.9890,0.0110	-11351.73
0.9365,0.0635	-11366.74
0.8702,0.1298	-11381.08
0.9017,0.0983	-11376.79
0.8966,0.1034	-11374.65
0.8937,0.1063	-11381.09
0.9877,0.0123	-11356.21
0.9401,0.0599	-11358.42
0.8441,0.1559	-11383.28
0.9032,0.0968	-11379.02
0.8661,0.1339	-11388.60
0.8539,0.1461	-11383.11
0.9888,0.0112	-11360.70
0.9373,0.0627	-11364.02
0.8868,0.1132	-11374.86
0.9038,0.0962	-11376.79
0.8583,0.1417	-11386.66
0.8508,0.1492	-11377.93
0.9902,0.0098	-11351.64
0.9430,0.0570	-11363.85
0.8856,0.1144	-11378.98
0.8971,0.1029	-11372.48
0.8646,0.1354	-11384.86
0.8472,0.1528	-11386.65
0.9884,0.0116	-11356.22
0.9464,0.0536	-11372.37
0.8787,0.1213	-11375.09
0.8724,0.1276	-11375.30
0.8705,0.1295	-11379.18
0.8155,0.1845	-11393.05
0.9869,0.0131	-11356.21
0.9382,0.0618	-11372.15
0.8739,0.1261	-11377.18
0.8986,0.1014	-11372.44
0.8606,0.1394	-11384.85
0.8408,0.1592	-11378.36
0.9878,0.0122	-11351.82
0.9413,0.0587	-11369.44
0.8948,0.1052	-11385.39
0.8865,0.1135	-11372.81
0.8232,0.1768	-11382.32
0.8275,0.1725	-11396.26
0.9915,0.0085	-11351.53
0.9298,0.0702	-11359.14
0.8976,0.1024	-11368.12
0.8771,0.1229	-11384.96
0.8107,0.1893	-11385.78
0.8178,0.1822	-11382.55
0.9914,0.0086	-11351.54
0.9287,0.0713	-11372.05
0.9081,0.0919	-11369.93
0.8402,0.1598	-11390.01
0.8127,0.1873	-11384.25
0.8373,0.1627	-11388.35
0.9905,0.0095	-11351.61
0.9168,0.0832	-11374.49
0.9050,0.0950	-11379.04
0.8288,0.1712	-11388.41
0.8220,0.1780	-11393.08
0.8404,0.1596	-11380.04
0.9916,0.0084	-11356.30
0.9141,0.0859	-11376.85
0.9021,0.0979	-11376.79
0.8579,0.1421	-11384.86
0.8478,0.1522	-11381.49
0.8639,0.1361	-11381.16
0.9898,0.0102	-11351.66
0.9231,0.0769	-11379.50
0.9022,0.0978	-11367.90
0.8525,0.1475	-11381.38
0.8175,0.1825	-11385.56
0.8896,0.1104	-11372.70
0.9909,0.0091	-11356.27
0.9143,0.0857	-11369.75
0.9001,0.0999	-11370.20
0.8706,0.1294	-11371.55
0.8343,0.1657	-11380.28
0.8814,0.1186	-11379.02
0.9888,0.0112	-11356.22
0.9068,0.0932	-11369.97
0.9001,0.0999	-11376.79
0.8982,0.1018	-11365.92
0.8652,0.1348	-11384.86
0.8904,0.1096	-11374.77
0.9869,0.0131	-11351.89
0.9168,0.0832	-11376.89
0.8893,0.1107	-11381.05
0.8906,0.1094	-11370.58
0.8623,0.1377	-11384.85
0.8978,0.1022	-11385.50
0.9864,0.0136	-11356.21
0.9276,0.0724	-11366.95
0.8925,0.1075	-11381.08
0.8799,0.1201	-11383.02
0.8577,0.1423	-11383.06
0.9128,0.0872	-11372.14
0.9859,0.0141	-11351.96
0.9265,0.0735	-11366.98
0.8764,0.1236	-11377.12
0.9043,0.0957	-11372.30
0.8553,0.1447	-11379.54
0.8951,0.1049	-11393.97
0.9827,0.0173	-11356.25
0.9283,0.0717	-11372.05
0.8526,0.1474	-11384.88
0.9112,0.0888	-11367.51
0.8577,0.1423	-11374.08
0.8955,0.1045	-11368.23
0.9824,0.0176	-11352.23
0.9240,0.0760	-11369.55
0.8571,0.1429	-11395.61
0.9152,0.0848	-11367.35
0.8782,0.1218	-11377.08
0.9116,0.0884	-11372.16
0.9839,0.0161	-11356.23
0.9390,0.0610	-11363.97
0.8677,0.1323	-11381.11
0.9344,0.0656	-11372.10
0.8666,0.1334	-11381.12
0.9102,0.0898	-11379.13
0.9823,0.0177	-11352.24
0.9417,0.0583	-11363.88
0.8426,0.1574	-11383.31
0.9372,0.0628	-11377.54
0.8564,0.1436	-11383.08
0.8951,0.1049	-11372.53
0.9862,0.0138	-11356.21
0.9222,0.0778	-11362.16
0.8372,0.1628	-11386.72
0.9196,0.0804	-11369.63
0.8209,0.1791	-11380.89
0.8824,0.1176	-11374.98
0.9866,0.0134	-11351.91
0.9228,0.0772	-11367.09
0.8622,0.1378	-11383.02
0.9090,0.0910	-11381.41
0.8293,0.1707	-11383.66
0.8963,0.1037	-11381.13
0.9862,0.0138	-11351.95
0.9135,0.0865	-11367.42
0.8336,0.1664	-11385.15
0.9139,0.0861	-11374.49
0.8250,0.1750	-11379.14
0.8791,0.1209	-11375.08
0.9894,0.0106	-11351.70
0.9274,0.0726	-11372.05
0.8450,0.1550	-11390.05
0.9196,0.0804	-11364.75
0.8178,0.1822	-11384.05
0.8988,0.1012	-11381.17
0.9899,0.0101	-11356.24
0.9273,0.0727	-11382.23
0.8273,0.1727	-11385.29
0.9343,0.0657	-11358.82
0.8106,0.1894	-11387.24
0.8950,0.1050	-11376.82
0.9908,0.0092	-11365.64
0.9384,0.0616	-11363.99
0.8297,0.1703	-11389.98
0.9307,0.0693	-11364.27
0.8502,0.1498	-11391.85
0.9117,0.0883	-11381.50
0.9909,0.0091	-11351.58
0.9386,0.0614	-11369.43
0.8160,0.1840	-11394.54
0.9225,0.0775	-11367.10
0.8370,0.1630	-11376.90
0.9154,0.0846	-11369.73
0.9894,0.0106	-11351.70
0.9433,0.0567	-11369.46
0.8442,0.1558	-11379.90
0.9132,0.0868	-11379.20
0.8443,0.1557	-11391.73
0.9262,0.0738	-11374.57
0.9886,0.0114	-11356.22
0.9453,0.0547	-11366.63
0.8673,0.1327	-11386.75
0.9270,0.0730	-11369.50
0.8390,0.1610	-11373.49
0.9185,0.0815	-11367.23
0.9892,0.0108	-11360.75
0.9494,0.0506	-11360.75
0.8804,0.1196	-11391.01
0.9148,0.0852	-11367.37
0.8281,0.1719	-11383.70
0.9172,0.0828	-11364.87
0.9885,0.0115	-11351.77
0.9343,0.0657	-11366.78
0.8744,0.1256	-11373.28
0.9141,0.0859	-11365.03
0.8519,0.1481	-11386.64
0.9115,0.0885	-11367.50
0.9870,0.0130	-11356.21
0.9320,0.0680	-11372.07
0.8547,0.1453	-11388.42
0.9148,0.0852	-11374.49
0.8644,0.1356	-11386.71
0.9318,0.0682	-11369.45
0.9883,0.0117	-11356.22
0.9327,0.0673	-11374.70
0.8208,0.1792	-11377.86
0.9037,0.0963	-11374.55
0.8369,0.1631	-11393.26
0.9380,0.0620	-11366.72
0.9904,0.0096	-11356.26
0.9309,0.0691	-11377.26
0.8119,0.1881	-11387.21
0.9288,0.0712	-11364.35
0.8305,0.1695	-11386.80
0.9403,0.0597	-11377.71
0.9873,0.0127	-11351.86
0.8983,0.1017	-11370.27
0.7993,0.2007	-11394.51
0.9115,0.0885	-11369.83
0.8214,0.1786	-11386.97
0.9474,0.0526	-11366.62
0.9865,0.0135	-11356.21
0.8879,0.1121	-11376.90
0.8448,0.1552	-11384.96
0.9031,0.0969	-11379.02
0.8032,0.1968	-11395.90
0.9492,0.0508	-11366.62
0.9848,0.0152	-11352.05
0.8818,0.1182	-11375.00
0.8556,0.1444	-11384.87
0.8905,0.1095	-11374.77
0.7801,0.2199	-11387.11
0.9548,0.0452	-11375.79
0.9838,0.0162	-11364.45
0.8684,0.1316	-11379.22
0.8386,0.1614	-11383.41
0.8870,0.1130	-11376.92
0.7694,0.2306	-11390.10
0.9619,0.0381	-11363.55
0.9821,0.0179	-11352.26
0.8598,0.1402	-11384.85
0.8344,0.1656	-11386.75
0.8946,0.1054	-11366.13
0.8056,0.1944	-11385.97
0.9615,0.0385	-11363.55
0.9773,0.0227	-11360.16
0.8656,0.1344	-11381.14
0.8324,0.1676	-11378.76
0.9205,0.0795	-11376.96
0.7529,0.2471	-11393.16
0.9609,0.0391	-11363.55
0.9818,0.0182	-11364.25
0.8749,0.1251	-11381.05
0.8162,0.1838	-11397.53
0.9044,0.0956	-11372.30
0.7634,0.2366	-11399.76
0.9579,0.0421	-11363.56
0.9837,0.0163	-11352.13
0.8998,0.1002	-11368.01
0.8061,0.1939	-11393.07
0.9160,0.0840	-11384.05
0.7498,0.2502	-11397.69
0.9603,0.0397	-11360.37
0.9859,0.0141	-11356.21
0.9217,0.0783	-11362.19
0.8000,0.2000	-11402.82
0.9261,0.0739	-11379.63
0.7585,0.2415	-11405.51
0.9548,0.0452	-11360.55
0.9872,0.0128	-11351.86
0.9190,0.0810	-11372.07
0.8217,0.1783	-11393.08
0.9037,0.0963	-11370.07
0.7272,0.2728	-11396.44
0.9579,0.0421	-11372.94
0.9832,0.0168	-11364.38
0.9251,0.0749	-11379.59
0.7983,0.2017	-11391.76
0.8975,0.1025	-11378.98
0.7365,0.2635	-11399.10
0.9505,0.0495	-11360.71
0.9842,0.0158	-11368.63
0.9292,0.0708	-11364.33
0.8037,0.1963	-11388.86
0.8982,0.1018	-11374.62
0.7537,0.2463	-11390.89
0.9488,0.0512	-11369.54
0.9814,0.0186	-11360.25
0.9331,0.0669	-11369.45
0.7728,0.2272	-11398.52
0.9029,0.0971	-11376.79
0.7883,0.2117	-11389.33
0.9579,0.0421	-11360.44
0.9806,0.0194	-11352.38
0.9532,0.0468	-11363.62
0.7756,0.2244	-11389.83
0.9154,0.0846	-11374.49
0.7585,0.2415	-11398.65
0.9601,0.0399	-11360.37
0.9848,0.0152	-11352.05
0.9529,0.0471	-11366.63
0.7565,0.2435	-11397.54
0.9192,0.0808	-11364.78
0.7841,0.2159	-11388.19
0.9616,0.0384	-11363.55
0.9870,0.0130	-11373.53
0.9632,0.0368	-11363.55
0.7885,0.2115	-11382.75
0.9254,0.0746	-11377.08
0.8162,0.1838	-11381.13
0.9582,0.0418	-11369.82
0.9889,0.0111	-11351.73
0.9682,0.0318	-11360.19
0.8246,0.1754	-11391.55
0.9291,0.0709	-11361.76
0.8322,0.1678	-11383.58
0.9566,0.0434	-11372.85
0.9887,0.0113	-11351.75
0.9664,0.0336	-11366.94
0.8686,0.1314	-11381.10
0.9169,0.0831	-11372.09
0.8337,0.1663	-11386.76
0.9623,0.0377	-11366.79
0.9901,0.0099	-11356.25
0.9669,0.0331	-11366.96
0.8784,0.1216	-11373.12
0.9145,0.0855	-11369.75
0.8192,0.1808	-11382.49
0.9565,0.0435	-11369.76
0.9876,0.0124	-11351.83
0.9610,0.0390	-11366.75
0.8875,0.1125	-11366.58
0.9160,0.0840	-11376.88
0.8367,0.1633	-11386.72
0.9487,0.0513	-11372.45
0.9874,0.0126	-11356.21
0.9654,0.0346	-11360.24
0.8852,0.1148	-11368.77
0.9175,0.0825	-11376.90
0.8397,0.1603	-11388.35
0.9477,0.0523	-11360.83
0.9885,0.0115	-11351.77
0.9627,0.0373	-11357.05
0.9049,0.0951	-11381.30
0.9120,0.0880	-11379.17
0.8396,0.1604	-11381.73
0.9521,0.0479	-11360.65
0.9870,0.0130	-11364.88
0.9617,0.0383	-11360.33
0.9204,0.0796	-11374.51
0.9072,0.0928	-11376.80
0.8145,0.1855	-11385.66
0.9572,0.0428	-11363.57
0.9872,0.0128	-11356.21
0.9532,0.0468	-11360.60
0.9249,0.0751	-11379.58
0.9083,0.0917	-11376.80
0.7980,0.2020	-11391.76
0.9619,0.0381	-11363.55
0.9876,0.0124	-11360.59
0.9626,0.0374	-11360.30
0.9109,0.0891	-11379.15
0.9128,0.0872	-11367.45
0.8112,0.1888	-11391.60
0.9660,0.0340	-11363.57
0.9852,0.0148	-11356.22
0.9675,0.0325	-11366.99
0.9050,0.0950	-11374.54
0.8987,0.1013	-11381.17
0.8338,0.1662	-11389.98
0.9730,0.0270	-11356.56
0.9882,0.0118	-11365.07
0.9679,0.0321	-11360.19
0.8830,0.1170	-11389.11
0.8832,0.1168	-11370.91
0.8382,0.1618	-11383.42
0.9740,0.0260	-11363.76
0.9892,0.0108	-11356.23
0.9707,0.0293	-11356.66
0.8857,0.1143	-11374.89
0.8885,0.1115	-11374.82
0.8013,0.1987	-11390.32
0.9817,0.0183	-11356.27
0.9886,0.0114	-11360.68
0.9732,0.0268	-11360.14
0.8829,0.1171	-11387.08
0.9141,0.0859	-11374.49
0.7793,0.2207	-11394.72
0.9829,0.0171	-11360.30
0.9882,0.0118	-11356.22
0.9738,0.0262	-11360.14
0.8522,0.1478	-11390.14
0.9002,0.0998	-11370.20
0.7836,0.2164	-11393.36
0.9819,0.0181	-11352.28
0.9854,0.0146	-11356.22
0.9804,0.0196	-11364.13
0.8575,0.1425	-11384.86
0.8963,0.1037	-11391.91
0.8070,0.1930	-11384.49
0.9815,0.0185	-11352.31
0.9841,0.0159	-11360.36
0.9819,0.0181	-11356.27
0.8503,0.1497	-11384.90
0.8712,0.1288	-11373.43
0.8406,0.1594	-11378.37
0.9775,0.0225	-11352.62
0.9886,0.0114	-11356.22
0.9849,0.0151	-11352.04
0.8455,0.1545	-11381.55
0.9002,0.0998	-11378.99
0.8321,0.1679	-11389.98
0.9778,0.0222	-11363.95
0.9899,0.0101	-11351.66
0.9803,0.0197	-11356.31
0.8778,0.1222	-11379.06
0.8974,0.1026	-11376.81
0.8350,0.1650	-11391.61
0.9765,0.0235	-11356.43
0.9914,0.0086	-11356.29
0.9789,0.0211	-11356.35
0.8689,0.1311	-11384.88
0.8978,0.1022	-11368.11
0.8402,0.1598	-11378.39
0.9782,0.0218	-11352.56
0.9924,0.0076	-11351.47
0.9780,0.0220	-11360.17
0.8970,0.1030	-11383.30
0.8886,0.1114	-11372.74
0.8468,0.1532	-11376.39
0.9778,0.0222	-11352.59
0.9927,0.0073	-11351.45
0.9762,0.0238	-11356.44
0.8866,0.1134	-11376.92
0.9008,0.0992	-11387.82
0.8223,0.1777	-11379.29
0.9814,0.0186	-11352.32
0.9926,0.0074	-11351.45
0.9685,0.0315	-11363.61
0.8790,0.1210	-11371.11
0.9163,0.0837	-11372.10
0.8262,0.1738	-11388.43
0.9817,0.0183	-11360.26
0.9930,0.0070	-11351.42
0.9707,0.0293	-11363.66
0.8868,0.1132	-11387.21
0.9311,0.0689	-11369.46
0.8488,0.1512	-11381.47
0.9866,0.0134	-11356.21
0.9938,0.0062	-11351.36
0.9717,0.0283	-11353.08
0.8971,0.1029	-11370.31
0.9350,0.0650	-11374.77
0.8561,0.1439	-11377.73
0.9852,0.0148	-11356.22
0.9921,0.0079	-11356.32
0.9563,0.0437	-11357.41
0.8718,0.1282	-11381.07
0.9405,0.0595	-11361.16
0.8557,0.1443	-11381.31
0.9877,0.0123	-11351.83
0.9905,0.0095	-11360.90
0.9625,0.0375	-11366.80
0.9015,0.0985	-11361.29
0.9464,0.0536	-11363.75
0.8518,0.1482	-11376.15
0.9862,0.0138	-11351.94
0.9910,0.0090	-11351.57
0.9613,0.0387	-11366.76
0.8962,0.1038	-11374.66
0.9499,0.0501	-11360.73
0.8488,0.1512	-11386.64
0.9896,0.0104	-11356.24
0.9891,0.0109	-11356.23
0.9624,0.0376	-11366.79
0.8630,0.1370	-11379.33
0.9456,0.0544	-11358.06
0.8500,0.1500	-11397.05
0.9864,0.0136	-11351.93
0.9889,0.0111	-11356.22
0.9597,0.0403	-11360.39
0.8683,0.1317	-11379.22
0.9574,0.0426	-11369.79
0.8626,0.1374	-11381.18
0.9879,0.0121	-11356.21
0.9885,0.0115	-11356.22
0.9617,0.0383	-11357.11
0.8984,0.1016	-11374.62
0.9449,0.0551	-11360.95
0.8020,0.1980	-11391.70
0.9899,0.0101	-11356.24
0.9860,0.0140	-11351.96
0.9615,0.0385	-11369.98
0.9235,0.0765	-11377.03
0.9404,0.0596	-11372.20
0.7843,0.2157	-11398.51
0.9910,0.0090	-11351.57
0.9818,0.0182	-11356.27
0.9557,0.0443	-11366.66
0.9316,0.0684	-11374.68
0.9630,0.0370	-11366.81
0.7927,0.2073	-11391.87
0.9918,0.0082	-11351.51
0.9832,0.0168	-11364.38
0.9483,0.0517	-11366.62
0.9464,0.0536	-11366.63
0.9667,0.0333	-11356.85
0.8468,0.1532	-11386.65
0.9913,0.0087	-11351.55
0.9796,0.0204	-11360.20
0.9562,0.0438	-11360.49
0.9516,0.0484	-11360.66
0.9731,0.0269	-11356.56
0.8531,0.1469	-11383.12
0.9903,0.0097	-11356.25
0.9800,0.0200	-11360.21
0.9570,0.0430	-11360.47
0.9518,0.0482	-11363.64
0.9714,0.0286	-11353.10
0.8650,0.1350	-11381.15
0.9908,0.0092	-11356.27
0.9794,0.0206	-11356.33
0.9566,0.0434	-11357.39
0.9491,0.0509	-11360.77
0.9725,0.0275	-11360.15
0.8785,0.1215	-11377.07
0.9876,0.0124	-11364.97
0.9821,0.0179	-11364.27
0.9593,0.0407	-11363.56
0.9489,0.0511	-11369.54
0.9776,0.0224	-11360.16
0.8742,0.1258	-11379.11
0.9870,0.0130	-11356.21
0.9786,0.0214	-11360.18
0.9578,0.0422	-11360.44
0.9396,0.0604	-11361.20
0.9666,0.0334	-11363.58
0.8558,0.1442	-11384.87
0.9858,0.0142	-11351.97
0.9778,0.0222	-11356.38
0.9614,0.0386	-11360.33
0.9366,0.0634	-11372.13
0.9694,0.0306	-11353.26
0.8497,0.1503	-11383.18
0.9845,0.0155	-11360.38
0.9773,0.0227	-11356.40
0.9629,0.0371	-11353.78
0.9338,0.0662	-11364.15
0.9672,0.0328	-11363.59
0.8518,0.1482	-11376.15
0.9871,0.0129	-11356.21
0.9725,0.0275	-11363.71
0.9681,0.0319	-11367.02
0.9416,0.0584	-11369.45
0.9694,0.0306	-11356.72
0.8389,0.1611	-11385.05
0.9845,0.0155	-11356.22
0.9732,0.0268	-11356.55
0.9747,0.0253	-11360.14
0.9356,0.0644	-11366.76
0.9747,0.0253	-11356.49
0.8151,0.1849	-11388.60
0.9830,0.0170	-11364.36
0.9713,0.0287	-11360.15
0.9679,0.0321	-11363.60
0.9355,0.0645	-11377.46
0.9743,0.0257	-11352.87
0.8367,0.1633	-11393.26
0.9835,0.0165	-11352.15
0.9688,0.0312	-11370.48
0.9710,0.0290	-11360.16
0.9473,0.0527	-11357.95
0.9698,0.0302	-11370.58
0.8400,0.1600	-11386.69
0.9844,0.0156	-11352.08
0.9727,0.0273	-11360.14
0.9637,0.0363	-11360.28
0.9231,0.0769	-11369.56
0.9746,0.0254	-11356.49
0.8457,0.1543	-11376.44
0.9851,0.0149	-11364.60
0.9753,0.0247	-11356.47
0.9690,0.0310	-11360.18
0.9341,0.0659	-11369.44
0.9737,0.0263	-11356.53
0.8846,0.1154	-11389.18
0.9857,0.0143	-11356.21
0.9703,0.0297	-11356.68
0.9684,0.0316	-11367.03
0.9309,0.0691	-11369.46
0.9769,0.0231	-11360.16
0.8742,0.1258	-11381.05
0.9835,0.0165	-11356.24
0.9679,0.0321	-11360.19
0.9750,0.0250	-11360.14
0.9333,0.0667	-11369.44
0.9684,0.0316	-11356.77
0.8759,0.1241	-11386.90
0.9839,0.0161	-11356.23
0.9637,0.0363	-11357.00
0.9710,0.0290	-11363.67
0.9328,0.0672	-11374.71
0.9532,0.0468	-11372.66
0.8639,0.1361	-11381.16
0.9844,0.0156	-11360.37
0.9663,0.0337	-11360.22
0.9726,0.0274	-11363.71
0.9157,0.0843	-11374.49
0.9604,0.0396	-11366.74
0.8606,0.1394	-11386.67
0.9828,0.0172	-11356.25
0.9743,0.0257	-11367.42
0.9667,0.0333	-11360.21
0.8932,0.1068	-11370.47
0.9689,0.0311	-11367.06
0.8270,0.1730	-11385.30
0.9788,0.0212	-11356.35
0.9754,0.0246	-11367.51
0.9605,0.0395	-11357.17
0.8931,0.1069	-11383.21
0.9678,0.0322	-11356.79
0.8149,0.1851	-11387.13
0.9806,0.0194	-11360.22
0.9720,0.0280	-11353.06
0.9548,0.0452	-11366.65
0.8928,0.1072	-11378.96
0.9729,0.0271	-11356.56
0.7735,0.2265	-11392.37
0.9783,0.0217	-11360.17
0.9737,0.0263	-11367.37
0.9481,0.0519	-11360.81
0.8865,0.1135	-11374.87
0.9758,0.0242	-11360.15
0.7413,0.2587	-11394.77
0.9735,0.0265	-11367.35
0.9733,0.0267	-11363.74
0.9389,0.0611	-11361.24
0.8630,0.1370	-11383.01
0.9776,0.0224	-11360.16
0.7259,0.2741	-11400.40
0.9738,0.0262	-11363.76
0.9772,0.0228	-11360.16
0.9380,0.0620	-11374.87
0.8890,0.1110	-11383.13
0.9680,0.0320	-11370.42
0.7370,0.2630	-11399.09
0.9665,0.0335	-11366.94
0.9713,0.0287	-11367.19
0.9509,0.0491	-11372.55
0.8622,0.1378	-11384.85
0.9548,0.0452	-11375.80
0.7581,0.2419	-11394.08
0.9585,0.0415	-11372.98
0.9701,0.0299	-11356.68
0.9564,0.0436	-11357.40
0.8236,0.1764	-11390.01
0.9431,0.0569	-11372.27
0.7408,0.2592	-11402.14
0.9651,0.0349	-11363.57
0.9762,0.0238	-11356.44
0.9520,0.0480	-11369.61
0.7904,0.2096	-11383.95
0.9463,0.0537	-11366.63
0.7783,0.2217	-11388.46
0.9627,0.0373	-11357.05
0.9793,0.0207	-11364.05
0.9456,0.0544	-11366.63
0.8435,0.1565	-11393.40
0.9445,0.0555	-11360.97
0.7955,0.2045	-11386.38
0.9593,0.0407	-11360.40
0.9812,0.0188	-11352.33
0.9475,0.0525	-11369.51
0.8536,0.1464	-11379.59
0.9420,0.0580	-11369.45
0.7978,0.2022	-11394.51
0.9585,0.0415	-11363.56
0.9805,0.0195	-11364.14
0.9486,0.0514	-11372.45
0.8874,0.1126	-11381.04
0.9415,0.0585	-11366.67
0.7989,0.2011	-11384.85
0.9510,0.0490	-11366.62
0.9799,0.0201	-11356.32
0.9480,0.0520	-11360.81
0.8996,0.1004	-11383.37
0.9300,0.0700	-11377.23
0.8276,0.1724	-11380.58
0.9492,0.0508	-11360.76
0.9807,0.0193	-11360.22
0.9540,0.0460	-11372.70
0.9028,0.0972	-11374.56
0.9230,0.0770	-11372.05
0.8367,0.1633	-11386.72
0.9431,0.0569	-11361.03
0.9811,0.0189	-11360.24
0.9471,0.0529	-11369.51
0.8993,0.1007	-11376.80
0.9302,0.0698	-11372.06
0.8371,0.1629	-11391.63
0.9339,0.0661	-11358.85
0.9754,0.0246	-11352.79
0.9513,0.0487	-11363.65
0.9136,0.0864	-11367.41
0.9395,0.0605	-11363.95
0.7878,0.2122	-11395.91
0.9289,0.0711	-11369.48
0.9745,0.0255	-11360.14
0.9286,0.0714	-11369.48
0.9180,0.0820	-11369.67
0.9396,0.0604	-11369.44
0.8286,0.1714	-11383.68
0.9311,0.0689	-11377.27
0.9702,0.0298	-11356.68
0.9223,0.0777	-11362.15
0.9386,0.0614	-11361.25
0.9355,0.0645	-11372.11
0.8380,0.1620	-11375.20
0.9281,0.0719	-11382.28
0.9666,0.0334	-11356.85
0.9149,0.0851	-11369.74
0.9499,0.0501	-11363.68
0.9146,0.0854	-11374.49
0.8543,0.1457	-11393.72
0.9079,0.0921	-11383.67
0.9681,0.0319	-11360.19
0.9282,0.0718	-11377.17
0.9554,0.0446	-11363.59
0.9207,0.0793	-11367.16
0.8377,0.1623	-11381.79
0.8981,0.1019	-11376.80
0.9700,0.0300	-11353.21
0.9100,0.0900	-11379.13
0.9512,0.0488	-11366.62
0.9093,0.0907	-11369.89
0.8263,0.1737	-11391.55
0.9023,0.0977	-11385.68
0.9765,0.0235	-11360.15
0.9006,0.0994	-11367.98
0.9490,0.0510	-11363.69
0.9194,0.0806	-11369.63
0.8253,0.1747	-11391.55
0.8893,0.1107	-11389.39
0.9730,0.0270	-11356.56
0.8759,0.1241	-11375.18
0.9521,0.0479	-11360.65
0.8906,0.1094	-11378.96
0.8180,0.1820	-11390.05
0.8867,0.1133	-11372.81
0.9752,0.0248	-11360.14
0.8784,0.1216	-11379.05
0.9476,0.0524	-11366.62
0.8824,0.1176	-11387.07
0.8528,0.1472	-11383.13
0.8642,0.1358	-11373.75
0.9720,0.0280	-11353.06
0.9034,0.0966	-11374.55
0.9320,0.0680	-11369.45
0.9077,0.0923	-11376.80
0.8579,0.1421	-11375.87
0.8419,0.1581	-11379.98
0.9656,0.0344	-11360.23
0.9027,0.0973	-11376.79
0.9475,0.0525	-11366.62
0.8956,0.1044	-11372.52
0.8669,0.1331	-11396.11
0.8151,0.1849	-11382.67
0.9705,0.0295	-11363.65
0.9013,0.0987	-11372.37
0.9527,0.0473	-11375.64
0.9025,0.0975	-11376.79
0.8769,0.1231	-11390.85
0.8265,0.1735	-11386.87
0.9685,0.0315	-11356.76
0.8967,0.1033	-11378.97
0.9472,0.0528	-11366.62
0.9133,0.0867	-11376.84
0.8686,0.1314	-11382.99
0.8342,0.1658	-11381.90
0.9536,0.0464	-11357.57
0.8713,0.1287	-11382.98
0.9547,0.0453	-11369.69
0.9103,0.0897	-11369.86
0.8862,0.1138	-11387.19
0.8477,0.1523	-11381.49
0.9450,0.0550	-11360.95
0.8512,0.1488	-11381.41
0.9522,0.0478	-11363.63
0.9128,0.0872	-11374.49
0.8702,0.1298	-11379.18
0.8834,0.1166	-11379.00
0.9500,0.0500	-11372.51
0.8648,0.1352	-11390.43
0.9455,0.0545	-11358.07
0.9224,0.0776	-11374.53
0.8853,0.1147	-11381.03
0.8657,0.1343	-11384.86
0.9595,0.0405	-11366.72
0.8763,0.1237	-11377.12
0.9479,0.0521	-11372.42
0.9400,0.0600	-11372.19
0.8999,0.1001	-11376.79
0.9008,0.0992	-11374.59
0.9601,0.0399	-11357.19
0.8788,0.1212	-11375.08
0.9454,0.0546	-11366.63
0.9498,0.0502	-11363.68
0.9001,0.0999	-11365.80
0.9093,0.0907	-11365.28
0.9612,0.0388	-11363.55
0.8606,0.1394	-11381.21
0.9376,0.0624	-11372.14
0.9431,0.0569	-11366.65
0.8908,0.1092	-11383.16
0.9045,0.0955	-11379.04
0.9667,0.0333	-11356.85
0.8896,0.1104	-11372.70
0.9305,0.0695	-11374.65
0.9468,0.0532	-11360.87
0.9001,0.0999	-11378.99
0.9052,0.0948	-11370.02
0.9688,0.0312	-11367.05
0.8827,0.1173	-11376.99
0.9353,0.0647	-11361.42
0.9482,0.0518	-11369.53
0.8865,0.1135	-11372.81
0.9298,0.0702	-11372.06
0.9709,0.0291	-11360.16
0.8624,0.1376	-11386.69
0.9233,0.0767	-11384.49
0.9666,0.0334	-11360.22
0.8833,0.1167	-11391.15
0.9327,0.0673	-11366.82
0.9646,0.0354	-11356.95
0.8624,0.1376	-11381.18
0.9339,0.0661	-11364.15
0.9703,0.0297	-11374.11
0.8998,0.1002	-11381.18
0.9260,0.0740	-11359.41
0.9692,0.0308	-11356.72
0.8967,0.1033	-11385.45
0.9265,0.0735	-11366.98
0.9741,0.0259	-11367.39
0.8912,0.1088	-11389.48
0.9308,0.0692	-11377.26
0.9715,0.0285	-11360.15
0.9105,0.0895	-11381.46
0.9349,0.0651	-11366.77
0.9708,0.0292	-11367.16
0.9027,0.0973	-11376.79
0.9275,0.0725	-11372.05
0.9804,0.0196	-11360.22
0.9193,0.0807	-11372.07
0.9384,0.0616	-11377.60
0.9733,0.0267	-11352.95
0.8947,0.1053	-11370.41
0.9334,0.0666	-11374.72
0.9796,0.0204	-11356.33
0.9130,0.0870	-11374.49
0.9197,0.0803	-11367.19
0.9707,0.0293	-11356.66
0.9024,0.0976	-11381.24
0.9182,0.0818	-11369.66
0.9779,0.0221	-11356.38
0.9155,0.0845	-11372.11
0.9283,0.0717	-11372.05
0.9642,0.0358	-11360.26
0.9044,0.0956	-11370.05
0.9190,0.0810	-11376.93
0.9767,0.0233	-11356.42
0.9179,0.0821	-11372.08
0.9438,0.0562	-11363.82
0.9550,0.0450	-11363.59
0.9162,0.0838	-11381.67
0.9308,0.0692	-11361.67
0.9770,0.0230	-11371.41
0.9307,0.0693	-11369.46
0.9493,0.0507	-11369.55
0.9469,0.0531	-11372.39
0.9225,0.0775	-11364.62
0.9185,0.0815	-11379.34
0.9754,0.0246	-11360.15
0.9244,0.0756	-11367.04
0.9377,0.0623	-11364.01
0.9407,0.0593	-11369.44
0.9163,0.0837	-11372.10
0.9079,0.0921	-11383.67
0.9689,0.0311	-11367.06
0.9247,0.0753	-11362.01
0.9299,0.0701	-11374.64
0.9435,0.0565	-11366.65
0.9191,0.0809	-11372.07
0.9026,0.0974	-11370.11
0.9561,0.0439	-11369.74
0.9164,0.0836	-11364.91
0.9357,0.0643	-11372.11
0.9541,0.0459	-11363.61
0.9083,0.0917	-11369.92
0.8949,0.1051	-11370.40
0.9658,0.0342	-11356.89
0.9114,0.0886	-11376.82
0.9362,0.0638	-11377.49
0.9534,0.0466	-11360.60
0.8817,0.1183	-11381.02
0.9245,0.0755	-11372.05
0.9657,0.0343	-11356.89
0.8811,0.1189	-11383.03
0.9220,0.0780	-11359.70
0.9577,0.0423	-11354.21
0.8709,0.1291	-11375.35
0.9223,0.0777	-11367.10
0.9634,0.0366	-11366.82
0.8951,0.1049	-11372.53
0.9180,0.0820	-11364.84
0.9564,0.0436	-11375.93
0.8827,0.1173	-11379.01
0.9285,0.0715	-11366.92
0.9583,0.0417	-11360.43
0.9134,0.0866	-11367.42
0.9171,0.0829	-11367.28
0.9613,0.0387	-11366.76
0.8866,0.1134	-11378.98
0.9499,0.0501	-11369.56
0.9652,0.0348	-11356.92
0.8948,0.1052	-11378.97
0.9148,0.0852	-11369.74
0.9597,0.0403	-11366.72
0.8937,0.1063	-11370.45
0.9445,0.0555	-11360.97
0.9702,0.0298	-11367.13
0.9082,0.0918	-11372.22
0.9181,0.0819	-11372.08
0.9583,0.0417	-11363.56
0.9177,0.0823	-11374.49
0.9418,0.0582	-11363.88
0.9591,0.0409	-11360.40
0.8838,0.1162	-11383.06
0.9200,0.0800	-11367.18
0.9641,0.0359	-11363.56
0.9185,0.0815	-11367.23
0.9380,0.0620	-11374.87
0.9556,0.0444	-11372.79
0.8781,0.1219	-11371.16
0.9147,0.0853	-11372.12
0.9526,0.0474	-11372.63
0.9263,0.0737	-11374.58
0.9440,0.0560	-11366.64
0.9527,0.0473	-11363.63
0.8722,0.1278	-11377.22
0.9124,0.0876	-11372.15
0.9590,0.0410	-11369.86
0.9273,0.0727	-11366.95
0.9473,0.0527	-11363.73
0.9537,0.0463	-11369.66
0.8611,0.1389	-11384.85
0.9268,0.0732	-11359.35
0.9519,0.0481	-11360.66
0.9163,0.0837	-11372.10
0.9416,0.0584	-11363.88
0.9566,0.0434	-11366.67
0.8415,0.1585	-11381.67
0.9141,0.0859	-11369.76
0.9452,0.0548	-11363.78
0.9129,0.0871	-11376.84
0.9480,0.0520	-11372.43
0.9254,0.0746	-11367.01
0.8582,0.1418	-11379.46
0.9375,0.0625	-11366.73
0.9433,0.0567	-11361.02
0.8873,0.1127	-11381.04
0.9451,0.0549	-11360.94
0.9153,0.0847	-11374.49
0.8236,0.1764	-11390.01
0.9234,0.0766	-11362.09
0.9537,0.0463	-11369.66
0.8817,0.1183	-11379.01
0.9425,0.0575	-11375.04
0.8951,0.1049	-11381.11
0.8096,0.1904	-11390.16
0.9076,0.0924	-11379.08
0.9467,0.0533	-11372.38
0.8528,0.1472	-11383.13
0.9399,0.0601	-11372.19
0.8957,0.1043	-11374.67
0.8186,0.1814	-11384.02
0.9059,0.0941	-11374.53
0.9463,0.0537	-11366.63
0.8869,0.1131	-11370.74
0.9495,0.0505	-11363.68
0.8953,0.1047	-11368.24
0.8432,0.1568	-11381.62
0.8642,0.1358	-11375.60
0.9360,0.0640	-11364.07
0.8876,0.1124	-11378.97
0.9597,0.0403	-11357.22
0.8921,0.1079	-11374.74
0.8394,0.1606	-11385.04
0.8493,0.1507	-11376.27
0.9395,0.0605	-11377.66
0.8838,0.1162	-11383.06
0.9501,0.0499	-11363.67
0.8958,0.1042	-11376.82
0.8236,0.1764	-11379.22
0.8670,0.1330	-11377.37
0.9368,0.0632	-11372.13
0.8776,0.1224	-11369.21
0.9338,0.0662	-11364.15
0.8933,0.1067	-11368.34
0.7983,0.2017	-11397.26
0.8556,0.1444	-11384.87
0.9341,0.0659	-11372.09
0.8537,0.1463	-11384.88
0.9385,0.0615	-11369.43
0.8745,0.1255	-11373.28
0.8244,0.1756	-11385.36
0.8646,0.1354	-11386.71
0.9528,0.0472	-11363.62
0.8501,0.1499	-11383.17
0.9315,0.0685	-11364.24
0.8919,0.1081	-11366.30
0.8272,0.1728	-11391.56
0.8777,0.1223	-11381.03
0.9636,0.0364	-11373.39
0.8137,0.1863	-11388.63
0.9361,0.0639	-11364.07
0.9012,0.0988	-11374.58
0.8242,0.1758	-11386.91
0.8786,0.1214	-11379.05
0.9565,0.0435	-11363.58
0.7721,0.2279	-11396.08
0.9184,0.0816	-11376.92
0.8769,0.1231	-11377.11
0.8447,0.1553	-11384.96
0.8669,0.1331	-11377.37
0.9610,0.0390	-11363.55
0.7402,0.2598	-11401.10
0.9164,0.0836	-11372.10
0.8789,0.1211	-11379.05
0.8627,0.1373	-11373.83
0.8758,0.1242	-11388.85
0.9552,0.0448	-11378.89
0.7130,0.2870	-11399.01
0.9119,0.0881	-11372.15
0.8767,0.1233	-11377.11
0.8878,0.1122	-11387.25
0.8633,0.1367	-11392.23
0.9502,0.0498	-11360.72
0.7391,0.2609	-11393.83
0.9057,0.0943	-11374.53
0.8745,0.1255	-11371.34
0.8975,0.1025	-11376.81
0.8324,0.1676	-11388.38
0.9459,0.0541	-11358.04
0.7480,0.2520	-11397.74
0.9127,0.0873	-11360.41
0.8768,0.1232	-11377.11
0.8884,0.1116	-11366.53
0.8432,0.1568	-11381.62
0.9381,0.0619	-11366.71
0.7803,0.2197	-11385.83
0.9269,0.0731	-11369.51
0.8908,0.1092	-11368.47
0.8888,0.1112	-11376.89
0.8609,0.1391	-11383.03
0.9541,0.0459	-11369.67
0.7864,0.2136	-11399.83
0.9125,0.0875	-11369.80
0.8806,0.1194	-11377.03
0.8978,0.1022	-11378.98
0.8546,0.1454	-11383.10
0.9580,0.0420	-11357.31
0.7869,0.2131	-11389.38
0.9140,0.0860	-11367.40
0.9087,0.0913	-11383.70
0.8994,0.1006	-11372.41
0.8514,0.1486	-11381.40
0.9547,0.0453	-11366.65
0.7895,0.2105	-11397.22
0.9178,0.0822	-11381.73
0.9064,0.0936	-11369.98
0.8846,0.1154	-11372.88
0.8641,0.1359	-11370.06
0.9593,0.0407	-11360.40
0.8011,0.1989	-11388.93
0.9240,0.0760	-11374.54
0.9132,0.0868	-11376.84
0.8800,0.1200	-11385.01
0.8643,0.1357	-11371.90
0.9518,0.0482	-11357.68
0.7869,0.2131	-11384.16
0.9149,0.0851	-11383.99
0.9048,0.0952	-11374.54
0.8989,0.1011	-11376.80
0.8376,0.1624	-11389.99
0.9577,0.0423	-11357.33
0.8158,0.1842	-11391.57
0.9405,0.0595	-11358.40
0.9037,0.0963	-11376.79
0.8988,0.1012	-11374.61
0.8721,0.1279	-11375.31
0.9564,0.0436	-11372.84
0.8153,0.1847	-11382.66
0.9427,0.0573	-11377.86
0.8946,0.1054	-11383.24
0.9021,0.0979	-11385.67
0.8986,0.1014	-11374.62
0.9579,0.0421	-11360.44
0.8077,0.1923	-11383.02
0.9415,0.0585	-11366.67
0.9000,0.1000	-11383.39
0.9063,0.0937	-11369.98
0.9090,0.0910	-11374.50
0.9484,0.0516	-11360.79
0.8049,0.1951	-11391.66
0.9375,0.0625	-11374.85
0.8769,0.1231	-11373.18
0.9079,0.0921	-11369.94
0.9297,0.0703	-11377.22
0.9556,0.0444	-11360.52
0.8163,0.1837	-11378.14
0.9517,0.0483	-11375.56
0.8722,0.1278	-11373.38
0.9291,0.0709	-11374.63
0.9255,0.0745	-11369.52
0.9519,0.0481	-11357.67
0.8067,0.1933	-11385.93
0.9592,0.0408	-11360.40
0.8723,0.1277	-11384.91
0.9371,0.0629	-11361.33
0.9195,0.0805	-11367.20
0.9516,0.0484	-11363.64
0.8056,0.1944	-11391.65
0.9645,0.0355	-11373.46
0.8629,0.1371	-11377.50
0.9230,0.0770	-11369.56
0.9224,0.0776	-11364.63
0.9531,0.0469	-11369.64
0.7772,0.2228	-11398.51
0.9638,0.0362	-11366.84
0.8599,0.1401	-11383.04
0.9294,0.0706	-11372.05
0.9182,0.0818	-11381.75
0.9597,0.0403	-11357.22
0.7792,0.2208	-11397.24
0.9682,0.0318	-11363.61
0.8667,0.1333	-11388.61
0.9254,0.0746	-11372.04
0.9095,0.0905	-11367.58
0.9615,0.0385	-11363.55
0.7594,0.2406	-11397.49
0.9667,0.0333	-11356.85
0.8630,0.1370	-11386.70
0.9110,0.0890	-11372.17
0.9027,0.0973	-11379.02
0.9526,0.0474	-11357.63
0.8190,0.1810	-11387.02
0.9713,0.0287	-11363.67
0.8596,0.1404	-11381.23
0.9234,0.0766	-11359.60
0.9108,0.0892	-11374.50
0.9531,0.0469	-11354.58
0.8320,0.1680	-11386.78
0.9734,0.0266	-11352.95
0.8370,0.1630	-11388.35
0.9138,0.0862	-11369.77
0.8928,0.1072	-11381.08
0.9526,0.0474	-11360.63
0.8293,0.1707	-11378.92
0.9727,0.0273	-11360.15
0.8714,0.1286	-11382.98
0.9260,0.0740	-11364.47
0.8958,0.1042	-11383.27
0.9551,0.0449	-11366.65
0.8516,0.1484	-11379.65
0.9712,0.0288	-11356.64
0.8682,0.1318	-11388.65
0.9437,0.0563	-11361.00
0.9226,0.0774	-11379.48
0.9552,0.0448	-11363.59
0.8467,0.1533	-11388.36
0.9730,0.0270	-11360.14
0.8676,0.1324	-11384.87
0.9504,0.0496	-11375.48
0.9287,0.0713	-11361.78
0.9515,0.0485	-11372.58
0.8294,0.1706	-11378.91
0.9726,0.0274	-11360.15
0.8585,0.1415	-11383.05
0.9488,0.0512	-11372.46
0.9231,0.0769	-11374.53
0.9483,0.0517	-11366.62
0.8365,0.1635	-11385.09
0.9735,0.0265	-11352.94
0.8454,0.1546	-11378.16
0.9497,0.0503	-11366.62
0.9239,0.0761	-11367.05
0.9580,0.0420	-11366.69
0.8523,0.1477	-11370.87
0.9774,0.0226	-11356.40
0.8353,0.1647	-11378.62
0.9400,0.0600	-11363.93
0.9265,0.0735	-11366.98
0.9524,0.0476	-11369.62
0.8700,0.1300	-11381.08
0.9795,0.0205	-11352.46
0.8292,0.1708	-11386.82
0.9355,0.0645	-11372.11
0.9334,0.0666	-11374.72
0.9400,0.0600	-11366.69
0.8674,0.1326	-11386.75
0.9779,0.0221	-11356.38
0.8085,0.1915	-11397.38
0.9260,0.0740	-11364.47
0.9273,0.0727	-11372.05
0.9366,0.0634	-11366.74
0.8844,0.1156	-11381.03
0.9783,0.0217	-11360.17
0.8085,0.1915	-11390.18
0.9443,0.0557	-11366.64
0.9333,0.0667	-11366.81
0.9185,0.0815	-11369.65
0.8864,0.1136	-11368.71
0.9716,0.0284	-11356.62
0.7979,0.2021	-11391.77
0.9317,0.0683	-11364.23
0.9513,0.0487	-11363.65
0.9176,0.0824	-11372.08
0.8894,0.1106	-11372.71
0.9701,0.0299	-11360.16
0.8135,0.1865	-11394.53
0.9323,0.0677	-11366.83
0.9529,0.0471	-11369.64
0.9023,0.0977	-11372.34
0.9006,0.0994	-11367.98
0.9733,0.0267	-11356.55
0.8083,0.1917	-11380.11
0.9072,0.0928	-11379.08
0.9613,0.0387	-11363.55
0.8919,0.1081	-11374.74
0.9166,0.0834	-11376.89
0.9743,0.0257	-11360.14
0.8180,0.1820	-11385.54
0.9160,0.0840	-11372.10
0.9568,0.0432	-11363.57
0.8686,0.1314	-11382.99
0.9116,0.0884	-11374.49
0.9748,0.0252	-11352.83
0.8025,0.1975	-11383.28
0.9134,0.0866	-11376.84
0.9617,0.0383	-11366.77
0.8881,0.1119	-11376.90
0.9279,0.0721	-11382.27
0.9716,0.0284	-11363.68
0.8346,0.1654	-11393.22
0.9234,0.0766	-11364.58
0.9573,0.0427	-11379.12
0.8877,0.1123	-11383.11
0.9255,0.0745	-11367.01
0.9661,0.0339	-11363.58
0.8449,0.1551	-11376.48
0.9345,0.0655	-11369.44
0.9651,0.0349	-11366.89
0.8687,0.1313	-11377.32
0.9400,0.0600	-11372.19
0.9689,0.0311	-11356.74
0.8378,0.1622	-11385.07
0.9405,0.0595	-11369.44
0.9660,0.0340	-11363.57
0.8840,0.1160	-11376.96
0.9377,0.0623	-11364.01
0.9708,0.0292	-11360.16
0.8487,0.1513	-11386.64
0.9249,0.0751	-11364.51
0.9653,0.0347	-11366.89
0.8905,0.1095	-11372.68
0.9380,0.0620	-11366.72
0.9640,0.0360	-11360.27
0.8231,0.1769	-11380.78
0.9333,0.0667	-11369.44
0.9674,0.0326	-11356.81
0.8952,0.1048	-11372.53
0.9476,0.0524	-11360.83
0.9678,0.0322	-11367.00
0.8230,0.1770	-11394.62
0.9272,0.0728	-11369.50
0.9609,0.0391	-11363.55
0.9165,0.0835	-11374.49
0.9549,0.0451	-11363.59
0.9661,0.0339	-11366.93
0.8100,0.1900	-11387.26
0.9307,0.0693	-11369.46
0.9536,0.0464	-11366.63
0.9026,0.0974	-11379.02
0.9597,0.0403	-11366.73
0.9640,0.0360	-11356.98
0.8335,0.1665	-11377.10
0.9290,0.0710	-11372.05
0.9517,0.0483	-11363.64
0.9091,0.0909	-11376.81
0.9607,0.0393	-11363.55
0.9621,0.0379	-11357.08
0.8667,0.1333	-11386.74
0.9280,0.0720	-11377.16
0.9572,0.0428	-11363.57
0.9272,0.0728	-11372.05
0.9583,0.0417	-11363.56
0.9580,0.0420	-11363.56
0.8245,0.1755	-11391.55
0.9167,0.0833	-11369.69
0.9479,0.0521	-11369.52
0.9263,0.0737	-11369.51
0.9615,0.0385	-11366.77
0.9572,0.0428	-11366.68
0.8013,0.1987	-11387.53
0.9367,0.0633	-11374.82
0.9480,0.0520	-11366.62
0.9362,0.0638	-11366.75
0.9582,0.0418	-11360.43
0.9627,0.0373	-11376.56
0.8181,0.1819	-11394.56
0.9568,0.0432	-11369.77
0.9453,0.0547	-11358.08
0.9372,0.0628	-11364.03
0.9594,0.0406	-11376.21
0.9543,0.0457	-11360.56
0.8070,0.1930	-11398.79
0.9644,0.0356	-11363.56
0.9456,0.0544	-11360.92
0.9382,0.0618	-11380.32
0.9650,0.0350	-11363.56
0.9482,0.0518	-11363.71
0.7667,0.2333	-11393.80
0.9651,0.0349	-11360.24
0.9564,0.0436	-11366.67
0.9539,0.0461	-11372.70
0.9581,0.0419	-11366.69
0.9515,0.0485	-11366.62
0.7628,0.2372	-11404.43
0.9539,0.0461	-11372.70
0.9537,0.0463	-11372.68
0.9416,0.0584	-11366.67
0.9585,0.0415	-11369.84
0.9417,0.0583	-11372.23
0.7994,0.2006	-11390.36
0.9505,0.0495	-11360.71
0.9400,0.0600	-11358.43
0.9429,0.0571	-11366.65
0.9506,0.0494	-11357.75
0.9325,0.0675	-11366.82
0.7915,0.2085	-11393.22
0.9603,0.0397	-11363.55
0.9313,0.0687	-11374.67
0.9518,0.0482	-11366.62
0.9438,0.0562	-11363.82
0.9422,0.0578	-11369.45
0.7841,0.2159	-11393.36
0.9620,0.0380	-11360.32
0.9261,0.0739	-11364.46
0.9607,0.0393	-11373.14
0.9358,0.0642	-11369.43
0.9161,0.0839	-11369.71
0.7687,0.2313	-11402.14
0.9669,0.0331	-11356.84
0.9167,0.0833	-11367.29
0.9570,0.0430	-11372.88
0.9349,0.0651	-11364.11
0.9284,0.0716	-11366.92
0.7894,0.2106	-11390.62
0.9668,0.0332	-11363.58
0.9178,0.0822	-11364.84
0.9490,0.0510	-11372.46
0.9244,0.0756	-11362.03
0.9270,0.0730	-11364.42
0.8029,0.1971	-11383.26
0.9562,0.0438	-11363.58
0.9050,0.0950	-11365.52
0.9488,0.0512	-11366.62
0.9286,0.0714	-11372.05
0.9426,0.0574	-11363.85
0.7909,0.2091	-11394.56
0.9583,0.0417	-11360.43
0.9089,0.0911	-11376.81
0.9516,0.0484	-11366.62
0.9318,0.0682	-11372.07
0.9431,0.0569	-11361.03
0.7918,0.2082	-11385.20
0.9589,0.0411	-11360.41
0.9165,0.0835	-11362.51
0.9506,0.0494	-11360.70
0.9266,0.0734	-11374.58
0.9360,0.0640	-11380.16
0.8299,0.1701	-11388.40
0.9596,0.0404	-11357.22
0.9147,0.0853	-11376.86
0.9530,0.0470	-11366.63
0.9290,0.0710	-11372.05
0.9206,0.0794	-11364.71
0.8260,0.1740	-11388.44
0.9638,0.0362	-11363.56
0.9082,0.0918	-11376.80
0.9578,0.0422	-11369.81
0.9248,0.0752	-11369.54
0.9047,0.0953	-11374.54
0.8510,0.1490	-11384.90
0.9648,0.0352	-11360.25
0.9018,0.0982	-11370.14
0.9582,0.0418	-11379.23
0.9242,0.0758	-11369.55
0.9147,0.0853	-11372.12
0.8248,0.1752	-11379.16
0.9700,0.0300	-11360.17
0.8952,0.1048	-11376.82
0.9590,0.0410	-11357.25
0.9259,0.0741	-11364.47
0.8882,0.1118	-11372.75
0.7963,0.2037	-11390.43
0.9664,0.0336	-11366.94
0.8799,0.1201	-11379.03
0.9668,0.0332	-11366.96
0.9191,0.0809	-11367.21
0.8653,0.1347	-11379.28
0.7754,0.2246	-11396.03
0.9644,0.0356	-11366.86
0.8895,0.1105	-11374.79
0.9616,0.0384	-11373.22
0.9231,0.0769	-11364.60
0.8391,0.1609	-11380.09
0.7843,0.2157	-11390.77
0.9670,0.0330	-11366.96
0.9066,0.0934	-11385.88
0.9655,0.0345	-11370.23
0.9230,0.0770	-11367.08
0.8567,0.1433	-11393.80
0.7609,0.2391	-11396.30
0.9651,0.0349	-11366.88
0.9256,0.0744	-11372.04
0.9656,0.0344	-11356.90
0.9349,0.0651	-11369.44
0.8399,0.1601	-11380.06
0.7452,0.2548	-11392.45
0.9654,0.0346	-11366.90
0.9230,0.0770	-11377.02
0.9648,0.0352	-11366.87
0.9371,0.0629	-11369.43
0.8559,0.1441	-11374.18
0.7684,0.2316	-11392.55
0.9737,0.0263	-11363.75
0.9107,0.0893	-11383.78
0.9549,0.0451	-11357.49
0.9372,0.0628	-11361.32
0.8325,0.1675	-11378.76
0.7765,0.2235	-11398.51
0.9782,0.0218	-11356.37
0.9175,0.0825	-11374.49
0.9443,0.0557	-11369.47
0.9300,0.0700	-11366.88
0.8190,0.1810	-11390.04
0.7968,0.2032	-11395.89
0.9798,0.0202	-11356.32
0.9297,0.0703	-11369.47
0.9337,0.0663	-11369.44
0.9513,0.0487	-11366.62
0.7997,0.2003	-11386.20
0.7546,0.2454	-11391.96
0.9878,0.0122	-11351.82
0.9245,0.0755	-11367.04
0.9250,0.0750	-11377.07
0.9543,0.0457	-11366.64
0.7423,0.2577	-11401.07
0.7410,0.2590	-11409.50
0.9891,0.0109	-11351.72
0.9329,0.0671	-11366.81
0.9257,0.0743	-11361.96
0.9608,0.0392	-11360.35
0.7615,0.2385	-11402.09
0.6897,0.3103	-11405.86
0.9875,0.0125	-11356.21
0.9336,0.0664	-11372.09
0.8991,0.1009	-11370.24
0.9643,0.0357	-11366.86
0.8113,0.1887	-11401.81
0.7272,0.2728	-11395.47
0.9869,0.0131	-11356.21
0.9284,0.0716	-11374.61
0.8830,0.1170	-11376.98
0.9603,0.0397	-11360.37
0.7875,0.2125	-11390.67
0.7488,0.2512	-11387.89
0.9864,0.0136	-11364.78
0.9175,0.0825	-11372.09
0.8539,0.1461	-11384.88
0.9679,0.0321	-11367.01
0.7631,0.2369	-11397.42
0.7395,0.2605	-11396.94
0.9844,0.0156	-11352.08
0.9102,0.0898	-11376.81
0.8548,0.1452	-11390.19
0.9659,0.0341	-11356.89
0.7556,0.2444	-11394.17
0.7510,0.2490	-11391.04
0.9837,0.0163	-11356.24
0.9035,0.0965	-11365.60
0.8536,0.1464	-11393.69
0.9709,0.0291	-11367.17
0.7957,0.2043	-11382.29
0.7533,0.2467	-11392.03
0.9825,0.0175	-11360.28
0.9148,0.0852	-11362.62
0.8893,0.1107	-11378.97
0.9651,0.0349	-11360.24
0.8276,0.1724	-11388.42
0.7626,0.2374	-11396.26
0.9800,0.0200	-11360.21
0.9070,0.0930	-11376.80
0.9218,0.0782	-11379.46
0.9712,0.0288	-11356.63
0.8582,0.1418	-11381.26
0.8146,0.1854	-11398.97
0.9810,0.0190	-11352.34
0.9305,0.0695	-11364.28
0.9142,0.0858	-11374.49
0.9610,0.0390	-11366.76
0.8854,0.1146	-11362.63
0.8258,0.1742	-11388.44
0.9855,0.0145	-11356.22
0.9255,0.0745	-11367.01
0.8859,0.1141	-11381.03
0.9631,0.0369	-11360.29
0.8710,0.1290	-11384.89
0.8273,0.1727	-11389.99
0.9850,0.0150	-11356.22
0.9401,0.0599	-11369.44
0.8754,0.1246	-11379.09
0.9651,0.0349	-11356.92
0.8409,0.1591	-11386.68
0.8084,0.1916	-11388.74
0.9803,0.0197	-11356.31
0.9242,0.0758	-11367.04
0.8925,0.1075	-11381.08
0.9559,0.0441	-11369.73
0.8244,0.1756	-11390.00
0.8351,0.1649	-11381.87
0.9756,0.0244	-11352.77
0.9310,0.0690	-11366.86
0.9102,0.0898	-11369.87
0.9443,0.0557	-11363.81
0.8493,0.1507	-11376.26
0.8334,0.1666	-11385.15
0.9762,0.0238	-11360.15
0.9445,0.0555	-11366.64
0.9071,0.0929	-11374.52
0.9588,0.0412	-11366.71
0.8269,0.1731	-11380.61
0.8504,0.1496	-11374.48
0.9706,0.0294	-11363.66
0.9378,0.0622	-11385.71
0.8787,0.1213	-11373.11
0.9652,0.0348	-11356.92
0.8176,0.1824	-11397.56
0.8509,0.1491	-11386.64
0.9702,0.0298	-11353.19
0.9323,0.0677	-11361.58
0.8821,0.1179	-11377.00
0.9574,0.0426	-11360.45
0.8520,0.1480	-11376.13
0.8649,0.1351	-11386.72
0.9682,0.0318	-11360.19
0.9332,0.0668	-11377.36
0.8963,0.1037	-11368.19
0.9554,0.0446	-11360.52
0.8419,0.1581	-11388.35
0.8737,0.1263	-11392.66
0.9592,0.0408	-11363.56
0.9213,0.0787	-11362.21
0.8906,0.1094	-11378.96
0.9520,0.0480	-11357.66
0.8445,0.1555	-11386.66
0.8814,0.1186	-11387.04
0.9700,0.0300	-11367.12
0.9272,0.0728	-11369.50
0.9030,0.0970	-11365.64
0.9388,0.0612	-11361.24
0.8437,0.1563	-11376.55
0.8761,0.1239	-11367.35
0.9708,0.0292	-11356.65
0.9186,0.0814	-11372.08
0.8927,0.1073	-11374.72
0.9054,0.0946	-11381.31
0.8078,0.1922	-11401.68
0.8831,0.1169	-11385.07
0.9723,0.0277	-11356.59
0.9381,0.0619	-11372.15
0.8967,0.1033	-11370.33
0.8954,0.1046	-11391.85
0.8181,0.1819	-11388.55
0.8633,0.1367	-11388.54
0.9735,0.0265	-11360.14
0.9344,0.0656	-11369.44
0.9178,0.0822	-11374.50
0.9028,0.0972	-11372.33
0.8419,0.1581	-11379.98
0.8723,0.1277	-11379.14
0.9674,0.0326	-11370.37
0.9428,0.0572	-11366.65
0.9183,0.0817	-11381.76
0.8965,0.1035	-11374.65
0.8511,0.1489	-11372.69
0.8631,0.1369	-11386.70
0.9771,0.0229	-11360.16
0.9531,0.0469	-11363.62
0.9182,0.0818	-11367.24
0.8748,0.1252	-11384.93
0.8663,0.1337	-11379.26
0.8750,0.1250	-11369.37
0.9777,0.0223	-11352.61
0.9473,0.0527	-11360.84
0.9218,0.0782	-11367.12
0.8839,0.1161	-11381.03
0.8432,0.1568	-11390.03
0.8766,0.1234	-11381.04
0.9788,0.0212	-11360.18
0.9560,0.0440	-11363.58
0.9378,0.0622	-11366.72
0.8842,0.1158	-11378.99
0.8330,0.1670	-11383.55
0.8691,0.1309	-11373.52
0.9795,0.0205	-11360.20
0.9555,0.0445	-11366.65
0.9324,0.0676	-11369.45
0.8792,0.1208	-11379.04
0.8380,0.1620	-11371.92
0.8856,0.1144	-11376.94
0.9797,0.0203	-11356.32
0.9609,0.0391	-11360.35
0.9197,0.0803	-11372.07
0.8812,0.1188	-11377.02
0.8396,0.1604	-11396.62
0.9031,0.0969	-11372.32
0.9822,0.0178	-11356.26
0.9658,0.0342	-11363.57
0.9103,0.0897	-11379.13
0.8844,0.1156	-11376.96
0.8461,0.1539	-11386.65
0.8963,0.1037	-11378.97
0.9824,0.0176	-11352.24
0.9672,0.0328	-11356.82
0.9022,0.0978	-11370.12
0.8882,0.1118	-11372.75
0.8490,0.1510	-11372.82
0.8818,0.1182	-11387.05
0.9824,0.0176	-11364.30
0.9722,0.0278	-11353.04
0.9280,0.0720	-11359.26
0.8927,0.1073	-11383.20
0.8308,0.1692	-11382.03
0.9089,0.0911	-11367.61
0.9833,0.0167	-11352.17
0.9736,0.0264	-11367.36
0.9350,0.0650	-11372.10
0.9046,0.0954	-11376.79
0.8498,0.1502	-11384.91
0.9115,0.0885	-11376.82
0.9794,0.0206	-11364.05
0.9713,0.0287	-11367.20
0.9210,0.0790	-11381.88
0.9121,0.0879	-11381.51
0.8476,0.1524	-11381.50
0.9096,0.0904	-11372.19
0.9853,0.0147	-11352.01
0.9652,0.0348	-11363.57
0.9326,0.0674	-11361.57
0.9076,0.0924	-11381.37
0.8390,0.1610	-11391.65
0.9208,0.0792	-11369.61
0.9858,0.0142	-11360.45
0.9608,0.0392	-11369.95
0.9358,0.0642	-11372.11
0.9039,0.0961	-11370.06
0.8543,0.1457	-11384.87
0.8970,0.1030	-11374.64
0.9853,0.0147	-11356.22
0.9629,0.0371	-11363.55
0.9458,0.0542	-11378.07
0.9259,0.0741	-11374.57
0.8688,0.1312	-11384.88
0.8992,0.1008	-11370.23
0.9834,0.0166	-11352.16
0.9615,0.0385	-11353.90
0.9565,0.0435	-11366.67
0.9319,0.0681	-11372.07
0.8831,0.1169	-11374.96
0.8984,0.1016	-11376.80
0.9794,0.0206	-11364.06
0.9515,0.0485	-11363.65
0.9516,0.0484	-11366.62
0.9232,0.0768	-11369.56
0.8970,0.1030	-11381.14
0.8852,0.1148	-11374.90
0.9735,0.0265	-11360.14
0.9436,0.0564	-11369.46
0.9652,0.0348	-11373.54
0.9340,0.0660	-11361.49
0.8969,0.1031	-11365.99
0.8860,0.1140	-11378.98
0.9761,0.0239	-11360.15
0.9463,0.0537	-11366.63
0.9482,0.0518	-11366.62
0.9329,0.0671	-11372.08
0.9081,0.0919	-11374.51
0.8955,0.1045	-11385.41
0.9691,0.0309	-11363.62
0.9558,0.0442	-11366.66
0.9409,0.0591	-11361.14
0.9390,0.0610	-11372.17
0.9193,0.0807	-11372.07
0.8852,0.1148	-11372.86
0.9681,0.0319	-11360.19
0.9510,0.0490	-11360.69
0.9440,0.0560	-11366.64
0.9493,0.0507	-11375.41
0.9165,0.0835	-11369.70
0.9063,0.0937	-11376.79
0.9662,0.0338	-11353.51
0.9312,0.0688	-11364.25
0.9380,0.0620	-11372.15
0.9481,0.0519	-11360.81
0.9063,0.0937	-11374.52
0.8848,0.1152	-11385.11
0.9668,0.0332	-11363.58
0.9217,0.0783	-11372.05
0.9247,0.0753	-11364.52
0.9410,0.0590	-11369.44
0.9058,0.0942	-11367.74
0.8768,0.1232	-11371.22
0.9653,0.0347	-11373.54
0.9174,0.0826	-11374.49
0.9357,0.0643	-11366.76
0.9239,0.0761	-11372.05
0.9104,0.0896	-11365.22
0.8641,0.1359	-11383.01
0.9697,0.0303	-11356.70
0.9065,0.0935	-11372.25
0.9335,0.0665	-11364.16
0.9274,0.0726	-11382.23
0.9065,0.0935	-11376.79
0.8904,0.1096	-11378.96
0.9750,0.0250	-11360.14
0.8985,0.1015	-11385.52
0.9293,0.0707	-11369.48
0.9275,0.0725	-11379.69
0.8969,0.1031	-11383.30
0.8971,0.1029	-11391.96
0.9719,0.0281	-11353.06
0.8921,0.1079	-11389.53
0.9437,0.0563	-11369.46
0.9310,0.0690	-11374.66
0.9086,0.0914	-11367.62
0.8820,0.1180	-11377.00
0.9708,0.0292	-11360.16
0.8619,0.1381	-11379.36
0.9470,0.0530	-11366.62
0.9243,0.0757	-11372.05
0.9221,0.0779	-11372.05
0.8844,0.1156	-11368.82
0.9728,0.0272	-11374.45
0.8789,0.1211	-11383.01
0.9443,0.0557	-11366.64
0.9335,0.0665	-11380.01
0.9083,0.0917	-11372.22
0.8746,0.1254	-11375.22
0.9668,0.0332	-11360.21
0.8838,0.1162	-11383.05
0.9531,0.0469	-11360.61
0.9383,0.0617	-11374.88
0.9288,0.0712	-11382.32
0.8653,0.1347	-11381.14
0.9642,0.0358	-11353.68
0.8730,0.1270	-11379.13
0.9546,0.0454	-11366.64
0.9430,0.0570	-11366.65
0.9477,0.0523	-11372.41
0.8878,0.1122	-11370.70
0.9635,0.0365	-11363.56
0.8503,0.1497	-11381.43
0.9634,0.0366	-11363.55
0.9453,0.0547	-11372.33
0.9488,0.0512	-11369.54
0.9121,0.0879	-11374.49
0.9678,0.0322	-11356.79
0.8666,0.1334	-11369.90
0.9572,0.0428	-11363.57
0.9495,0.0505	-11372.49
0.9482,0.0518	-11357.90
0.9213,0.0787	-11364.68
0.9713,0.0287	-11353.11
0.8563,0.1437	-11392.00
0.9603,0.0397	-11363.55
0.9473,0.0527	-11355.06
0.9329,0.0671	-11361.55
0.9204,0.0796	-11364.72
0.9737,0.0263	-11356.53
0.8476,0.1524	-11379.78
0.9607,0.0393	-11357.16
0.9419,0.0581	-11366.66
0.9419,0.0581	-11366.66
0.9238,0.0762	-11364.56
0.9716,0.0284	-11370.75
0.8490,0.1510	-11379.73
0.9530,0.0470	-11366.63
0.9445,0.0555	-11369.47
0.9482,0.0518	-11369.53
0.9201,0.0799	-11374.51
0.9657,0.0343	-11363.57
0.8591,0.1409	-11388.47
0.9549,0.0451	-11357.49
0.9553,0.0447	-11354.40
0.9505,0.0495	-11363.66
0.9001,0.0999	-11381.19
0.9663,0.0337	-11356.87
0.8875,0.1125	-11376.91
0.9514,0.0486	-11363.65
0.9523,0.0477	-11369.62
0.9382,0.0618	-11372.15
0.8924,0.1076	-11374.73
0.9689,0.0311	-11356.74
0.8747,0.1253	-11377.16
0.9555,0.0445	-11360.52
0.9413,0.0587	-11377.77
0.9443,0.0557	-11366.64
0.8903,0.1097	-11378.96
0.9691,0.0309	-11367.07
0.8944,0.1056	-11387.51
0.9537,0.0463	-11363.61
0.9513,0.0487	-11360.68
0.9503,0.0497	-11369.57
0.8732,0.1268	-11388.77
0.9697,0.0303	-11356.70
0.8861,0.1139	-11387.19
0.9538,0.0462	-11372.69
0.9547,0.0453	-11375.79
0.9558,0.0442	-11357.43
0.8589,0.1411	-11375.82
0.9758,0.0242	-11352.76
0.8891,0.1109	-11374.80
0.9514,0.0486	-11369.60
0.9582,0.0418	-11357.30
0.9556,0.0444	-11363.59
0.8801,0.1199	-11387.01
0.9756,0.0244	-11363.83
0.8889,0.1111	-11385.21
0.9468,0.0532	-11366.62
0.9573,0.0427	-11360.46
0.9470,0.0530	-11366.62
0.8632,0.1368	-11384.86
0.9760,0.0240	-11360.15
0.8781,0.1219	-11373.13
0.9561,0.0439	-11363.58
0.9594,0.0406	-11360.39
0.9432,0.0568	-11369.46
0.8410,0.1590	-11383.35
0.9741,0.0259	-11356.51
0.8798,0.1202	-11373.06
0.9557,0.0443	-11357.44
0.9528,0.0472	-11366.63
0.9572,0.0428	-11360.46
0.8583,0.1417	-11383.06
0.9747,0.0253	-11356.49
0.8932,0.1068	-11370.47
0.9481,0.0519	-11360.81
0.9545,0.0455	-11360.56
0.9633,0.0367	-11366.82
0.8675,0.1325	-11386.75
0.9671,0.0329	-11363.59
0.8985,0.1015	-11363.72
0.9431,0.0569	-11366.65
0.9609,0.0391	-11366.75
0.9644,0.0356	-11363.56
0.8275,0.1725	-11388.42
0.9678,0.0322	-11360.19
0.9184,0.0816	-11369.66
0.9401,0.0599	-11372.19
0.9664,0.0336	-11366.94
0.9689,0.0311	-11367.06
0.8429,0.1571	-11386.67
0.9631,0.0369	-11357.03
0.9156,0.0844	-11367.34
0.9377,0.0623	-11361.30
0.9666,0.0334	-11356.85
0.9618,0.0382	-11360.32
0.8779,0.1221	-11377.08
0.9649,0.0351	-11360.25
0.9300,0.0700	-11369.47
0.9397,0.0603	-11363.94
0.9662,0.0338	-11363.58
0.9680,0.0320	-11360.19
0.8762,0.1238	-11379.08
0.9648,0.0352	-11360.25
0.9245,0.0755	-11374.55
0.9429,0.0571	-11366.65
0.9663,0.0337	-11363.58
0.9660,0.0340	-11360.23
0.8596,0.1404	-11383.04
0.9586,0.0414	-11366.70
0.9360,0.0640	-11366.75
0.9388,0.0612	-11369.43
0.9592,0.0408	-11366.71
0.9664,0.0336	-11356.86
0.8549,0.1451	-11383.10
0.9561,0.0439	-11369.74
0.9412,0.0588	-11377.76
0.9362,0.0638	-11380.18
0.9458,0.0542	-11363.77
0.9642,0.0358	-11356.97
0.8406,0.1594	-11388.35
0.9538,0.0462	-11366.64
0.9393,0.0607	-11377.65
0.9336,0.0664	-11377.37
0.9328,0.0672	-11361.56
0.9640,0.0360	-11363.56
0.8203,0.1797	-11382.44
0.9556,0.0444	-11372.80
0.9354,0.0646	-11377.45
0.9345,0.0655	-11364.12
0.9243,0.0757	-11359.53
0.9717,0.0283	-11363.69
0.7819,0.2181	-11389.57
0.9618,0.0382	-11360.33
0.9174,0.0826	-11386.53
0.9427,0.0573	-11363.85
0.9285,0.0715	-11366.92
0.9669,0.0331	-11363.59
0.8236,0.1764	-11380.76
0.9654,0.0346	-11356.91
0.9192,0.0808	-11374.50
0.9536,0.0464	-11363.61
0.9370,0.0630	-11372.13
0.9714,0.0286	-11363.68
0.8169,0.1831	-11384.08
0.9684,0.0316	-11360.19
0.9158,0.0842	-11379.26
0.9623,0.0377	-11357.07
0.9364,0.0636	-11369.43
0.9681,0.0319	-11367.02
0.8505,0.1495	-11379.69
0.9628,0.0372	-11370.06
0.8959,0.1041	-11376.82
0.9568,0.0432	-11375.97
0.9444,0.0556	-11358.14
0.9669,0.0331	-11370.33
0.8170,0.1830	-11382.58
0.9686,0.0314	-11360.18
0.8809,0.1191	-11375.02
0.9534,0.0466	-11369.65
0.9395,0.0605	-11374.92
0.9744,0.0256	-11360.14
0.8536,0.1464	-11393.69
0.9584,0.0416	-11366.70
0.8648,0.1352	-11379.29
0.9508,0.0492	-11354.78
0.9379,0.0621	-11361.29
0.9679,0.0321	-11363.60
0.8266,0.1734	-11382.18
0.9543,0.0457	-11360.56
0.8661,0.1339	-11371.80
0.9478,0.0522	-11363.72
0.9275,0.0725	-11369.50
0.9701,0.0299	-11367.12
0.8331,0.1669	-11389.98
0.9561,0.0439	-11366.66
0.8609,0.1391	-11388.50
0.9417,0.0583	-11363.88
0.9269,0.0731	-11372.05
0.9698,0.0302	-11356.70
0.8212,0.1788	-11382.40
0.9591,0.0409	-11354.09
0.8645,0.1355	-11375.59
0.9551,0.0449	-11369.71
0.9259,0.0741	-11366.99
0.9686,0.0314	-11356.75
0.8557,0.1443	-11383.09
0.9639,0.0361	-11356.99
0.8386,0.1614	-11391.64
0.9566,0.0434	-11366.67
0.9368,0.0632	-11366.74
0.9675,0.0325	-11360.20
0.8525,0.1475	-11388.39
0.9523,0.0477	-11360.64
0.8440,0.1560	-11390.04
0.9549,0.0451	-11363.59
0.9464,0.0536	-11369.50
0.9703,0.0297	-11374.11
0.8668,0.1332	-11379.25
0.9514,0.0486	-11363.65
0.8526,0.1474	-11384.88
0.9481,0.0519	-11360.81
0.9551,0.0449	-11357.48
0.9744,0.0256	-11360.14
0.8639,0.1361	-11381.16
0.9569,0.0431	-11360.47
0.8424,0.1576	-11386.67
0.9480,0.0520	-11360.81
0.9627,0.0373	-11363.55
0.9700,0.0300	-11367.12
0.8750,0.1250	-11392.72
0.9500,0.0500	-11372.51
0.8482,0.1518	-11383.20
0.9426,0.0574	-11375.05
0.9594,0.0406	-11360.39
0.9682,0.0318	-11367.02
0.8607,0.1393	-11375.75
0.9597,0.0403	-11363.55
0.8407,0.1593	-11381.69
0.9447,0.0553	-11363.80
0.9630,0.0370	-11360.29
0.9722,0.0278	-11356.59
0.8577,0.1423	-11384.86
0.9550,0.0450	-11363.59
0.8504,0.1496	-11384.90
0.9472,0.0528	-11383.95
0.9683,0.0317	-11356.77
0.9782,0.0218	-11360.17
0.8618,0.1382	-11373.87
0.9549,0.0451	-11360.54
0.8383,0.1617	-11385.06
0.9460,0.0540	-11366.63
0.9732,0.0268	-11374.51
0.9781,0.0219	-11352.57
0.8463,0.1537	-11376.41
0.9518,0.0482	-11363.64
0.8555,0.1445	-11388.42
0.9472,0.0528	-11360.85
0.9663,0.0337	-11363.58
0.9798,0.0202	-11364.08
0.8461,0.1539	-11378.13
0.9453,0.0547	-11372.33
0.8663,0.1337	-11384.86
0.9239,0.0761	-11379.54
0.9625,0.0375	-11363.55
0.9776,0.0224	-11363.94
0.8637,0.1363	-11377.47
0.9517,0.0483	-11366.62
0.8465,0.1535	-11391.77
0.9327,0.0673	-11372.08
0.9575,0.0425	-11357.34
0.9798,0.0202	-11356.32
0.8350,0.1650	-11388.36
0.9634,0.0366	-11363.55
0.8451,0.1549	-11381.57
0.9316,0.0684	-11364.23
0.9652,0.0348	-11363.57
0.9816,0.0184	-11352.30
0.8333,0.1667	-11389.98
0.9596,0.0404	-11373.06
0.8103,0.1897	-11391.60
0.9301,0.0699	-11372.06
0.9646,0.0354	-11360.26
0.9743,0.0257	-11352.88
0.8342,0.1658	-11386.75
0.9638,0.0362	-11360.27
0.8259,0.1741	-11396.22
0.9322,0.0678	-11364.21
0.9696,0.0304	-11370.56
0.9678,0.0322	-11360.20
0.8250,0.1750	-11383.80
0.9662,0.0338	-11353.51
0.7757,0.2243	-11398.51
0.9414,0.0586	-11372.22
0.9708,0.0292	-11363.66
0.9711,0.0289	-11353.13
0.7928,0.2072	-11397.23
0.9718,0.0282	-11360.15
0.8102,0.1898	-11387.25
0.9363,0.0637	-11364.06
0.9658,0.0342	-11363.57
0.9741,0.0259	-11363.77
0.8286,0.1714	-11393.14
0.9748,0.0252	-11371.11
0.8430,0.1570	-11384.98
0.9374,0.0626	-11369.43
0.9630,0.0370	-11357.04
0.9652,0.0348	-11360.24
0.8616,0.1384	-11390.34
0.9724,0.0276	-11363.71
0.8392,0.1608	-11383.39
0.9316,0.0684	-11385.12
0.9570,0.0430	-11363.57
0.9711,0.0289	-11360.16
0.8621,0.1379	-11379.36
0.9695,0.0305	-11363.63
0.8621,0.1379	-11384.85
0.9348,0.0652	-11380.09
0.9474,0.0526	-11366.62
0.9699,0.0301	-11356.69
0.8766,0.1234	-11379.07
0.9742,0.0258	-11367.40
0.8857,0.1143	-11372.84
0.9384,0.0616	-11358.54
0.9424,0.0576	-11369.45
0.9736,0.0264	-11356.54
0.8787,0.1213	-11386.97
0.9644,0.0356	-11356.96
0.8951,0.1049	-11381.11
0.9362,0.0638	-11369.43
0.9424,0.0576	-11366.66
0.9673,0.0327	-11356.82
0.8761,0.1239	-11369.31
0.9644,0.0356	-11363.56
0.9063,0.0937	-11372.25
0.9369,0.0631	-11369.43
0.9490,0.0510	-11366.62
0.9628,0.0372	-11360.30
0.8664,0.1336	-11386.74
0.9604,0.0396	-11357.18
0.8840,0.1160	-11372.90
0.9256,0.0744	-11364.48
0.9462,0.0538	-11363.76
0.9635,0.0365	-11363.56
0.8762,0.1238	-11371.26
0.9532,0.0468	-11354.58
0.8795,0.1205	-11375.06
0.9309,0.0691	-11374.66
0.9524,0.0476	-11369.62
0.9619,0.0381	-11363.55
0.8769,0.1231	-11384.96
0.9536,0.0464	-11366.63
0.8793,0.1207	-11373.08
0.9473,0.0527	-11363.73
0.9660,0.0340	-11366.92
0.9572,0.0428	-11363.57
0.8582,0.1418	-11384.86
0.9619,0.0381	-11360.32
0.8501,0.1499	-11381.43
0.9377,0.0623	-11361.30
0.9615,0.0385	-11357.11
