#isoforms=['ENSG00000110080.SE.2.A.up_ENSG00000110080.SE.2.A.SE1_ENSG00000110080.SE.2.A.dn','ENSG00000110080.SE.2.B.up_ENSG00000110080.SE.2.B.dn']	exon_lens=('ENSG00000110080.SE.2.A.up',61),('ENSG00000110080.SE.2.A.SE1',96),('ENSG00000110080.SE.2.A.dn',190),('ENSG00000110080.SE.2.B.up',61),('ENSG00000110080.SE.2.B.dn',190)	iters=5000	burn_in=500	lag=10	percent_accept=88.49	proposal_type=drift	counts=(0,0):86,(0,1):1,(1,0):124,(1,1):322	assigned_counts=0:380,1:67	chrom=chr11	strand=+	mRNA_starts=126407574,126407574	mRNA_ends=126408496,126408496
sampled_psi	log_score
0.8061,0.1939	-2725.74
0.7996,0.2004	-2721.67
0.7413,0.2587	-2752.28
0.8398,0.1602	-2710.38
0.8041,0.1959	-2728.58
0.9223,0.0777	-2656.79
0.7863,0.2137	-2721.05
0.7609,0.2391	-2748.88
0.7335,0.2665	-2746.39
0.8482,0.1518	-2693.32
0.8256,0.1744	-2718.31
0.9060,0.0940	-2668.37
0.8003,0.1997	-2734.14
0.7720,0.2280	-2751.51
0.7464,0.2536	-2769.50
0.8344,0.1656	-2726.55
0.7855,0.2145	-2731.49
0.9081,0.0919	-2670.69
0.8135,0.1865	-2731.66
0.8075,0.1925	-2748.68
0.7648,0.2352	-2748.92
0.8247,0.1753	-2716.76
0.7927,0.2073	-2730.03
0.8937,0.1063	-2687.66
0.8081,0.1919	-2740.11
0.8064,0.1936	-2737.15
0.7409,0.2591	-2747.04
0.7937,0.2063	-2724.62
0.8311,0.1689	-2729.54
0.8936,0.1064	-2666.37
0.8397,0.1603	-2717.00
0.7762,0.2238	-2740.51
0.7185,0.2815	-2768.10
0.7333,0.2667	-2770.67
0.8377,0.1623	-2713.65
0.9123,0.0877	-2656.82
0.8546,0.1454	-2705.45
0.7532,0.2468	-2743.31
0.6573,0.3427	-2782.38
0.7515,0.2485	-2747.80
0.8544,0.1456	-2712.53
0.9119,0.0881	-2663.84
0.8748,0.1252	-2679.34
0.7695,0.2305	-2740.57
0.6751,0.3249	-2775.38
0.7237,0.2763	-2753.80
0.8406,0.1594	-2715.37
0.9412,0.0588	-2652.61
0.8684,0.1316	-2700.40
0.7452,0.2548	-2740.43
0.6815,0.3185	-2771.54
0.7574,0.2426	-2769.36
0.8272,0.1728	-2729.28
0.9315,0.0685	-2641.52
0.8820,0.1180	-2697.24
0.7288,0.2712	-2770.41
0.7062,0.2938	-2766.21
0.7338,0.2662	-2755.49
0.8312,0.1688	-2713.60
0.9213,0.0787	-2676.45
0.8701,0.1299	-2711.89
0.7549,0.2451	-2747.75
0.7061,0.2939	-2749.55
0.7033,0.2967	-2758.47
0.7767,0.2233	-2733.03
0.8914,0.1086	-2691.73
0.8665,0.1335	-2711.56
0.7566,0.2434	-2743.20
0.7083,0.2917	-2767.08
0.7277,0.2723	-2748.74
0.8006,0.1994	-2728.58
0.8742,0.1258	-2673.55
0.8818,0.1182	-2681.15
0.7755,0.2245	-2742.99
0.6837,0.3163	-2772.26
0.7545,0.2455	-2747.75
0.7909,0.2091	-2744.69
0.8779,0.1221	-2702.90
0.8921,0.1079	-2681.22
0.7424,0.2576	-2740.63
0.7475,0.2525	-2761.99
0.7752,0.2248	-2725.65
0.8215,0.1785	-2715.25
0.8547,0.1453	-2701.91
0.8959,0.1041	-2674.89
0.7464,0.2536	-2760.86
0.7202,0.2798	-2759.64
0.8211,0.1789	-2727.45
0.8494,0.1506	-2696.72
0.8548,0.1452	-2703.69
0.8969,0.1031	-2664.09
0.7367,0.2633	-2759.58
0.7003,0.2997	-2766.29
0.8354,0.1646	-2700.63
0.8423,0.1577	-2702.02
0.8193,0.1807	-2710.76
0.8866,0.1134	-2679.08
0.7021,0.2979	-2758.54
0.7263,0.2737	-2765.41
0.8653,0.1347	-2698.43
0.8288,0.1712	-2718.34
0.8140,0.1860	-2721.34
0.8949,0.1051	-2662.03
0.7552,0.2448	-2755.63
0.7197,0.2803	-2753.04
0.8831,0.1169	-2685.18
0.8147,0.1853	-2722.82
0.8040,0.1960	-2737.05
0.8954,0.1046	-2679.18
0.7676,0.2324	-2746.57
0.7574,0.2426	-2751.14
0.8607,0.1393	-2692.90
0.8241,0.1759	-2716.76
0.8292,0.1708	-2735.73
0.9025,0.0975	-2672.80
0.7724,0.2276	-2741.75
0.7555,0.2445	-2743.23
0.8681,0.1319	-2717.34
0.8358,0.1642	-2728.28
0.8368,0.1632	-2712.00
0.9120,0.0880	-2654.48
0.7532,0.2468	-2748.89
0.7756,0.2244	-2728.11
0.8798,0.1202	-2675.20
0.8558,0.1442	-2717.95
0.8619,0.1381	-2703.87
0.8955,0.1045	-2666.30
0.7530,0.2470	-2742.20
0.8181,0.1819	-2718.33
0.8916,0.1084	-2674.89
0.8545,0.1455	-2693.06
0.8341,0.1659	-2695.85
0.8778,0.1222	-2696.98
0.7604,0.2396	-2724.62
0.8076,0.1924	-2734.34
0.9044,0.0956	-2654.87
0.8361,0.1639	-2733.19
0.8573,0.1427	-2701.94
0.8611,0.1389	-2683.77
0.7399,0.2601	-2757.53
0.7860,0.2140	-2734.08
0.9014,0.0986	-2668.35
0.8444,0.1556	-2708.74
0.8492,0.1508	-2684.63
0.8456,0.1544	-2695.15
0.7377,0.2623	-2745.11
0.7828,0.2172	-2737.97
0.8984,0.1016	-2679.28
0.8398,0.1602	-2702.09
0.8559,0.1441	-2700.14
0.8475,0.1525	-2710.50
0.6944,0.3056	-2762.34
0.8161,0.1839	-2725.80
0.9015,0.0985	-2694.92
0.8255,0.1745	-2730.74
0.8664,0.1336	-2715.28
0.8587,0.1413	-2700.16
0.7087,0.2913	-2767.08
0.8341,0.1659	-2718.46
0.9121,0.0879	-2673.20
0.8511,0.1489	-2686.22
0.8678,0.1322	-2692.85
0.8560,0.1440	-2709.05
0.7357,0.2643	-2765.71
0.8220,0.1780	-2710.65
0.9111,0.0889	-2677.79
0.8471,0.1529	-2689.95
0.8744,0.1256	-2681.30
0.8703,0.1297	-2700.48
0.7823,0.2177	-2752.04
0.7910,0.2090	-2716.75
0.9164,0.0836	-2649.57
0.8556,0.1444	-2696.58
0.8547,0.1453	-2668.24
0.8752,0.1248	-2687.12
0.7607,0.2393	-2747.72
0.8130,0.1870	-2727.23
0.9311,0.0689	-2641.53
0.8587,0.1413	-2692.94
0.8434,0.1566	-2715.47
0.8561,0.1439	-2721.55
0.7653,0.2347	-2744.20
0.8333,0.1667	-2737.75
0.9396,0.0604	-2630.50
0.8440,0.1560	-2708.74
0.8444,0.1556	-2713.82
0.8702,0.1298	-2708.09
0.7526,0.2474	-2760.02
0.8155,0.1845	-2718.36
0.9316,0.0684	-2649.35
0.8388,0.1612	-2713.67
0.8412,0.1588	-2707.05
0.8604,0.1396	-2692.91
0.7750,0.2250	-2736.80
0.8090,0.1910	-2724.29
0.9371,0.0629	-2633.35
0.8428,0.1572	-2715.44
0.8162,0.1838	-2722.82
0.8667,0.1333	-2702.21
0.8049,0.1951	-2730.00
0.8108,0.1892	-2715.56
0.9382,0.0618	-2630.58
0.8400,0.1600	-2698.77
0.8109,0.1891	-2709.73
0.8340,0.1660	-2702.31
0.7908,0.2092	-2735.38
0.7593,0.2407	-2736.23
0.9468,0.0532	-2627.37
0.8549,0.1451	-2712.55
0.8132,0.1868	-2715.47
0.8446,0.1554	-2723.98
0.7876,0.2124	-2726.20
0.7812,0.2188	-2734.16
0.9461,0.0539	-2638.85
0.8472,0.1528	-2701.93
0.7618,0.2382	-2759.35
0.8675,0.1325	-2704.13
0.7922,0.2078	-2723.35
0.7925,0.2075	-2736.73
0.9464,0.0536	-2644.61
0.8115,0.1885	-2715.53
0.7286,0.2714	-2749.67
0.8309,0.1691	-2715.20
0.7793,0.2207	-2725.37
0.8092,0.1908	-2724.29
0.9312,0.0688	-2638.92
0.7805,0.2195	-2740.52
0.7408,0.2592	-2757.54
0.8278,0.1722	-2712.05
0.7931,0.2069	-2742.12
0.8211,0.1789	-2730.50
0.9205,0.0795	-2673.90
0.7708,0.2292	-2740.55
0.7341,0.2659	-2764.63
0.8216,0.1784	-2718.30
0.8043,0.1957	-2731.41
0.8140,0.1860	-2727.25
0.9125,0.0875	-2663.85
0.7428,0.2572	-2741.66
0.7466,0.2534	-2752.23
0.8234,0.1766	-2721.38
0.8164,0.1836	-2721.33
0.8058,0.1942	-2738.55
0.9041,0.0959	-2663.86
0.7462,0.2538	-2744.68
0.6981,0.3019	-2773.05
0.8150,0.1850	-2727.27
0.8027,0.1973	-2734.19
0.7744,0.2256	-2730.65
0.8974,0.1026	-2696.59
0.7433,0.2567	-2733.12
0.7542,0.2458	-2748.88
0.8201,0.1799	-2747.13
0.8044,0.1956	-2697.47
0.7606,0.2394	-2739.63
0.8873,0.1127	-2660.51
0.6955,0.3045	-2774.67
0.7412,0.2588	-2761.76
0.8172,0.1828	-2722.83
0.8250,0.1750	-2698.15
0.7172,0.2828	-2768.07
0.8710,0.1290	-2696.70
0.7113,0.2887	-2757.16
0.7402,0.2598	-2756.49
0.8212,0.1788	-2722.88
0.8535,0.1465	-2686.04
0.7148,0.2852	-2765.27
0.8775,0.1225	-2693.03
0.7112,0.2888	-2764.38
0.7935,0.2065	-2735.40
0.8011,0.1989	-2725.80
0.8799,0.1201	-2697.10
0.7087,0.2913	-2757.30
0.8700,0.1300	-2694.77
0.7009,0.2991	-2764.58
0.7870,0.2130	-2730.15
0.8040,0.1960	-2720.11
0.8622,0.1378	-2703.88
0.6974,0.3026	-2764.69
0.8561,0.1439	-2709.06
0.7252,0.2748	-2774.12
0.8191,0.1809	-2715.30
0.8128,0.1872	-2721.35
0.8727,0.1273	-2685.20
0.7317,0.2683	-2744.49
0.8560,0.1440	-2712.62
0.7121,0.2879	-2765.28
0.8165,0.1835	-2712.38
0.8474,0.1526	-2715.65
0.8904,0.1096	-2674.90
0.7120,0.2880	-2761.66
0.8463,0.1537	-2719.00
0.7586,0.2414	-2748.87
0.8035,0.1965	-2728.58
0.8641,0.1359	-2702.11
0.8590,0.1410	-2701.97
0.7353,0.2647	-2759.56
0.8935,0.1065	-2677.01
0.7583,0.2417	-2736.29
0.7771,0.2229	-2755.49
0.8506,0.1494	-2715.82
0.8780,0.1220	-2693.05
0.7653,0.2347	-2764.29
0.9174,0.0826	-2663.97
0.7636,0.2364	-2741.86
0.8142,0.1858	-2750.89
0.8744,0.1256	-2708.46
0.8826,0.1174	-2671.05
0.7925,0.2075	-2730.03
0.9178,0.0822	-2647.10
0.7468,0.2532	-2745.74
0.8440,0.1560	-2710.43
0.8719,0.1281	-2692.89
0.9011,0.0989	-2655.10
0.8067,0.1933	-2732.88
0.9102,0.0898	-2682.35
0.7490,0.2510	-2748.94
0.8632,0.1368	-2722.35
0.8769,0.1231	-2673.38
0.9069,0.0931	-2672.93
0.7674,0.2326	-2735.83
0.9061,0.0939	-2686.50
0.7323,0.2677	-2763.57
0.8817,0.1183	-2697.21
0.8683,0.1317	-2706.05
0.8936,0.1064	-2655.73
0.8158,0.1842	-2757.05
0.9053,0.0947	-2675.13
0.7257,0.2743	-2744.00
0.8849,0.1151	-2687.25
0.8744,0.1256	-2692.94
0.8805,0.1195	-2675.17
0.8352,0.1648	-2705.51
0.8901,0.1099	-2681.18
0.7252,0.2748	-2765.39
0.9140,0.0860	-2675.69
0.8794,0.1206	-2705.02
0.9008,0.0992	-2674.97
0.8540,0.1460	-2701.91
0.8780,0.1220	-2663.44
0.7579,0.2421	-2748.87
0.9173,0.0827	-2678.41
0.8742,0.1258	-2675.49
0.9001,0.0999	-2650.78
0.8571,0.1429	-2705.52
0.8752,0.1248	-2687.12
0.7828,0.2172	-2722.58
0.8915,0.1085	-2687.53
0.8985,0.1015	-2655.30
0.9134,0.0866	-2659.15
0.8356,0.1644	-2695.74
0.9000,0.1000	-2681.55
0.7630,0.2370	-2737.20
0.9017,0.0983	-2657.27
0.8780,0.1220	-2691.07
0.9314,0.0686	-2657.17
0.8509,0.1491	-2719.32
0.9069,0.0931	-2663.83
0.7882,0.2118	-2728.80
0.9141,0.0859	-2673.33
0.8647,0.1353	-2709.55
0.9275,0.0725	-2656.95
0.8678,0.1322	-2692.85
0.9095,0.0905	-2675.36
0.7669,0.2331	-2745.38
0.9065,0.0935	-2670.65
0.8624,0.1376	-2685.54
0.9185,0.0815	-2659.17
0.8833,0.1167	-2701.38
0.8977,0.1023	-2698.80
0.7558,0.2442	-2751.13
0.9062,0.0938	-2668.37
0.8323,0.1677	-2708.80
0.9171,0.0829	-2661.56
0.8893,0.1107	-2685.33
0.9154,0.0846	-2668.67
0.7248,0.2752	-2772.16
0.9095,0.0905	-2684.58
0.8410,0.1590	-2712.05
0.9059,0.0941	-2693.28
0.8682,0.1318	-2681.54
0.9120,0.0880	-2666.18
0.7276,0.2724	-2768.39
0.9321,0.0679	-2641.50
0.8616,0.1384	-2687.40
0.8882,0.1118	-2683.22
0.8814,0.1186	-2699.20
0.9098,0.0902	-2670.76
0.7410,0.2590	-2764.90
0.9331,0.0669	-2646.75
0.8630,0.1370	-2694.71
0.8830,0.1170	-2699.33
0.9015,0.0985	-2688.28
0.9004,0.0996	-2657.35
0.7696,0.2304	-2740.56
0.9359,0.0641	-2625.37
0.8624,0.1376	-2702.06
0.8740,0.1260	-2692.93
0.8919,0.1081	-2681.22
0.9206,0.0794	-2651.86
0.7792,0.2208	-2739.25
0.9285,0.0715	-2636.49
0.8681,0.1319	-2711.70
0.8880,0.1120	-2674.94
0.8861,0.1139	-2683.19
0.9159,0.0841	-2659.14
0.7594,0.2406	-2760.36
0.9214,0.0786	-2659.23
0.8739,0.1261	-2687.12
0.8835,0.1165	-2662.90
0.8850,0.1150	-2689.29
0.9046,0.0954	-2670.60
0.7515,0.2485	-2757.76
0.8925,0.1075	-2691.82
0.8772,0.1228	-2681.22
0.8784,0.1216	-2700.97
0.8914,0.1086	-2685.42
0.8959,0.1041	-2683.50
0.7956,0.2044	-2727.27
0.8856,0.1144	-2668.85
0.8805,0.1195	-2683.16
0.8725,0.1275	-2673.67
0.8911,0.1089	-2702.22
0.8978,0.1022	-2679.26
0.8055,0.1945	-2744.22
0.8915,0.1085	-2681.21
0.8975,0.1025	-2661.89
0.8955,0.1045	-2670.59
0.8899,0.1101	-2674.91
0.8895,0.1105	-2681.17
0.8279,0.1721	-2718.33
0.8882,0.1118	-2681.15
0.8998,0.1002	-2672.75
0.8975,0.1025	-2668.40
0.9047,0.0953	-2661.60
0.8857,0.1143	-2670.90
0.8344,0.1656	-2703.91
0.8944,0.1056	-2670.61
0.9056,0.0944	-2663.84
0.9041,0.0959	-2666.11
0.8866,0.1134	-2662.63
0.8658,0.1342	-2690.99
0.8162,0.1838	-2716.86
0.8748,0.1252	-2706.56
0.9092,0.0908	-2686.86
0.8826,0.1174	-2685.17
0.8745,0.1255	-2691.00
0.8476,0.1524	-2703.64
0.7708,0.2292	-2732.06
0.8774,0.1226	-2673.35
0.8994,0.1006	-2683.70
0.8683,0.1317	-2683.42
0.8946,0.1054	-2659.91
0.8738,0.1262	-2702.60
0.7682,0.2318	-2748.98
0.8723,0.1277	-2704.43
0.8973,0.1027	-2681.41
0.8469,0.1531	-2710.49
0.8882,0.1118	-2674.93
0.8819,0.1181	-2685.17
0.7859,0.2141	-2726.28
0.8730,0.1270	-2689.05
0.8858,0.1142	-2681.13
0.8458,0.1542	-2708.76
0.8759,0.1241	-2657.80
0.8736,0.1264	-2694.86
0.7655,0.2345	-2735.91
0.8731,0.1269	-2704.48
0.8932,0.1068	-2666.39
0.8517,0.1483	-2708.89
0.8613,0.1387	-2705.68
0.8689,0.1311	-2687.18
0.7495,0.2505	-2752.22
0.8716,0.1284	-2700.54
0.9094,0.0906	-2659.21
0.8381,0.1619	-2721.88
0.8540,0.1460	-2694.84
0.8856,0.1144	-2691.37
0.7383,0.2617	-2761.67
0.8368,0.1632	-2720.18
0.9010,0.0990	-2681.61
0.8389,0.1611	-2718.62
0.8476,0.1524	-2715.66
0.9093,0.0907	-2666.12
0.7608,0.2392	-2748.88
0.8370,0.1630	-2715.28
0.9091,0.0909	-2650.00
0.8345,0.1655	-2731.41
0.8481,0.1519	-2727.72
0.9082,0.0918	-2693.61
0.7774,0.2226	-2751.76
0.8233,0.1767	-2709.07
0.9015,0.0985	-2670.57
0.8649,0.1351	-2698.43
0.8458,0.1542	-2724.08
0.9158,0.0842	-2666.30
0.7455,0.2545	-2754.39
0.8590,0.1410	-2718.24
0.9051,0.0949	-2666.10
0.8705,0.1295	-2700.49
0.8289,0.1711	-2724.66
0.9240,0.0760	-2654.33
0.7558,0.2442	-2745.48
0.8490,0.1510	-2712.28
0.8928,0.1072	-2683.36
0.8626,0.1374	-2698.39
0.8248,0.1752	-2704.36
0.9369,0.0631	-2627.96
0.7758,0.2242	-2739.27
0.8718,0.1282	-2690.97
0.8845,0.1155	-2683.17
0.8651,0.1349	-2681.71
0.8417,0.1583	-2698.70
0.9583,0.0417	-2608.60
0.7456,0.2544	-2749.01
0.8685,0.1315	-2687.19
0.8935,0.1065	-2657.87
0.8489,0.1511	-2693.28
0.8435,0.1565	-2695.26
0.9628,0.0372	-2621.22
0.7511,0.2489	-2744.49
0.8370,0.1630	-2703.82
0.9002,0.0998	-2692.56
0.8737,0.1263	-2692.92
0.8558,0.1442	-2680.55
0.9674,0.0326	-2614.72
0.7434,0.2566	-2769.27
0.8412,0.1588	-2693.72
0.9077,0.0923	-2679.83
0.8715,0.1285	-2698.63
0.8518,0.1482	-2719.39
0.9707,0.0293	-2614.87
0.7357,0.2643	-2758.54
0.8313,0.1687	-2707.23
0.9045,0.0955	-2661.61
0.8363,0.1637	-2715.26
0.8616,0.1384	-2709.35
0.9757,0.0243	-2615.38
0.7360,0.2640	-2757.52
0.8126,0.1874	-2727.22
0.9113,0.0887	-2652.19
0.8585,0.1415	-2707.37
0.8523,0.1477	-2701.90
0.9706,0.0294	-2611.37
0.7127,0.2873	-2751.65
0.7828,0.2172	-2739.25
0.9175,0.0825	-2642.29
0.8660,0.1340	-2690.99
0.8647,0.1353	-2700.28
0.9762,0.0238	-2611.74
0.7497,0.2503	-2747.83
0.7603,0.2397	-2760.42
0.8910,0.1090	-2662.29
0.8162,0.1838	-2700.46
0.8581,0.1419	-2714.55
0.9758,0.0242	-2600.61
0.7570,0.2430	-2751.14
0.7681,0.2319	-2737.00
0.9040,0.0960	-2666.11
0.8137,0.1863	-2715.45
0.8385,0.1615	-2695.55
0.9718,0.0282	-2604.33
0.7509,0.2491	-2736.77
0.7633,0.2367	-2747.73
0.9072,0.0928	-2654.70
0.7997,0.2003	-2729.97
0.8036,0.1964	-2735.62
0.9731,0.0269	-2611.48
0.7677,0.2323	-2752.55
0.7877,0.2123	-2736.69
0.8888,0.1112	-2689.48
0.8260,0.1740	-2721.43
0.7844,0.2156	-2714.73
0.9639,0.0361	-2608.13
0.7599,0.2401	-2753.48
0.7944,0.2056	-2762.44
0.8896,0.1104	-2649.87
0.8401,0.1599	-2728.63
0.8004,0.1996	-2739.70
0.9539,0.0461	-2618.19
0.7697,0.2303	-2736.94
0.8132,0.1868	-2718.41
0.8722,0.1278	-2692.90
0.8418,0.1582	-2713.74
0.7719,0.2281	-2733.22
0.9523,0.0477	-2651.22
0.7925,0.2075	-2723.33
0.7869,0.2131	-2748.44
0.8770,0.1230	-2689.08
0.8550,0.1450	-2700.14
0.7830,0.2170	-2732.84
0.9524,0.0476	-2615.28
0.7977,0.2023	-2736.84
0.7816,0.2184	-2736.70
0.8702,0.1298	-2700.48
0.8769,0.1231	-2681.23
0.7755,0.2245	-2721.91
0.9554,0.0446	-2615.05
0.7639,0.2361	-2728.94
0.7791,0.2209	-2750.59
0.8803,0.1197	-2675.18
0.8718,0.1282	-2712.06
0.7805,0.2195	-2748.13
0.9569,0.0431	-2630.45
0.7779,0.2221	-2744.27
0.7931,0.2069	-2727.33
0.8734,0.1266	-2662.02
0.8654,0.1346	-2687.27
0.7228,0.2772	-2751.93
0.9550,0.0450	-2642.57
0.7922,0.2078	-2724.68
0.8091,0.1909	-2743.07
0.8876,0.1124	-2683.21
0.8720,0.1280	-2687.14
0.7413,0.2587	-2756.50
0.9471,0.0529	-2636.01
0.8078,0.1922	-2724.30
0.8365,0.1635	-2723.43
0.8647,0.1353	-2705.84
0.8589,0.1411	-2692.94
0.7772,0.2228	-2748.00
0.9467,0.0533	-2627.37
0.8209,0.1791	-2704.60
0.8491,0.1509	-2712.28
0.8703,0.1297	-2685.26
0.8744,0.1256	-2683.24
0.7797,0.2203	-2739.25
0.9403,0.0597	-2638.73
0.8096,0.1904	-2734.42
0.8649,0.1351	-2692.86
0.8673,0.1327	-2704.11
0.8979,0.1021	-2683.61
0.7889,0.2111	-2738.01
0.9435,0.0565	-2633.14
0.8090,0.1910	-2722.85
0.8503,0.1497	-2696.70
0.8710,0.1290	-2685.24
0.8821,0.1179	-2691.21
0.7582,0.2418	-2740.87
0.9452,0.0548	-2624.58
0.8012,0.1988	-2725.79
0.8317,0.1683	-2724.79
0.8628,0.1372	-2694.71
0.8846,0.1154	-2691.32
0.7935,0.2065	-2743.48
0.9376,0.0624	-2638.74
0.8168,0.1832	-2713.86
0.8305,0.1695	-2723.14
0.8755,0.1245	-2698.82
0.8839,0.1161	-2689.25
0.7878,0.2122	-2743.25
0.9329,0.0671	-2652.02
0.8115,0.1885	-2728.67
0.8298,0.1702	-2712.02
0.8962,0.1038	-2687.83
0.8603,0.1397	-2703.82
0.7612,0.2388	-2743.08
0.9199,0.0801	-2654.31
0.7933,0.2067	-2723.29
0.8083,0.1917	-2721.42
0.8975,0.1025	-2679.25
0.8196,0.1804	-2706.20
0.7593,0.2407	-2741.98
0.9281,0.0719	-2662.10
0.7891,0.2109	-2748.57
0.7954,0.2046	-2717.77
0.8954,0.1046	-2677.04
0.8340,0.1660	-2716.84
0.7758,0.2242	-2728.10
0.9186,0.0814	-2676.13
0.8137,0.1863	-2716.92
0.8069,0.1931	-2718.59
0.8873,0.1127	-2695.59
0.8274,0.1726	-2727.73
0.7396,0.2604	-2750.23
0.9246,0.0754	-2646.82
0.8026,0.1974	-2738.39
0.7576,0.2424	-2736.33
0.8798,0.1202	-2699.08
0.8574,0.1426	-2691.18
0.7368,0.2632	-2754.43
0.9079,0.0921	-2647.81
0.8062,0.1938	-2718.61
0.7393,0.2607	-2755.45
0.8723,0.1277	-2681.37
0.8700,0.1300	-2696.67
0.7337,0.2663	-2744.35
0.9052,0.0948	-2654.82
0.8118,0.1882	-2746.21
0.7394,0.2606	-2762.75
0.8886,0.1114	-2693.62
0.8372,0.1628	-2720.19
0.7401,0.2599	-2751.26
0.9119,0.0881	-2661.50
0.7527,0.2473	-2742.21
0.7260,0.2740	-2760.53
0.8765,0.1235	-2698.88
0.8269,0.1731	-2710.50
0.7201,0.2799	-2766.25
0.9100,0.0900	-2640.69
0.7482,0.2518	-2751.13
0.7370,0.2630	-2764.73
0.8843,0.1157	-2689.27
0.7934,0.2066	-2719.26
0.7262,0.2738	-2763.46
0.9001,0.0999	-2670.56
0.7613,0.2387	-2752.36
0.7013,0.2987	-2762.86
0.8657,0.1343	-2696.58
0.8137,0.1863	-2728.71
0.7344,0.2656	-2755.49
0.9033,0.0967	-2663.88
0.7785,0.2215	-2746.79
0.6482,0.3518	-2785.49
0.8627,0.1373	-2689.20
0.8238,0.1762	-2741.44
0.7437,0.2563	-2756.51
0.9096,0.0904	-2661.51
0.7663,0.2337	-2739.44
0.6950,0.3050	-2756.54
0.8333,0.1667	-2731.31
0.7959,0.2041	-2727.27
0.7515,0.2485	-2745.59
0.9114,0.0886	-2666.16
0.7802,0.2198	-2732.91
0.7213,0.2787	-2763.42
0.8382,0.1618	-2700.50
0.7824,0.2176	-2744.37
0.7595,0.2405	-2736.22
0.9336,0.0664	-2665.27
0.8004,0.1996	-2743.86
0.7295,0.2705	-2749.62
0.8461,0.1539	-2700.24
0.7983,0.2017	-2735.48
0.7458,0.2542	-2746.85
0.9374,0.0626	-2657.69
0.8056,0.1944	-2714.37
0.7324,0.2676	-2753.50
0.8366,0.1634	-2713.64
0.8141,0.1859	-2718.39
0.7687,0.2313	-2748.99
0.9321,0.0679	-2641.50
0.7985,0.2015	-2727.22
0.7728,0.2272	-2767.46
0.8218,0.1782	-2733.59
0.7984,0.2016	-2740.98
0.7769,0.2231	-2744.25
0.9483,0.0517	-2641.87
0.8251,0.1749	-2727.61
0.7691,0.2309	-2745.39
0.8173,0.1827	-2725.83
0.7952,0.2048	-2734.07
0.7554,0.2446	-2748.87
0.9582,0.0418	-2639.93
0.8360,0.1640	-2720.14
0.7951,0.2049	-2740.85
0.8333,0.1667	-2720.04
0.7791,0.2209	-2745.55
0.7763,0.2237	-2733.04
0.9569,0.0431	-2611.85
0.8352,0.1648	-2715.24
0.8634,0.1366	-2691.02
0.8378,0.1622	-2707.09
0.7955,0.2045	-2719.12
0.7342,0.2658	-2755.49
0.9614,0.0386	-2608.31
0.8062,0.1938	-2725.74
0.8840,0.1160	-2668.95
0.8449,0.1551	-2710.44
0.8086,0.1914	-2712.76
0.7424,0.2576	-2752.27
0.9536,0.0464	-2624.25
0.8041,0.1959	-2714.46
0.8903,0.1097	-2672.81
0.8272,0.1728	-2721.45
0.8083,0.1917	-2711.35
0.7397,0.2603	-2739.78
0.9516,0.0484	-2624.29
0.8052,0.1948	-2730.00
0.8918,0.1082	-2674.89
0.8405,0.1595	-2712.04
0.8168,0.1832	-2700.41
0.7183,0.2817	-2761.54
0.9480,0.0520	-2636.04
0.7944,0.2056	-2731.36
0.8928,0.1072	-2664.29
0.8644,0.1356	-2678.04
0.8244,0.1756	-2716.76
0.7888,0.2112	-2727.47
0.9475,0.0525	-2650.49
0.8083,0.1917	-2735.81
0.8998,0.1002	-2683.73
0.8628,0.1372	-2689.20
0.8386,0.1614	-2702.13
0.7687,0.2313	-2742.98
0.9550,0.0450	-2621.19
0.8268,0.1732	-2718.32
0.9110,0.0890	-2659.18
0.8465,0.1535	-2717.31
0.8602,0.1398	-2685.64
0.7664,0.2336	-2734.68
0.9535,0.0465	-2630.30
0.8393,0.1607	-2710.37
0.8862,0.1138	-2679.08
0.8297,0.1703	-2707.27
0.8455,0.1545	-2700.26
0.7597,0.2403	-2745.42
0.9495,0.0505	-2644.90
0.8419,0.1581	-2693.67
0.9040,0.0960	-2668.35
0.8200,0.1800	-2712.24
0.8362,0.1638	-2698.96
0.7572,0.2428	-2738.63
0.9403,0.0597	-2622.19
0.8493,0.1507	-2719.20
0.8903,0.1097	-2670.72
0.8457,0.1543	-2698.55
0.8666,0.1334	-2690.98
0.7869,0.2131	-2714.48
0.9438,0.0562	-2644.42
0.8458,0.1542	-2708.76
0.8725,0.1275	-2698.67
0.8510,0.1490	-2694.93
0.8322,0.1678	-2726.42
0.7899,0.2101	-2724.78
0.9448,0.0552	-2633.13
0.8657,0.1343	-2681.67
0.8670,0.1330	-2689.10
0.8087,0.1913	-2707.00
0.8569,0.1431	-2680.46
0.7669,0.2331	-2740.61
0.9521,0.0479	-2630.26
0.8421,0.1579	-2715.42
0.8630,0.1370	-2702.07
0.7955,0.2045	-2732.71
0.8653,0.1347	-2709.60
0.7799,0.2201	-2730.39
0.9499,0.0501	-2627.29
0.8390,0.1610	-2726.88
0.8414,0.1586	-2713.73
0.7700,0.2300	-2751.43
0.8774,0.1226	-2689.09
0.7681,0.2319	-2740.59
0.9539,0.0461	-2621.22
0.8313,0.1687	-2694.47
0.7996,0.2004	-2725.82
0.7770,0.2230	-2740.51
0.8714,0.1286	-2689.06
0.8172,0.1828	-2721.33
0.9489,0.0511	-2624.38
0.8281,0.1719	-2737.20
0.7980,0.2020	-2729.98
0.7898,0.2102	-2751.26
0.8717,0.1283	-2715.89
0.7988,0.2012	-2731.35
0.9450,0.0550	-2638.81
0.8139,0.1861	-2722.82
0.7894,0.2106	-2730.09
0.7651,0.2349	-2744.20
0.8892,0.1108	-2662.42
0.7630,0.2370	-2740.71
0.9455,0.0545	-2653.09
0.7932,0.2068	-2735.40
0.7892,0.2108	-2727.46
0.7457,0.2543	-2738.24
0.9045,0.0955	-2675.10
0.7827,0.2173	-2732.85
0.9383,0.0617	-2649.63
0.8077,0.1923	-2724.30
0.7923,0.2077	-2735.39
0.7447,0.2553	-2741.53
0.8992,0.1008	-2668.37
0.7850,0.2150	-2750.93
0.9438,0.0562	-2627.49
0.7892,0.2108	-2739.33
0.7927,0.2073	-2731.37
0.7858,0.2142	-2750.98
0.8960,0.1040	-2677.05
0.7821,0.2179	-2759.70
0.9383,0.0617	-2657.79
0.8197,0.1803	-2704.68
0.7768,0.2232	-2741.75
0.8319,0.1681	-2720.00
0.8898,0.1102	-2677.00
0.7766,0.2234	-2744.24
0.9414,0.0586	-2658.18
0.8117,0.1883	-2716.98
0.7519,0.2481	-2748.90
0.8539,0.1461	-2694.84
0.8999,0.1001	-2668.36
0.7769,0.2231	-2743.00
0.9389,0.0611	-2619.61
0.7948,0.2052	-2711.04
0.7382,0.2618	-2758.56
0.8585,0.1415	-2716.39
0.8620,0.1380	-2683.72
0.7409,0.2591	-2743.89
0.9492,0.0508	-2609.74
0.8077,0.1923	-2724.30
0.7483,0.2517	-2745.69
0.8429,0.1571	-2691.93
0.8386,0.1614	-2716.96
0.8176,0.1824	-2725.83
0.9406,0.0594	-2641.49
0.7893,0.2107	-2732.73
0.7404,0.2596	-2742.87
0.8304,0.1696	-2713.60
0.8372,0.1628	-2716.92
0.7821,0.2179	-2735.42
0.9504,0.0496	-2627.28
0.7873,0.2127	-2747.15
0.7541,0.2459	-2750.00
0.7993,0.2007	-2735.50
0.8295,0.1705	-2707.28
0.8187,0.1813	-2737.92
0.9474,0.0526	-2638.91
0.7635,0.2365	-2741.87
0.7690,0.2310	-2759.82
0.8039,0.1961	-2734.22
0.8558,0.1442	-2693.02
0.8184,0.1816	-2718.32
0.9474,0.0526	-2650.47
0.7565,0.2435	-2736.40
0.7649,0.2351	-2745.38
0.7998,0.2002	-2731.36
0.8439,0.1561	-2710.42
0.8225,0.1775	-2724.43
0.9432,0.0568	-2624.71
0.7571,0.2429	-2737.50
0.7660,0.2340	-2747.75
0.8192,0.1808	-2740.98
0.8500,0.1500	-2701.91
0.7812,0.2188	-2741.79
0.9177,0.0823	-2663.98
0.7601,0.2399	-2755.79
0.7570,0.2430	-2738.64
0.8338,0.1662	-2715.22
0.8024,0.1976	-2736.99
0.7595,0.2405	-2740.82
0.8997,0.1003	-2677.14
0.7226,0.2774	-2759.59
0.7630,0.2370	-2760.59
0.8456,0.1544	-2715.56
0.8053,0.1947	-2720.07
0.7346,0.2654	-2749.38
0.8976,0.1024	-2666.23
0.7272,0.2728	-2767.39
0.7250,0.2750	-2754.72
0.8266,0.1734	-2713.63
0.8023,0.1977	-2732.78
0.7587,0.2413	-2753.45
0.8938,0.1062	-2694.05
0.7126,0.2874	-2761.64
0.7772,0.2228	-2746.75
0.7922,0.2078	-2739.40
0.8129,0.1871	-2730.17
0.7289,0.2711	-2761.52
0.9154,0.0846	-2661.53
0.7294,0.2706	-2759.54
0.7635,0.2365	-2737.18
0.7519,0.2481	-2754.44
0.8010,0.1990	-2718.83
0.7370,0.2630	-2738.97
0.9238,0.0762	-2669.29
0.7245,0.2755	-2763.44
0.7759,0.2241	-2752.93
0.8453,0.1547	-2701.96
0.8008,0.1992	-2728.58
0.7890,0.2110	-2731.42
0.9104,0.0896	-2661.50
0.7457,0.2543	-2753.31
0.7529,0.2471	-2766.72
0.8473,0.1527	-2712.21
0.7772,0.2228	-2739.26
0.7707,0.2293	-2733.28
0.9138,0.0862	-2647.34
0.7511,0.2489	-2744.49
0.7365,0.2635	-2766.77
0.8488,0.1512	-2693.29
0.8053,0.1947	-2738.53
0.7333,0.2667	-2767.64
0.8818,0.1182	-2675.12
0.7617,0.2383	-2732.62
0.7696,0.2304	-2736.95
0.8491,0.1509	-2703.64
0.8143,0.1857	-2709.51
0.7319,0.2681	-2748.50
0.8616,0.1384	-2711.18
0.7245,0.2755	-2748.94
0.7695,0.2305	-2735.74
0.8566,0.1434	-2703.72
0.7798,0.2202	-2746.83
0.7246,0.2754	-2769.24
0.8448,0.1552	-2722.30
0.7111,0.2889	-2757.18
0.7541,0.2459	-2726.46
0.8730,0.1270	-2700.62
0.7725,0.2275	-2733.19
0.7273,0.2727	-2762.49
0.8396,0.1604	-2702.10
0.7146,0.2854	-2770.78
0.7776,0.2224	-2748.02
0.8586,0.1414	-2705.57
0.7768,0.2232	-2746.74
0.7672,0.2328	-2744.19
0.8501,0.1499	-2698.44
0.7545,0.2455	-2746.63
0.8172,0.1828	-2727.32
0.8604,0.1396	-2703.82
0.8051,0.1949	-2731.42
0.7860,0.2140	-2740.59
0.8356,0.1644	-2694.11
0.7551,0.2449	-2757.88
0.8267,0.1733	-2726.13
0.8735,0.1265	-2692.92
0.8363,0.1637	-2715.26
0.8229,0.1771	-2706.01
0.8832,0.1168	-2675.06
0.7149,0.2851	-2772.63
0.8161,0.1839	-2712.39
0.8760,0.1240	-2687.12
0.8276,0.1724	-2691.66
0.8290,0.1710	-2735.71
0.8883,0.1117	-2666.64
0.7264,0.2736	-2756.62
0.8136,0.1864	-2728.71
0.8676,0.1324	-2696.61
0.8073,0.1927	-2725.74
0.8241,0.1759	-2738.38
0.8862,0.1138	-2691.40
0.7592,0.2408	-2741.98
0.8191,0.1809	-2730.40
0.8566,0.1434	-2685.84
0.8276,0.1724	-2693.23
0.7795,0.2205	-2736.72
0.8741,0.1259	-2698.74
0.7133,0.2867	-2763.45
0.8072,0.1928	-2730.03
0.8414,0.1586	-2725.41
0.8107,0.1893	-2701.01
0.7758,0.2242	-2735.54
0.8715,0.1285	-2700.54
0.7382,0.2618	-2754.42
0.8524,0.1476	-2701.90
0.8703,0.1297	-2702.39
0.7935,0.2065	-2739.44
0.7721,0.2279	-2738.09
0.8931,0.1069	-2672.76
0.7518,0.2482	-2757.77
0.8637,0.1363	-2687.33
0.8841,0.1159	-2691.29
0.7728,0.2272	-2744.20
0.7810,0.2190	-2727.80
0.8752,0.1248	-2687.12
0.7891,0.2109	-2745.93
0.8644,0.1356	-2687.30
0.8757,0.1243	-2685.16
0.7667,0.2333	-2746.57
0.8091,0.1909	-2737.29
0.8830,0.1170	-2701.35
0.7596,0.2404	-2751.17
0.8702,0.1298	-2681.45
0.8837,0.1163	-2693.30
0.8062,0.1938	-2735.72
0.7941,0.2059	-2743.51
0.8666,0.1334	-2687.24
0.7422,0.2578	-2739.59
0.8690,0.1310	-2704.21
0.8700,0.1300	-2717.58
0.8158,0.1842	-2712.40
0.8289,0.1711	-2693.10
0.8700,0.1300	-2698.57
0.7339,0.2661	-2757.52
0.8702,0.1298	-2711.90
0.8542,0.1458	-2687.76
0.8395,0.1605	-2703.76
0.8368,0.1632	-2725.08
0.8758,0.1242	-2685.16
0.7043,0.2957	-2756.68
0.8640,0.1360	-2715.05
0.8697,0.1303	-2708.05
0.8387,0.1613	-2720.26
0.8334,0.1666	-2705.56
0.8669,0.1331	-2696.60
0.6809,0.3191	-2773.06
0.8600,0.1400	-2700.18
0.8598,0.1402	-2709.24
0.8453,0.1547	-2707.05
0.8422,0.1578	-2710.40
0.8685,0.1315	-2700.41
0.6527,0.3473	-2779.24
0.8642,0.1358	-2683.61
0.8604,0.1396	-2698.36
0.8453,0.1547	-2700.26
0.8344,0.1656	-2723.31
0.8533,0.1467	-2680.77
0.6570,0.3430	-2778.48
0.8638,0.1362	-2692.86
0.8260,0.1740	-2712.08
0.8442,0.1558	-2712.12
0.8568,0.1432	-2718.03
0.8570,0.1430	-2692.98
0.6947,0.3053	-2766.43
0.8547,0.1453	-2709.00
0.8166,0.1834	-2727.31
0.8466,0.1534	-2729.27
0.8474,0.1526	-2713.93
0.8306,0.1694	-2707.24
0.7091,0.2909	-2767.97
0.8434,0.1566	-2708.73
0.7664,0.2336	-2737.06
0.8265,0.1735	-2708.95
0.8646,0.1354	-2720.67
0.7830,0.2170	-2744.39
0.7143,0.2857	-2752.45
0.8626,0.1374	-2683.69
0.7335,0.2665	-2736.26
0.7888,0.2112	-2722.20
0.8694,0.1306	-2681.49
0.8373,0.1627	-2716.92
0.6547,0.3453	-2781.10
0.8507,0.1493	-2701.90
0.6986,0.3014	-2763.81
0.7589,0.2411	-2740.84
0.8552,0.1448	-2684.16
0.8575,0.1425	-2705.53
0.6730,0.3270	-2777.58
0.8521,0.1479	-2696.65
0.7220,0.2780	-2757.70
0.7684,0.2316	-2742.98
0.8386,0.1614	-2705.43
0.8902,0.1098	-2681.18
0.6939,0.3061	-2766.46
0.8216,0.1784	-2715.25
0.7309,0.2691	-2752.55
0.7436,0.2564	-2753.32
0.8488,0.1512	-2708.82
0.9030,0.0970	-2668.35
0.7274,0.2726	-2750.71
0.8356,0.1644	-2729.88
0.7733,0.2267	-2738.07
0.6860,0.3140	-2773.01
0.8444,0.1556	-2698.60
0.8873,0.1127	-2712.10
0.6785,0.3215	-2767.13
0.8283,0.1717	-2716.76
0.7288,0.2712	-2755.59
0.6800,0.3200	-2771.57
0.8309,0.1691	-2712.01
0.8855,0.1145	-2677.04
0.6641,0.3359	-2785.16
0.8113,0.1887	-2719.91
0.7463,0.2537	-2761.94
0.7026,0.2974	-2771.41
0.8301,0.1699	-2719.95
0.8591,0.1409	-2701.97
0.7175,0.2825	-2759.69
0.8301,0.1699	-2704.09
0.7174,0.2826	-2768.08
0.7400,0.2600	-2771.14
0.8364,0.1636	-2708.74
0.8907,0.1093	-2695.88
0.7349,0.2651	-2755.48
0.8429,0.1571	-2707.05
0.7314,0.2686	-2751.53
0.7546,0.2454	-2750.00
0.8129,0.1871	-2736.04
0.8778,0.1222	-2693.04
0.6938,0.3062	-2769.73
0.8715,0.1285	-2689.06
0.7467,0.2533	-2751.15
0.7562,0.2438	-2742.08
0.8358,0.1642	-2700.61
0.8742,0.1258	-2700.69
0.6887,0.3113	-2779.35
0.8668,0.1332	-2657.26
0.7794,0.2206	-2729.15
0.7620,0.2380	-2746.56
0.8400,0.1600	-2733.59
0.8724,0.1276	-2698.67
0.6994,0.3006	-2768.00
0.8858,0.1142	-2683.18
0.8229,0.1771	-2735.20
0.7700,0.2300	-2728.47
0.8262,0.1738	-2704.28
0.8749,0.1251	-2685.17
0.6576,0.3424	-2769.34
0.8797,0.1203	-2683.16
0.8072,0.1928	-2714.28
0.7687,0.2313	-2751.39
0.8519,0.1481	-2712.40
0.8398,0.1602	-2710.38
0.6900,0.3100	-2763.39
0.8699,0.1301	-2706.17
0.7913,0.2087	-2739.38
0.7776,0.2224	-2735.50
0.8590,0.1410	-2703.78
0.8506,0.1494	-2715.82
0.7224,0.2776	-2754.82
0.8610,0.1390	-2700.19
0.7925,0.2075	-2754.15
0.7668,0.2332	-2756.09
0.8447,0.1553	-2703.66
0.8292,0.1708	-2715.19
0.7477,0.2523	-2745.71
0.8810,0.1190	-2699.17
0.8069,0.1931	-2721.45
0.7628,0.2372	-2746.56
0.8232,0.1768	-2719.84
0.8423,0.1577	-2710.40
0.7763,0.2237	-2744.24
0.8574,0.1426	-2692.97
0.7853,0.2147	-2734.09
0.7543,0.2457	-2728.69
0.8076,0.1924	-2722.87
0.8453,0.1547	-2729.13
0.8227,0.1773	-2725.97
0.8822,0.1178	-2658.99
0.8029,0.1971	-2732.79
0.6998,0.3002	-2763.76
0.8357,0.1643	-2729.89
0.8752,0.1248	-2677.38
0.7915,0.2085	-2731.38
0.8928,0.1072	-2679.12
0.8015,0.1985	-2727.18
0.6986,0.3014	-2762.13
0.8475,0.1525	-2712.22
0.8657,0.1343	-2692.85
0.8129,0.1871	-2718.41
0.8774,0.1226	-2687.12
0.7531,0.2469	-2747.77
0.6972,0.3028	-2763.03
0.8508,0.1492	-2721.05
0.8818,0.1182	-2685.16
0.8387,0.1613	-2695.53
0.8792,0.1208	-2681.18
0.7594,0.2406	-2748.87
0.6796,0.3204	-2770.83
0.8783,0.1217	-2685.15
0.9079,0.0921	-2659.25
0.8738,0.1262	-2685.19
0.8768,0.1232	-2689.08
0.7525,0.2475	-2740.00
0.7083,0.2917	-2766.19
0.8696,0.1304	-2670.09
0.9167,0.0833	-2663.95
0.8871,0.1129	-2674.96
0.8735,0.1265	-2696.78
0.7611,0.2389	-2747.72
0.7121,0.2879	-2755.31
0.8794,0.1206	-2689.12
0.9168,0.0832	-2663.95
0.8852,0.1148	-2656.62
0.8883,0.1117	-2660.42
0.7625,0.2375	-2748.89
0.6917,0.3083	-2772.18
0.8682,0.1318	-2685.31
0.9011,0.0989	-2670.56
0.8806,0.1194	-2691.15
0.8994,0.1006	-2681.51
0.7246,0.2754	-2753.77
0.7369,0.2631	-2751.34
0.8588,0.1412	-2705.58
0.9155,0.0845	-2666.29
0.8838,0.1162	-2679.10
0.8964,0.1036	-2659.79
0.7313,0.2687	-2767.55
0.7461,0.2539	-2724.20
0.8719,0.1281	-2673.71
0.9199,0.0801	-2668.96
0.9054,0.0946	-2670.62
0.9094,0.0906	-2682.27
0.7802,0.2198	-2744.31
0.7687,0.2313	-2746.58
0.8648,0.1352	-2668.73
0.9183,0.0817	-2661.58
0.9172,0.0828	-2656.75
0.9146,0.0854	-2671.00
0.7953,0.2047	-2724.57
0.7775,0.2225	-2733.00
0.8801,0.1199	-2681.17
0.9297,0.0703	-2651.90
0.9157,0.0843	-2654.37
0.9259,0.0741	-2651.84
0.8048,0.1952	-2728.58
0.7806,0.2194	-2745.59
0.8885,0.1115	-2664.55
0.9152,0.0848	-2652.00
0.9175,0.0825	-2656.75
0.9236,0.0764	-2659.31
0.8124,0.1876	-2733.08
0.7966,0.2034	-2735.45
0.8682,0.1318	-2687.20
0.9145,0.0855	-2694.69
0.9299,0.0701	-2641.56
0.9187,0.0813	-2661.60
0.7841,0.2159	-2740.55
0.7610,0.2390	-2740.77
0.8447,0.1553	-2712.13
0.8958,0.1042	-2687.80
0.9185,0.0815	-2644.63
0.9117,0.0883	-2656.83
0.7942,0.2058	-2732.71
0.7699,0.2301	-2757.47
0.8217,0.1783	-2716.77
0.9149,0.0851	-2663.89
0.9307,0.0693	-2651.93
0.8899,0.1101	-2670.73
0.7957,0.2043	-2713.67
0.7706,0.2294	-2755.09
0.8125,0.1875	-2714.02
0.9112,0.0888	-2673.14
0.9318,0.0682	-2654.58
0.8686,0.1314	-2689.08
0.7747,0.2253	-2741.75
0.7707,0.2293	-2747.82
0.7890,0.2110	-2735.37
0.9034,0.0966	-2654.93
0.9311,0.0689	-2644.13
0.8715,0.1285	-2700.54
0.7555,0.2445	-2728.56
0.7692,0.2308	-2723.71
0.7595,0.2405	-2769.56
0.8852,0.1148	-2677.05
0.9413,0.0587	-2663.71
0.8825,0.1175	-2695.26
0.7570,0.2430	-2740.91
0.7735,0.2265	-2757.72
0.7353,0.2647	-2750.37
0.8774,0.1226	-2696.96
0.9345,0.0655	-2654.75
0.8762,0.1238	-2692.99
0.7436,0.2564	-2740.54
0.7632,0.2368	-2741.87
0.7309,0.2691	-2747.55
0.8556,0.1444	-2689.46
0.9185,0.0815	-2673.71
0.8683,0.1317	-2696.63
0.7486,0.2514	-2750.04
0.7776,0.2224	-2736.75
0.7520,0.2480	-2730.04
0.8569,0.1431	-2712.67
0.9191,0.0809	-2668.90
0.8746,0.1254	-2685.17
0.7540,0.2460	-2739.92
0.8099,0.1901	-2740.23
0.7507,0.2493	-2752.22
0.8631,0.1369	-2698.39
0.9215,0.0785	-2661.70
0.8673,0.1327	-2696.61
0.7739,0.2261	-2741.75
0.7818,0.2182	-2739.25
0.7100,0.2900	-2762.60
0.8449,0.1551	-2707.05
0.9067,0.0933	-2672.93
0.8892,0.1108	-2701.99
0.7589,0.2411	-2739.70
0.7879,0.2121	-2736.69
0.6774,0.3226	-2780.55
0.8473,0.1527	-2724.21
0.9045,0.0955	-2663.86
0.8640,0.1360	-2705.80
0.7418,0.2582	-2760.72
0.7698,0.2302	-2733.32
0.6452,0.3548	-2778.30
0.7874,0.2126	-2736.69
0.8804,0.1196	-2665.19
0.8654,0.1346	-2677.97
0.7550,0.2450	-2752.25
0.7515,0.2485	-2758.87
0.6718,0.3282	-2778.30
0.7755,0.2245	-2738.03
0.8781,0.1219	-2706.87
0.8349,0.1651	-2713.62
0.7469,0.2531	-2764.13
0.7975,0.2025	-2716.27
0.7039,0.2961	-2765.37
0.7809,0.2191	-2732.89
0.8765,0.1235	-2692.99
0.8389,0.1611	-2708.72
0.7586,0.2414	-2754.59
0.7837,0.2163	-2741.83
0.7526,0.2474	-2756.68
0.7640,0.2360	-2763.00
0.8820,0.1180	-2691.20
0.8270,0.1730	-2705.80
0.7717,0.2283	-2732.01
0.8186,0.1814	-2740.92
0.7709,0.2291	-2746.61
0.8035,0.1965	-2739.84
0.8820,0.1180	-2687.18
0.8398,0.1602	-2713.69
0.7978,0.2022	-2725.86
0.8089,0.1911	-2756.04
0.7286,0.2714	-2771.39
0.7948,0.2052	-2715.11
0.8962,0.1038	-2674.89
0.8557,0.1443	-2705.48
0.8241,0.1759	-2709.04
0.8444,0.1556	-2725.66
0.7256,0.2744	-2768.31
0.7644,0.2356	-2744.20
0.8993,0.1007	-2670.56
0.8509,0.1491	-2712.35
0.8142,0.1858	-2715.43
0.8583,0.1417	-2696.55
0.7495,0.2505	-2747.84
0.7502,0.2498	-2753.32
0.8939,0.1061	-2694.06
0.8648,0.1352	-2691.00
0.8514,0.1486	-2717.61
0.8529,0.1471	-2708.93
0.7794,0.2206	-2730.41
0.7544,0.2456	-2743.27
0.8829,0.1171	-2677.10
0.8454,0.1546	-2710.45
0.8577,0.1423	-2694.76
0.8378,0.1622	-2705.44
0.7537,0.2463	-2751.12
0.7545,0.2455	-2743.26
0.8607,0.1393	-2705.65
0.8576,0.1424	-2716.31
0.8817,0.1183	-2673.11
0.8391,0.1609	-2723.59
0.7288,0.2712	-2761.52
0.7583,0.2417	-2725.99
0.8553,0.1447	-2701.92
0.8523,0.1477	-2715.92
0.8836,0.1164	-2691.27
0.8508,0.1492	-2696.68
0.7302,0.2698	-2748.58
0.7869,0.2131	-2731.46
0.8528,0.1472	-2701.90
0.8679,0.1321	-2687.21
0.8843,0.1157	-2681.13
0.8334,0.1666	-2715.22
0.7073,0.2927	-2768.84
0.7599,0.2401	-2744.26
0.8437,0.1563	-2722.22
0.8219,0.1781	-2722.89
0.8658,0.1342	-2698.44
0.8084,0.1916	-2721.42
0.7043,0.2957	-2768.83
0.7944,0.2056	-2730.01
0.8329,0.1671	-2732.88
0.8244,0.1756	-2713.66
0.8802,0.1198	-2683.16
0.7713,0.2287	-2727.17
0.6682,0.3318	-2774.81
0.7991,0.2009	-2752.06
0.8329,0.1671	-2707.18
0.8251,0.1749	-2730.71
0.8638,0.1362	-2694.71
0.7438,0.2562	-2752.25
0.6767,0.3233	-2775.36
0.8068,0.1932	-2720.02
0.8270,0.1730	-2721.45
0.8101,0.1899	-2721.39
0.8738,0.1262	-2694.86
0.7557,0.2443	-2755.65
0.7054,0.2946	-2750.50
0.8311,0.1689	-2715.20
0.7986,0.2014	-2717.58
0.8311,0.1689	-2707.23
0.8672,0.1328	-2692.85
0.7833,0.2167	-2735.40
0.6751,0.3249	-2773.92
0.8514,0.1486	-2701.90
0.8062,0.1938	-2718.61
0.8458,0.1542	-2720.67
0.8639,0.1361	-2705.80
0.7276,0.2724	-2761.51
0.7264,0.2736	-2753.70
0.8751,0.1249	-2692.96
0.8491,0.1509	-2710.55
0.8653,0.1347	-2690.99
0.8945,0.1055	-2668.47
0.7187,0.2813	-2761.54
0.7934,0.2066	-2730.02
0.9007,0.0993	-2677.18
0.8477,0.1523	-2677.90
0.8560,0.1440	-2696.58
0.8883,0.1117	-2695.66
0.7324,0.2676	-2751.49
0.7798,0.2202	-2741.78
0.9186,0.0814	-2673.71
0.8434,0.1566	-2691.90
0.8437,0.1563	-2715.48
0.8913,0.1087	-2691.73
0.7268,0.2732	-2760.53
0.8181,0.1819	-2719.83
0.9054,0.0946	-2677.40
0.8243,0.1757	-2693.57
0.8045,0.1955	-2725.75
0.8734,0.1266	-2694.85
0.6829,0.3171	-2758.46
0.8418,0.1582	-2718.76
0.9048,0.0952	-2663.85
0.8100,0.1900	-2725.74
0.8305,0.1695	-2726.32
0.8754,0.1246	-2675.42
0.6821,0.3179	-2778.39
0.8265,0.1735	-2708.95
0.8961,0.1039	-2681.36
0.8040,0.1960	-2727.17
0.8105,0.1895	-2722.83
0.8921,0.1079	-2681.22
0.6826,0.3174	-2769.21
0.8095,0.1905	-2732.97
0.8820,0.1180	-2685.17
0.7946,0.2054	-2723.24
0.8412,0.1588	-2700.38
0.8855,0.1145	-2695.45
0.7150,0.2850	-2763.43
0.8169,0.1831	-2713.86
0.8944,0.1056	-2677.02
0.7554,0.2446	-2737.59
0.8487,0.1513	-2686.39
0.8989,0.1011	-2683.67
0.7066,0.2934	-2768.84
0.8066,0.1934	-2730.02
0.9095,0.0905	-2673.05
0.7312,0.2688	-2740.52
0.8525,0.1475	-2703.66
0.8913,0.1087	-2670.68
0.6952,0.3048	-2766.42
0.8221,0.1779	-2733.61
0.9087,0.0913	-2650.03
0.7736,0.2264	-2730.69
0.8845,0.1155	-2685.20
0.8957,0.1043	-2679.19
0.6928,0.3072	-2762.42
0.8214,0.1786	-2721.35
0.9171,0.0829	-2675.98
0.7660,0.2340	-2737.08
0.8718,0.1282	-2685.22
0.8925,0.1075	-2685.47
0.7406,0.2594	-2756.49
0.8345,0.1655	-2710.38
0.9168,0.0832	-2639.96
0.7497,0.2503	-2754.41
0.8814,0.1186	-2701.21
0.9065,0.0935	-2663.83
0.7092,0.2908	-2759.95
0.8362,0.1638	-2720.15
0.9154,0.0846	-2649.62
0.7553,0.2447	-2746.62
0.8895,0.1105	-2695.77
0.9104,0.0896	-2673.10
0.6660,0.3340	-2773.49
0.8159,0.1841	-2719.84
0.9070,0.0930	-2657.00
0.7541,0.2459	-2744.40
0.8788,0.1212	-2671.28
0.9078,0.0922	-2670.68
0.6784,0.3216	-2768.63
0.8103,0.1897	-2733.00
0.8917,0.1083	-2668.57
0.7500,0.2500	-2746.73
0.9031,0.0969	-2677.28
0.9133,0.0867	-2668.57
0.7043,0.2957	-2772.30
0.7925,0.2075	-2721.99
0.8842,0.1158	-2679.10
0.7597,0.2403	-2733.90
0.8973,0.1027	-2668.40
0.9173,0.0827	-2678.40
0.7497,0.2503	-2734.67
0.8034,0.1966	-2732.80
0.8825,0.1175	-2695.25
0.7646,0.2354	-2743.02
0.8889,0.1111	-2687.40
0.9080,0.0920	-2684.43
0.7535,0.2465	-2751.12
0.7945,0.2055	-2735.41
0.8831,0.1169	-2685.18
0.7451,0.2549	-2745.80
0.8849,0.1151	-2681.13
0.8924,0.1076	-2662.19
0.7014,0.2986	-2764.56
0.8061,0.1939	-2724.32
0.8654,0.1346	-2690.99
0.7508,0.2492	-2744.50
0.8859,0.1141	-2693.43
0.8738,0.1262	-2698.73
0.6842,0.3158	-2762.97
0.8378,0.1622	-2725.15
0.8550,0.1450	-2703.69
0.7338,0.2662	-2774.76
0.8781,0.1219	-2691.07
0.8622,0.1378	-2700.22
0.6453,0.3547	-2781.88
0.8331,0.1669	-2700.75
0.8721,0.1279	-2689.05
0.7333,0.2667	-2752.47
0.8889,0.1111	-2699.87
0.8481,0.1519	-2700.20
0.6601,0.3399	-2771.77
0.8337,0.1663	-2708.77
0.8640,0.1360	-2689.16
0.7378,0.2622	-2760.63
0.8780,0.1220	-2696.99
0.8435,0.1565	-2707.05
0.6974,0.3026	-2770.53
0.8056,0.1944	-2732.85
0.8573,0.1427	-2701.94
0.7476,0.2524	-2745.71
0.8877,0.1123	-2677.01
0.8333,0.1667	-2702.34
0.7167,0.2833	-2749.50
0.7950,0.2050	-2734.06
0.8403,0.1597	-2702.08
0.7604,0.2396	-2748.87
0.8721,0.1279	-2714.00
0.8886,0.1114	-2670.77
0.7298,0.2702	-2753.58
0.8123,0.1877	-2714.03
0.8398,0.1602	-2705.41
0.7636,0.2364	-2751.25
0.8787,0.1213	-2693.07
0.8752,0.1248	-2683.22
0.7401,0.2599	-2757.54
0.7950,0.2050	-2735.42
0.8462,0.1538	-2691.71
0.7250,0.2750	-2756.66
0.8634,0.1366	-2676.27
0.8621,0.1379	-2691.05
0.7713,0.2287	-2729.60
0.7472,0.2528	-2760.90
0.8410,0.1590	-2728.71
0.6843,0.3157	-2771.47
0.8846,0.1154	-2681.13
0.8435,0.1565	-2703.68
0.7539,0.2461	-2753.36
0.7552,0.2448	-2750.00
0.8491,0.1509	-2707.10
0.7452,0.2548	-2750.09
0.8968,0.1032	-2681.39
0.7934,0.2066	-2727.33
0.7604,0.2396	-2740.79
0.7856,0.2144	-2741.88
0.8513,0.1487	-2703.65
0.8014,0.1986	-2752.29
0.9051,0.0949	-2668.36
0.8268,0.1732	-2715.19
0.7636,0.2364	-2744.21
0.7645,0.2355	-2744.20
0.8409,0.1591	-2727.03
0.7996,0.2004	-2732.74
0.9076,0.0924	-2654.68
0.8116,0.1884	-2709.68
0.7954,0.2046	-2731.35
0.7918,0.2082	-2736.72
0.8595,0.1405	-2720.09
0.7788,0.2212	-2739.25
0.9089,0.0911	-2682.23
0.7966,0.2034	-2709.50
0.7694,0.2306	-2741.77
0.7610,0.2390	-2743.09
0.8860,0.1140	-2685.23
0.7561,0.2439	-2740.95
0.9105,0.0895	-2647.58
0.8003,0.1997	-2731.36
0.8014,0.1986	-2731.37
0.7499,0.2501	-2746.73
0.9039,0.0961	-2684.04
0.7728,0.2272	-2734.40
0.9095,0.0905	-2663.82
0.8055,0.1945	-2728.59
0.7879,0.2121	-2743.25
0.7165,0.2835	-2753.23
0.9020,0.0980	-2668.35
0.8152,0.1848	-2727.27
0.8967,0.1033	-2668.42
0.7994,0.2006	-2720.29
0.7819,0.2181	-2736.70
0.7372,0.2628	-2739.98
0.9018,0.0982	-2637.30
0.8027,0.1973	-2728.58
0.8916,0.1084	-2681.21
0.7879,0.2121	-2736.69
0.7745,0.2255	-2738.04
0.7159,0.2841	-2768.05
0.8774,0.1226	-2698.93
0.8106,0.1894	-2719.92
0.8823,0.1177	-2685.17
0.8189,0.1811	-2710.77
0.8210,0.1790	-2742.67
0.7174,0.2826	-2761.56
0.8728,0.1272	-2714.09
0.8148,0.1852	-2736.15
0.8577,0.1423	-2682.19
0.8020,0.1980	-2731.38
0.8039,0.1961	-2741.28
0.7245,0.2755	-2771.17
0.8644,0.1356	-2696.56
0.8205,0.1795	-2719.83
0.8306,0.1694	-2716.78
0.8014,0.1986	-2728.58
0.8151,0.1849	-2748.04
0.7397,0.2603	-2759.62
0.8940,0.1060	-2672.75
0.7997,0.2003	-2735.51
0.8094,0.1906	-2732.97
0.7946,0.2054	-2708.36
0.8457,0.1543	-2717.27
0.7524,0.2476	-2740.00
0.8800,0.1200	-2697.10
0.7866,0.2134	-2728.85
0.8327,0.1673	-2705.58
0.7800,0.2200	-2750.64
0.8672,0.1328	-2690.97
0.7526,0.2474	-2751.12
0.8741,0.1259	-2689.06
0.8001,0.1999	-2728.59
0.8338,0.1662	-2708.77
0.7842,0.2158	-2728.94
0.8724,0.1276	-2690.98
0.7587,0.2413	-2751.16
0.8796,0.1204	-2683.16
0.8229,0.1771	-2719.84
0.8189,0.1811	-2713.79
0.7568,0.2432	-2740.92
0.8647,0.1353	-2698.42
0.7382,0.2618	-2749.23
0.8803,0.1197	-2673.18
0.8467,0.1533	-2674.60
0.8198,0.1802	-2718.31
0.7747,0.2253	-2730.63
0.8440,0.1560	-2701.98
0.7021,0.2979	-2767.97
0.8484,0.1516	-2707.09
0.8612,0.1388	-2712.98
0.8055,0.1945	-2737.11
0.7647,0.2353	-2726.52
0.8429,0.1571	-2703.69
0.7503,0.2497	-2746.72
0.8678,0.1322	-2713.55
0.8675,0.1325	-2692.85
0.7993,0.2007	-2727.21
0.7454,0.2546	-2754.38
0.8198,0.1802	-2713.77
0.6838,0.3162	-2765.31
0.8577,0.1423	-2694.76
0.8755,0.1245	-2655.91
0.7570,0.2430	-2739.78
0.7665,0.2335	-2740.62
0.8420,0.1580	-2717.09
0.6890,0.3110	-2769.81
0.8603,0.1397	-2696.55
0.8572,0.1428	-2703.73
0.7841,0.2159	-2743.13
0.7580,0.2420	-2739.73
0.8665,0.1335	-2709.68
0.7053,0.2947	-2763.60
0.8686,0.1314	-2706.08
0.8593,0.1407	-2711.02
0.8225,0.1775	-2727.50
0.7491,0.2509	-2734.72
0.8492,0.1508	-2717.47
0.7418,0.2582	-2756.50
0.8453,0.1547	-2700.26
0.8526,0.1474	-2705.41
0.8043,0.1957	-2729.99
0.6952,0.3048	-2773.01
0.8199,0.1801	-2716.79
0.7447,0.2553	-2756.52
0.8879,0.1121	-2689.43
0.8627,0.1373	-2694.71
0.7893,0.2107	-2735.37
0.7250,0.2750	-2759.57
0.8229,0.1771	-2718.30
0.7742,0.2258	-2723.26
0.8925,0.1075	-2683.35
0.8817,0.1183	-2673.11
0.7948,0.2052	-2743.54
0.7334,0.2666	-2746.39
0.8483,0.1517	-2727.74
0.7935,0.2065	-2720.59
0.8985,0.1015	-2694.55
0.8764,0.1236	-2677.32
0.7799,0.2201	-2720.27
0.7339,0.2661	-2740.28
0.8404,0.1596	-2717.03
0.7556,0.2444	-2748.87
0.8903,0.1097	-2674.90
0.8929,0.1071	-2685.49
0.7873,0.2127	-2736.68
0.7290,0.2710	-2747.67
0.8631,0.1369	-2683.66
0.7602,0.2398	-2740.79
0.8653,0.1347	-2698.43
0.8884,0.1116	-2681.15
0.8241,0.1759	-2693.60
0.7540,0.2460	-2743.28
0.8969,0.1031	-2659.76
0.8132,0.1868	-2736.06
0.8425,0.1575	-2696.99
0.8779,0.1221	-2693.04
0.8045,0.1955	-2725.75
0.7655,0.2345	-2744.19
0.8823,0.1177	-2697.26
0.8245,0.1755	-2712.11
0.8738,0.1262	-2687.12
0.8787,0.1213	-2685.15
0.8239,0.1761	-2696.70
0.7454,0.2546	-2755.46
0.8853,0.1147	-2705.66
0.8141,0.1859	-2722.82
0.8975,0.1025	-2672.74
0.8727,0.1273	-2677.50
0.7859,0.2141	-2740.58
0.7588,0.2412	-2754.60
0.8867,0.1133	-2677.02
0.8119,0.1881	-2737.45
0.8762,0.1238	-2696.90
0.8737,0.1263	-2677.45
0.7874,0.2126	-2743.23
0.7268,0.2732	-2754.66
0.8539,0.1461	-2696.61
0.8083,0.1917	-2714.22
0.8468,0.1532	-2698.52
0.8731,0.1269	-2698.70
0.8157,0.1843	-2703.49
0.7460,0.2540	-2756.54
0.8427,0.1573	-2710.41
0.8059,0.1941	-2734.28
0.8275,0.1725	-2708.92
0.8845,0.1155	-2683.17
0.7848,0.2152	-2728.92
0.7628,0.2372	-2753.56
0.8580,0.1420	-2692.96
0.7928,0.2072	-2728.69
0.7971,0.2029	-2719.04
0.8445,0.1555	-2700.28
0.8007,0.1993	-2727.19
0.7684,0.2316	-2747.78
0.8494,0.1506	-2707.10
0.7977,0.2023	-2720.37
0.8044,0.1956	-2715.85
0.8494,0.1506	-2719.21
0.7771,0.2229	-2746.75
0.7565,0.2435	-2742.06
0.8446,0.1554	-2713.82
0.7673,0.2327	-2732.25
0.7660,0.2340	-2732.33
0.8468,0.1532	-2731.00
0.8085,0.1915	-2725.74
0.7444,0.2556	-2755.45
0.8484,0.1516	-2693.31
0.7848,0.2152	-2725.04
0.7859,0.2141	-2718.48
0.8542,0.1458	-2716.05
0.8210,0.1790	-2718.30
0.7604,0.2396	-2746.56
0.8477,0.1523	-2712.22
0.7698,0.2302	-2739.35
0.7723,0.2277	-2740.53
0.8679,0.1321	-2711.67
0.8268,0.1732	-2718.32
0.7872,0.2128	-2734.07
0.8456,0.1544	-2727.46
0.7477,0.2523	-2753.31
0.7422,0.2578	-2763.91
0.8584,0.1416	-2700.16
0.8137,0.1863	-2722.82
0.7954,0.2046	-2731.35
0.8486,0.1514	-2705.36
0.7720,0.2280	-2734.44
0.7150,0.2850	-2771.71
0.8193,0.1807	-2725.87
0.8214,0.1786	-2704.57
0.8098,0.1902	-2727.19
0.8312,0.1688	-2705.63
0.7937,0.2063	-2739.44
0.6933,0.3067	-2765.66
0.8081,0.1919	-2742.98
0.8320,0.1680	-2712.00
0.8132,0.1868	-2722.82
0.8475,0.1525	-2691.63
0.8332,0.1668	-2716.82
0.6864,0.3136	-2759.69
0.7944,0.2056	-2740.82
0.8221,0.1779	-2727.48
0.8456,0.1544	-2690.05
0.8412,0.1588	-2692.05
0.8257,0.1743	-2698.09
0.6860,0.3140	-2770.66
0.8116,0.1884	-2714.06
0.8507,0.1493	-2708.86
0.8709,0.1291	-2698.60
0.8601,0.1399	-2718.34
0.8062,0.1938	-2728.59
0.7252,0.2748	-2765.39
0.7911,0.2089	-2719.40
0.8293,0.1707	-2713.61
0.8627,0.1373	-2694.71
0.8819,0.1181	-2679.13
0.7770,0.2230	-2720.53
0.7548,0.2452	-2754.50
0.7752,0.2248	-2735.56
0.7972,0.2028	-2721.77
0.8618,0.1382	-2720.34
0.8918,0.1082	-2679.11
0.8001,0.1999	-2721.65
0.7088,0.2912	-2773.30
0.8025,0.1975	-2745.41
0.7703,0.2297	-2740.55
0.8445,0.1555	-2705.36
0.8863,0.1137	-2693.46
0.8026,0.1974	-2715.95
0.7277,0.2723	-2757.58
0.7927,0.2073	-2735.39
0.7817,0.2183	-2744.35
0.8423,0.1577	-2723.80
0.8726,0.1274	-2679.43
0.8450,0.1550	-2707.05
0.7518,0.2482	-2767.74
0.8170,0.1830	-2721.33
0.7686,0.2314	-2732.18
0.8601,0.1399	-2696.55
0.8613,0.1387	-2689.24
0.8193,0.1807	-2707.73
0.7510,0.2490	-2745.60
0.7759,0.2241	-2716.91
0.8225,0.1775	-2719.83
0.8557,0.1443	-2698.36
0.8569,0.1431	-2700.15
0.8247,0.1753	-2710.56
0.7601,0.2399	-2751.18
0.8189,0.1811	-2701.72
0.8398,0.1602	-2705.41
0.8550,0.1450	-2675.30
0.8666,0.1334	-2707.82
0.8561,0.1439	-2701.93
0.7498,0.2502	-2743.44
0.8473,0.1527	-2705.36
0.8312,0.1688	-2740.71
0.8258,0.1742	-2712.09
0.8951,0.1049	-2685.61
0.8775,0.1225	-2681.21
0.7254,0.2746	-2768.31
0.8582,0.1418	-2687.55
0.8410,0.1590	-2710.39
0.7915,0.2085	-2732.72
0.9008,0.0992	-2672.77
0.8691,0.1309	-2700.43
0.7235,0.2765	-2757.66
0.8322,0.1678	-2713.60
0.8432,0.1568	-2708.73
0.8188,0.1812	-2725.86
0.9142,0.0858	-2670.97
0.8907,0.1093	-2687.49
0.7043,0.2957	-2762.76
0.8072,0.1928	-2717.14
0.8368,0.1632	-2720.18
0.7976,0.2024	-2739.58
0.9083,0.0917	-2652.35
0.9079,0.0921	-2656.96
0.7311,0.2689	-2756.54
0.8102,0.1898	-2737.35
0.8435,0.1565	-2695.26
0.8217,0.1783	-2716.77
0.9036,0.0964	-2677.30
0.9155,0.0845	-2663.91
0.7282,0.2718	-2759.54
0.8183,0.1817	-2721.33
0.8625,0.1375	-2689.21
0.7825,0.2175	-2748.21
0.8950,0.1050	-2687.75
0.9108,0.0892	-2656.86
0.7051,0.2949	-2767.09
0.8125,0.1875	-2719.89
0.8844,0.1156	-2701.48
0.7533,0.2467	-2753.35
0.9013,0.0987	-2652.87
0.8832,0.1168	-2677.09
0.7389,0.2611	-2756.49
0.8269,0.1731	-2730.83
0.8566,0.1434	-2716.23
0.7554,0.2446	-2733.09
0.8974,0.1026	-2698.77
0.9029,0.0971	-2688.42
0.7298,0.2702	-2758.55
0.8450,0.1550	-2688.39
0.8756,0.1244	-2687.11
0.7375,0.2625	-2738.92
0.9155,0.0845	-2661.53
0.8924,0.1076	-2668.54
0.7476,0.2524	-2740.28
0.8324,0.1676	-2712.00
0.8605,0.1395	-2694.73
0.7527,0.2473	-2747.78
0.9195,0.0805	-2651.88
0.8766,0.1234	-2671.43
0.7820,0.2180	-2721.37
0.8148,0.1852	-2719.86
0.8490,0.1510	-2715.73
0.7501,0.2499	-2746.72
0.9118,0.0882	-2680.18
0.8984,0.1016	-2659.66
0.7683,0.2317	-2750.18
0.8128,0.1872	-2731.63
0.8473,0.1527	-2724.20
0.7837,0.2163	-2737.97
0.9029,0.0971	-2683.96
0.9060,0.0940	-2668.37
0.7878,0.2122	-2755.05
0.8199,0.1801	-2709.21
0.8556,0.1444	-2693.02
0.8027,0.1973	-2734.19
0.9142,0.0858	-2663.88
0.9207,0.0793	-2666.57
0.7491,0.2509	-2745.66
0.8345,0.1655	-2705.53
0.8600,0.1400	-2721.96
0.8109,0.1891	-2735.93
0.9026,0.0974	-2654.99
0.9229,0.0771	-2659.28
0.7364,0.2636	-2752.38
0.8561,0.1439	-2700.14
0.8394,0.1606	-2715.34
0.8184,0.1816	-2730.37
0.8974,0.1026	-2670.57
0.9180,0.0820	-2666.41
0.7256,0.2744	-2777.07
0.8260,0.1740	-2710.52
0.8480,0.1520	-2700.20
0.8462,0.1538	-2708.77
0.9003,0.0997	-2670.56
0.9248,0.0752	-2666.89
0.7183,0.2817	-2755.93
0.8188,0.1812	-2739.43
0.8468,0.1532	-2701.94
0.8005,0.1995	-2723.03
0.8992,0.1008	-2668.37
0.9232,0.0768	-2654.32
0.7409,0.2591	-2742.84
0.8364,0.1636	-2707.11
0.8738,0.1262	-2718.08
0.7956,0.2044	-2739.51
0.8945,0.1055	-2662.06
0.9148,0.0852	-2644.90
0.7220,0.2780	-2771.06
0.8361,0.1639	-2697.34
0.8623,0.1377	-2692.88
0.8065,0.1935	-2730.02
0.9094,0.0906	-2673.05
0.9139,0.0861	-2666.23
0.7482,0.2518	-2760.94
0.8620,0.1380	-2718.53
0.8225,0.1775	-2725.97
0.8203,0.1797	-2706.16
0.9135,0.0865	-2678.00
0.9217,0.0783	-2664.17
0.7393,0.2607	-2753.36
0.8663,0.1337	-2696.59
0.8057,0.1943	-2728.59
0.7886,0.2114	-2722.21
0.9178,0.0822	-2651.92
0.9050,0.0950	-2675.12
0.7711,0.2289	-2732.04
0.8495,0.1505	-2705.37
0.7836,0.2164	-2736.69
0.7599,0.2401	-2736.20
0.8947,0.1053	-2674.88
0.9038,0.0962	-2663.87
0.8063,0.1937	-2738.57
0.8623,0.1377	-2703.88
0.7687,0.2313	-2748.99
0.7417,0.2583	-2754.39
0.8989,0.1011	-2696.78
0.9055,0.0945	-2668.36
0.8335,0.1665	-2715.22
0.8619,0.1381	-2705.70
0.8196,0.1804	-2728.91
0.7381,0.2619	-2754.42
0.8889,0.1111	-2664.52
0.9073,0.0927	-2691.19
0.7865,0.2135	-2748.42
0.8688,0.1312	-2721.21
0.8281,0.1719	-2702.61
0.7430,0.2570	-2743.77
0.8945,0.1055	-2696.26
0.9102,0.0898	-2675.40
0.7937,0.2063	-2720.58
0.8820,0.1180	-2665.05
0.8500,0.1500	-2710.58
0.7575,0.2425	-2763.68
0.8509,0.1491	-2689.71
0.8951,0.1049	-2674.89
0.8069,0.1931	-2728.60
0.8628,0.1372	-2685.52
0.8360,0.1640	-2710.37
0.7704,0.2296	-2738.13
0.8385,0.1615	-2703.78
0.8963,0.1037	-2664.11
0.8091,0.1909	-2727.18
0.8381,0.1619	-2703.79
0.8109,0.1891	-2725.74
0.7498,0.2502	-2748.93
0.8655,0.1345	-2698.44
0.8819,0.1181	-2689.19
0.7984,0.2016	-2734.10
0.8650,0.1350	-2713.29
0.7993,0.2007	-2746.56
0.7511,0.2489	-2752.22
0.8652,0.1348	-2696.57
0.8704,0.1296	-2696.68
0.7766,0.2234	-2726.80
0.8906,0.1094	-2672.80
0.7812,0.2188	-2735.43
0.7435,0.2565	-2745.87
0.8661,0.1339	-2681.65
0.8879,0.1121	-2668.73
0.7558,0.2442	-2742.09
0.8723,0.1277	-2696.74
0.7487,0.2513	-2748.95
0.7678,0.2322	-2738.20
0.8561,0.1439	-2693.01
0.8632,0.1368	-2702.08
0.7358,0.2642	-2760.59
0.8769,0.1231	-2696.94
0.7647,0.2353	-2748.91
0.7952,0.2048	-2746.27
0.8535,0.1465	-2707.19
0.8661,0.1339	-2687.25
0.7616,0.2384	-2747.72
0.8668,0.1332	-2702.22
0.7975,0.2025	-2736.83
0.8214,0.1786	-2735.08
0.8586,0.1414	-2709.18
0.8761,0.1239	-2687.12
0.7793,0.2207	-2732.94
0.8774,0.1226	-2694.99
0.8332,0.1668	-2700.74
0.8267,0.1733	-2710.51
0.8659,0.1341	-2713.37
0.8558,0.1442	-2703.70
0.8048,0.1952	-2704.50
0.8801,0.1199	-2685.15
0.8202,0.1798	-2722.86
0.8142,0.1858	-2743.51
0.8501,0.1499	-2698.44
0.8659,0.1341	-2705.91
0.7903,0.2097	-2732.72
0.8664,0.1336	-2690.98
0.8342,0.1658	-2716.84
0.8268,0.1732	-2702.69
0.8380,0.1620	-2715.30
0.8765,0.1235	-2700.83
0.8059,0.1941	-2732.86
0.8763,0.1237	-2687.12
0.8114,0.1886	-2728.66
0.8782,0.1218	-2689.10
0.8067,0.1933	-2731.45
0.8871,0.1129	-2674.96
0.8076,0.1924	-2721.43
0.8782,0.1218	-2673.30
0.7816,0.2184	-2732.87
0.8696,0.1304	-2685.27
0.8280,0.1720	-2718.33
0.9157,0.0843	-2661.53
0.8146,0.1854	-2727.26
0.8770,0.1230	-2702.83
0.7919,0.2081	-2735.39
0.8683,0.1317	-2690.97
0.8365,0.1635	-2703.84
0.9097,0.0903	-2675.37
0.7734,0.2266	-2723.34
0.8498,0.1502	-2693.25
0.7706,0.2294	-2729.65
0.8618,0.1382	-2705.70
0.8224,0.1776	-2716.77
0.9239,0.0761	-2679.29
0.7985,0.2015	-2739.61
0.8573,0.1427	-2701.94
0.7640,0.2360	-2751.25
0.8963,0.1037	-2683.52
0.7915,0.2085	-2735.38
0.9174,0.0826	-2632.68
0.7767,0.2233	-2736.77
0.8625,0.1375	-2702.06
0.7550,0.2450	-2742.12
0.8870,0.1130	-2679.08
0.8043,0.1957	-2714.45
0.9253,0.0747	-2646.80
0.7493,0.2507	-2751.13
0.8592,0.1408	-2683.89
0.7399,0.2601	-2733.48
0.8941,0.1059	-2677.02
0.8228,0.1772	-2715.23
0.9140,0.0860	-2678.05
0.7543,0.2457	-2733.18
0.8671,0.1329	-2692.85
0.7438,0.2562	-2763.98
0.8891,0.1109	-2677.00
0.8219,0.1781	-2704.54
0.9155,0.0845	-2666.29
0.7099,0.2901	-2765.29
0.8487,0.1513	-2713.99
0.7606,0.2394	-2756.96
0.8873,0.1127	-2670.82
0.8187,0.1813	-2706.26
0.8973,0.1027	-2666.24
0.7260,0.2740	-2761.51
0.8533,0.1467	-2694.86
0.8008,0.1992	-2746.67
0.8915,0.1085	-2683.32
0.8265,0.1735	-2716.76
0.8904,0.1096	-2681.19
0.7775,0.2225	-2740.50
0.8681,0.1319	-2687.20
0.7835,0.2165	-2731.54
0.8757,0.1243	-2677.35
0.8187,0.1813	-2737.91
0.8997,0.1003	-2670.56
0.7439,0.2561	-2752.25
0.8587,0.1413	-2689.33
0.7535,0.2465	-2738.83
0.8871,0.1129	-2677.02
0.8309,0.1691	-2707.24
0.9116,0.0884	-2666.17
0.8060,0.1940	-2741.41
0.8984,0.1016	-2677.10
0.7465,0.2535	-2737.11
0.8728,0.1272	-2681.35
0.8077,0.1923	-2724.30
0.9096,0.0904	-2654.59
0.8332,0.1668	-2710.39
0.8967,0.1033	-2672.74
0.7413,0.2587	-2759.65
0.8884,0.1116	-2674.93
0.8022,0.1978	-2718.78
0.9331,0.0669	-2667.84
0.8413,0.1587	-2688.71
0.9170,0.0830	-2649.54
0.7467,0.2533	-2765.20
0.8668,0.1332	-2674.12
0.8351,0.1649	-2712.00
0.9224,0.0776	-2659.26
0.8277,0.1723	-2716.76
0.9073,0.0927	-2670.67
0.7272,0.2728	-2729.15
0.8427,0.1573	-2708.73
0.8409,0.1591	-2713.72
0.9358,0.0642	-2636.09
0.8262,0.1738	-2730.79
0.9224,0.0776	-2646.89
0.7178,0.2822	-2753.15
0.8361,0.1639	-2723.40
0.8589,0.1411	-2676.68
0.9457,0.0543	-2618.84
0.7941,0.2059	-2734.06
0.9170,0.0830	-2661.55
0.7435,0.2565	-2756.51
0.8179,0.1821	-2713.82
0.8512,0.1488	-2724.58
0.9381,0.0619	-2644.18
0.7746,0.2254	-2742.98
0.9059,0.0941	-2661.57
0.7109,0.2891	-2761.68
0.8282,0.1718	-2719.91
0.8655,0.1345	-2707.75
0.9262,0.0738	-2664.49
0.7903,0.2097	-2723.43
0.8993,0.1007	-2661.80
0.7158,0.2842	-2770.82
0.8279,0.1721	-2719.90
0.8596,0.1404	-2696.55
0.9195,0.0805	-2664.06
0.7965,0.2035	-2738.17
0.8999,0.1001	-2681.54
0.7656,0.2344	-2740.64
0.8302,0.1698	-2732.65
0.8632,0.1368	-2692.87
0.9141,0.0859	-2675.70
0.7889,0.2111	-2724.83
0.9015,0.0985	-2683.85
0.7825,0.2175	-2730.29
0.8506,0.1494	-2708.86
0.8557,0.1443	-2716.16
0.9249,0.0751	-2661.88
0.8053,0.1947	-2708.71
0.8878,0.1122	-2662.53
0.7739,0.2261	-2731.90
0.8356,0.1644	-2731.51
0.8646,0.1354	-2683.59
0.9433,0.0567	-2652.83
0.7700,0.2300	-2718.80
0.8808,0.1192	-2687.16
0.7298,0.2702	-2748.61
0.8400,0.1600	-2697.11
0.8538,0.1462	-2698.38
0.9494,0.0506	-2639.02
0.7736,0.2264	-2739.29
0.8957,0.1043	-2683.49
0.7467,0.2533	-2745.74
0.8543,0.1457	-2691.30
0.8323,0.1677	-2726.42
0.9542,0.0458	-2624.25
0.8007,0.1993	-2756.39
0.8986,0.1014	-2685.83
0.7581,0.2419	-2739.73
0.8490,0.1510	-2703.64
0.8175,0.1825	-2712.34
0.9395,0.0605	-2641.47
0.8292,0.1708	-2713.61
0.9128,0.0872	-2675.59
0.7753,0.2247	-2740.51
0.8661,0.1339	-2690.98
0.8091,0.1909	-2717.07
0.9380,0.0620	-2649.60
0.8302,0.1698	-2721.54
0.9023,0.0977	-2672.80
0.7815,0.2185	-2752.00
0.8373,0.1627	-2718.56
0.7760,0.2240	-2728.08
0.9271,0.0729	-2639.14
0.8473,0.1527	-2701.93
0.8958,0.1042	-2653.37
0.8099,0.1901	-2730.09
0.8200,0.1800	-2704.66
0.7456,0.2544	-2755.46
0.9333,0.0667	-2681.05
0.8908,0.1092	-2679.10
0.9107,0.0893	-2661.50
0.8441,0.1559	-2713.81
0.8350,0.1650	-2721.72
0.7737,0.2263	-2734.37
0.9311,0.0689	-2654.55
0.8949,0.1051	-2668.46
0.9044,0.0956	-2686.33
0.8860,0.1140	-2683.19
0.8276,0.1724	-2710.48
0.7541,0.2459	-2752.24
0.9358,0.0642	-2636.09
0.8726,0.1274	-2679.43
0.9057,0.0943	-2652.53
0.8956,0.1044	-2679.19
0.8144,0.1856	-2731.69
0.7589,0.2411	-2739.69
0.9208,0.0792	-2656.76
0.9015,0.0985	-2679.42
0.9127,0.0873	-2647.42
0.8858,0.1142	-2715.96
0.8217,0.1783	-2716.77
0.7792,0.2208	-2734.20
0.9284,0.0716	-2639.06
0.9017,0.0983	-2666.13
0.9066,0.0934	-2677.47
0.8855,0.1145	-2697.49
0.8090,0.1910	-2711.30
0.7958,0.2042	-2739.51
0.9192,0.0808	-2637.30
0.9057,0.0943	-2659.32
0.8998,0.1002	-2674.95
0.8977,0.1023	-2674.91
0.8524,0.1476	-2693.14
0.8109,0.1891	-2714.10
0.9256,0.0744	-2659.40
0.9133,0.0867	-2685.05
0.8666,0.1334	-2689.11
0.8854,0.1146	-2685.22
0.8414,0.1586	-2703.72
0.7782,0.2218	-2738.00
0.9224,0.0776	-2651.84
0.9269,0.0731	-2644.22
0.8675,0.1325	-2681.58
0.8609,0.1391	-2700.19
0.8151,0.1849	-2731.72
0.7496,0.2504	-2740.16
0.9007,0.0993	-2688.21
0.9182,0.0818	-2668.83
0.8498,0.1502	-2724.44
0.8556,0.1444	-2716.15
0.7945,0.2055	-2727.30
0.7656,0.2344	-2738.27
0.8940,0.1060	-2685.55
0.9125,0.0875	-2656.81
0.8451,0.1549	-2722.33
0.8344,0.1656	-2699.06
0.8120,0.1880	-2728.68
0.7908,0.2092	-2738.04
0.8944,0.1056	-2664.20
0.9099,0.0901	-2654.57
0.8267,0.1733	-2732.38
0.8637,0.1363	-2691.02
0.7803,0.2197	-2730.38
0.7798,0.2202	-2740.51
0.9085,0.0915	-2656.93
0.9015,0.0985	-2674.99
0.8088,0.1912	-2709.87
0.8503,0.1497	-2703.64
0.7841,0.2159	-2735.39
0.8068,0.1932	-2732.88
0.8928,0.1072	-2696.08
0.9076,0.0924	-2652.40
0.8386,0.1614	-2712.02
0.8461,0.1539	-2718.99
0.7562,0.2438	-2752.26
0.8232,0.1768	-2707.53
0.9007,0.0993	-2699.23
0.9062,0.0938	-2700.11
0.8618,0.1382	-2680.07
0.8415,0.1585	-2705.38
0.7375,0.2625	-2755.46
0.8390,0.1610	-2718.63
0.9231,0.0769	-2644.38
0.8871,0.1129	-2703.82
0.8953,0.1047	-2659.87
0.8434,0.1566	-2698.63
0.7421,0.2579	-2746.99
0.8576,0.1424	-2685.79
0.9205,0.0795	-2634.71
0.8976,0.1024	-2687.94
0.8719,0.1281	-2687.14
0.8317,0.1683	-2702.42
0.7215,0.2785	-2765.32
0.8667,0.1333	-2692.85
0.9213,0.0787	-2664.15
0.8818,0.1182	-2689.18
0.8647,0.1353	-2709.55
0.8525,0.1475	-2707.16
0.7309,0.2691	-2760.54
0.8594,0.1406	-2701.98
0.9236,0.0764	-2644.35
0.8551,0.1449	-2703.69
0.8931,0.1069	-2668.52
0.8495,0.1505	-2717.48
0.7306,0.2694	-2756.55
0.8520,0.1480	-2689.65
0.9298,0.0702	-2657.07
0.8532,0.1468	-2698.38
0.8841,0.1159	-2677.07
0.8433,0.1567	-2710.41
0.7098,0.2902	-2768.87
0.8589,0.1411	-2712.81
0.9327,0.0673	-2644.12
0.8485,0.1515	-2696.75
0.8853,0.1147	-2677.05
0.8435,0.1565	-2710.42
0.7425,0.2575	-2735.33
0.8726,0.1274	-2710.22
0.9306,0.0694	-2641.54
0.8435,0.1565	-2698.63
0.8782,0.1218	-2698.98
0.8503,0.1497	-2694.96
0.7943,0.2057	-2724.60
0.8812,0.1188	-2691.17
0.9086,0.0914	-2673.01
0.8727,0.1273	-2683.28
0.8947,0.1053	-2685.58
0.8660,0.1340	-2692.85
0.7944,0.2056	-2725.95
0.8892,0.1108	-2687.41
0.9174,0.0826	-2659.16
0.8796,0.1204	-2685.15
0.9021,0.0979	-2694.99
0.8906,0.1094	-2662.32
0.8020,0.1980	-2738.37
0.8883,0.1117	-2670.79
0.9102,0.0898	-2654.56
0.8641,0.1359	-2705.81
0.9028,0.0972	-2690.63
0.8892,0.1108	-2658.26
0.7826,0.2174	-2744.38
0.8938,0.1062	-2674.88
0.8975,0.1025	-2666.23
0.8564,0.1436	-2710.86
0.8919,0.1081	-2674.89
0.8770,0.1230	-2681.22
0.7570,0.2430	-2738.64
0.8984,0.1016	-2650.95
0.8938,0.1062	-2679.14
0.8467,0.1533	-2715.61
0.8905,0.1095	-2681.19
0.8892,0.1108	-2670.75
0.7562,0.2438	-2737.55
0.9248,0.0752	-2659.36
0.8983,0.1017	-2653.14
0.8631,0.1369	-2685.50
0.8942,0.1058	-2672.75
0.8958,0.1042	-2674.89
0.7843,0.2157	-2740.56
0.9240,0.0760	-2671.81
0.9098,0.0902	-2668.44
0.8642,0.1358	-2696.56
0.8865,0.1135	-2681.14
0.9068,0.0932	-2654.73
0.8078,0.1922	-2728.61
0.9237,0.0763	-2664.30
0.9148,0.0852	-2652.02
0.8656,0.1344	-2711.48
0.8799,0.1201	-2699.09
0.8958,0.1042	-2692.11
0.8040,0.1960	-2722.93
0.9233,0.0767	-2666.76
0.9286,0.0714	-2639.05
0.8359,0.1641	-2695.72
0.8586,0.1414	-2709.18
0.9237,0.0763	-2659.31
0.8216,0.1784	-2718.30
0.9092,0.0908	-2645.39
0.9423,0.0577	-2638.75
0.8216,0.1784	-2719.83
0.8793,0.1207	-2703.03
0.9105,0.0895	-2656.87
0.7986,0.2014	-2725.84
0.9127,0.0873	-2670.89
0.9202,0.0798	-2668.98
0.8211,0.1789	-2725.92
0.8655,0.1345	-2687.27
0.9182,0.0818	-2671.25
0.8166,0.1834	-2716.85
0.9067,0.0933	-2666.10
0.9070,0.0930	-2654.72
0.8147,0.1853	-2724.30
0.8597,0.1403	-2671.17
0.8970,0.1030	-2659.75
0.8095,0.1905	-2728.63
0.9225,0.0775	-2649.36
0.8987,0.1013	-2668.38
0.8112,0.1888	-2717.00
0.8791,0.1209	-2697.05
0.8807,0.1193	-2689.15
0.8250,0.1750	-2716.76
0.9013,0.0987	-2683.84
0.9035,0.0965	-2692.96
0.7994,0.2006	-2731.36
0.8747,0.1253	-2692.95
0.8643,0.1357	-2681.75
0.7967,0.2033	-2721.79
0.8972,0.1028	-2670.57
0.9149,0.0851	-2659.14
0.8024,0.1976	-2714.57
0.8674,0.1326	-2702.24
0.8343,0.1657	-2707.15
0.8046,0.1954	-2748.40
0.8893,0.1107	-2679.08
0.9113,0.0887	-2666.16
0.7833,0.2167	-2727.69
0.8821,0.1179	-2667.05
0.8376,0.1624	-2708.73
0.7582,0.2418	-2736.29
0.8809,0.1191	-2707.17
0.9139,0.0861	-2652.06
0.7750,0.2250	-2741.75
0.8718,0.1282	-2690.97
0.8576,0.1424	-2714.51
0.7581,0.2419	-2751.15
0.8886,0.1114	-2697.77
0.9112,0.0888	-2656.85
0.7545,0.2455	-2739.89
0.8539,0.1461	-2710.74
0.8454,0.1546	-2710.45
0.7734,0.2266	-2738.07
0.8834,0.1166	-2687.21
0.8973,0.1027	-2679.24
0.7404,0.2596	-2754.40
0.8439,0.1561	-2698.61
0.8291,0.1709	-2713.61
0.7622,0.2378	-2761.70
0.9011,0.0989	-2666.14
0.9157,0.0843	-2671.07
0.7709,0.2291	-2745.40
0.8467,0.1533	-2703.65
0.8046,0.1954	-2744.15
0.7816,0.2184	-2717.57
0.9093,0.0907	-2643.08
0.8908,0.1092	-2681.20
0.7700,0.2300	-2724.85
0.8585,0.1415	-2705.57
0.8108,0.1892	-2714.10
0.8228,0.1772	-2722.91
0.8963,0.1037	-2681.37
0.8891,0.1109	-2693.66
0.7676,0.2324	-2746.57
0.8508,0.1492	-2710.61
0.7854,0.2146	-2734.09
0.8083,0.1917	-2731.49
0.8977,0.1023	-2692.29
0.8816,0.1184	-2685.16
0.7841,0.2159	-2728.95
0.8700,0.1300	-2704.28
0.8364,0.1636	-2702.21
0.7562,0.2438	-2748.87
0.8949,0.1051	-2670.60
0.9012,0.0988	-2655.09
0.8033,0.1967	-2722.95
0.8651,0.1349	-2702.15
0.8517,0.1483	-2691.41
0.7476,0.2524	-2742.45
0.8636,0.1364	-2681.79
0.9038,0.0962	-2670.59
0.8361,0.1639	-2705.48
0.8730,0.1270	-2692.91
0.8746,0.1254	-2675.46
0.7120,0.2880	-2765.28
0.8534,0.1466	-2716.00
0.9104,0.0896	-2663.82
0.8375,0.1625	-2721.85
0.8488,0.1512	-2703.64
0.8772,0.1228	-2663.52
0.7329,0.2671	-2758.54
0.8086,0.1914	-2725.74
0.8971,0.1029	-2670.57
0.8564,0.1436	-2684.07
0.8373,0.1627	-2716.92
0.8331,0.1669	-2712.00
0.7817,0.2183	-2737.97
0.8018,0.1982	-2728.58
0.9014,0.0986	-2666.14
0.8552,0.1448	-2703.69
0.8721,0.1279	-2681.38
0.8328,0.1672	-2705.58
0.8087,0.1913	-2730.06
0.8216,0.1784	-2745.79
0.8904,0.1096	-2664.42
0.8633,0.1367	-2692.87
0.8697,0.1303	-2698.56
0.8187,0.1813	-2718.32
0.7888,0.2112	-2740.64
0.7881,0.2119	-2730.12
0.8689,0.1311	-2692.86
0.8618,0.1382	-2700.21
0.8545,0.1455	-2687.75
0.8119,0.1881	-2722.82
0.7993,0.2007	-2725.83
0.8049,0.1951	-2745.59
0.8669,0.1331	-2696.60
0.8714,0.1286	-2677.58
0.8488,0.1512	-2717.44
0.8163,0.1837	-2737.74
0.7881,0.2119	-2745.88
0.7983,0.2017	-2721.72
0.8383,0.1617	-2707.08
0.8920,0.1080	-2683.33
0.8616,0.1384	-2687.40
0.8234,0.1766	-2707.52
0.8062,0.1938	-2725.74
0.8165,0.1835	-2728.80
0.8311,0.1689	-2742.29
0.8776,0.1224	-2681.21
0.8793,0.1207	-2691.11
0.8062,0.1938	-2734.29
0.8092,0.1908	-2740.18
0.8378,0.1622	-2697.23
0.8107,0.1893	-2735.92
0.9054,0.0946	-2661.58
0.8869,0.1131	-2689.38
0.8026,0.1974	-2735.59
0.8118,0.1882	-2724.29
0.8366,0.1634	-2707.10
0.8080,0.1920	-2717.11
0.9074,0.0926	-2668.39
0.8757,0.1243	-2677.35
0.8129,0.1871	-2721.35
0.8077,0.1923	-2731.48
0.8337,0.1663	-2715.22
0.8085,0.1915	-2714.21
0.9056,0.0944	-2675.14
0.8567,0.1433	-2701.93
0.8184,0.1816	-2713.81
0.8507,0.1493	-2712.34
0.8332,0.1668	-2715.22
0.7737,0.2263	-2738.06
0.9036,0.0964	-2675.06
0.8657,0.1343	-2694.72
0.8106,0.1894	-2714.11
0.8225,0.1775	-2725.97
0.8441,0.1559	-2710.43
0.7562,0.2438	-2750.00
0.8609,0.1391	-2700.19
0.8805,0.1195	-2657.19
0.8024,0.1976	-2704.76
0.8425,0.1575	-2705.37
0.8362,0.1638	-2720.15
0.7756,0.2244	-2723.15
0.8590,0.1410	-2705.59
0.8762,0.1238	-2671.46
0.8316,0.1684	-2729.57
0.8231,0.1769	-2702.92
0.8179,0.1821	-2736.35
0.7843,0.2157	-2739.27
0.8701,0.1299	-2679.56
0.8453,0.1547	-2713.85
0.8363,0.1637	-2721.79
0.8343,0.1657	-2695.84
0.8568,0.1432	-2682.26
0.7356,0.2644	-2767.75
0.8523,0.1477	-2691.39
0.8348,0.1652	-2686.08
0.8477,0.1523	-2719.09
0.8279,0.1721	-2716.76
0.8511,0.1489	-2700.16
0.7463,0.2537	-2740.36
0.8346,0.1654	-2694.19
0.8422,0.1578	-2702.03
0.8505,0.1495	-2688.00
