#isoforms=['ENSG00000101294.SE.1.A.up_ENSG00000101294.SE.1.A.SE1_ENSG00000101294.SE.1.A.dn','ENSG00000101294.SE.1.B.up_ENSG00000101294.SE.1.B.dn']	exon_lens=('ENSG00000101294.SE.1.A.up',99),('ENSG00000101294.SE.1.A.SE1',376),('ENSG00000101294.SE.1.A.dn',89),('ENSG00000101294.SE.1.B.up',99),('ENSG00000101294.SE.1.B.dn',89)	iters=5000	burn_in=500	lag=10	percent_accept=98.19	proposal_type=drift	counts=(0,0):609,(1,0):45	assigned_counts=0:45	chrom=chr20	strand=+	mRNA_starts=31527484,31527484	mRNA_ends=31545035,31545035
sampled_psi	log_score
0.8830,0.1170	-277.41
0.8555,0.1445	-277.71
0.8345,0.1655	-277.96
0.7552,0.2448	-278.98
0.7564,0.2436	-278.96
0.8442,0.1558	-277.84
0.8648,0.1352	-277.61
0.8585,0.1415	-277.68
0.8426,0.1574	-277.86
0.7697,0.2303	-278.78
0.7761,0.2239	-278.69
0.8423,0.1577	-277.86
0.8644,0.1356	-277.61
0.8922,0.1078	-277.31
0.8663,0.1337	-277.59
0.8009,0.1991	-278.37
0.7463,0.2537	-279.11
0.8298,0.1702	-278.01
0.8390,0.1610	-277.90
0.8763,0.1237	-277.48
0.8600,0.1400	-277.66
0.7952,0.2048	-278.44
0.7174,0.2826	-279.54
0.8484,0.1516	-277.79
0.8428,0.1572	-277.86
0.8911,0.1089	-277.33
0.8234,0.1766	-278.09
0.8010,0.1990	-278.37
0.7624,0.2376	-278.88
0.8363,0.1637	-277.93
0.8349,0.1651	-277.95
0.8921,0.1079	-277.32
0.8183,0.1817	-278.15
0.7835,0.2165	-278.59
0.8045,0.1955	-278.32
0.8430,0.1570	-277.86
0.7804,0.2196	-278.63
0.8920,0.1080	-277.32
0.7932,0.2068	-278.47
0.7862,0.2138	-278.56
0.8146,0.1854	-278.20
0.7948,0.2052	-278.45
0.7243,0.2757	-279.43
0.9228,0.0772	-277.00
0.7234,0.2766	-279.44
0.8092,0.1908	-278.26
0.8251,0.1749	-278.07
0.8154,0.1846	-278.19
0.7221,0.2779	-279.46
0.9319,0.0681	-276.91
0.7247,0.2753	-279.43
0.7977,0.2023	-278.41
0.8523,0.1477	-277.75
0.8327,0.1673	-277.98
0.7484,0.2516	-279.08
0.9268,0.0732	-276.96
0.7274,0.2726	-279.38
0.8154,0.1846	-278.19
0.8403,0.1597	-277.89
0.8512,0.1488	-277.76
0.8036,0.1964	-278.33
0.9369,0.0631	-276.87
0.7736,0.2264	-278.73
0.8590,0.1410	-277.67
0.8431,0.1569	-277.86
0.8388,0.1612	-277.91
0.8239,0.1761	-278.08
0.9473,0.0527	-276.77
0.7946,0.2054	-278.45
0.8862,0.1138	-277.38
0.8330,0.1670	-277.97
0.8167,0.1833	-278.17
0.8576,0.1424	-277.69
0.9524,0.0476	-276.72
0.7918,0.2082	-278.48
0.8862,0.1138	-277.38
0.8273,0.1727	-278.04
0.8291,0.1709	-278.02
0.8467,0.1533	-277.81
0.9466,0.0534	-276.77
0.8073,0.1927	-278.29
0.8889,0.1111	-277.35
0.8753,0.1247	-277.49
0.8025,0.1975	-278.35
0.8570,0.1430	-277.70
0.9579,0.0421	-276.67
0.8280,0.1720	-278.03
0.9203,0.0797	-277.03
0.9026,0.0974	-277.21
0.7997,0.2003	-278.38
0.8636,0.1364	-277.62
0.9466,0.0534	-276.77
0.8596,0.1404	-277.67
0.9320,0.0680	-276.91
0.8667,0.1333	-277.59
0.7738,0.2262	-278.72
0.8719,0.1281	-277.53
0.9577,0.0423	-276.67
0.8600,0.1400	-277.66
0.9349,0.0651	-276.89
0.8645,0.1355	-277.61
0.7502,0.2498	-279.05
0.8939,0.1061	-277.30
0.9475,0.0525	-276.77
0.8194,0.1806	-278.14
0.9091,0.0909	-277.14
0.8756,0.1244	-277.49
0.6940,0.3060	-279.91
0.8911,0.1089	-277.33
0.9461,0.0539	-276.78
0.8307,0.1693	-278.00
0.9216,0.0784	-277.02
0.8428,0.1572	-277.86
0.7402,0.2598	-279.19
0.8948,0.1052	-277.29
0.9366,0.0634	-276.87
0.8023,0.1977	-278.35
0.9290,0.0710	-276.94
0.8699,0.1301	-277.55
0.7829,0.2171	-278.60
0.8939,0.1061	-277.30
0.9349,0.0651	-276.89
0.8497,0.1503	-277.78
0.9493,0.0507	-276.75
0.8725,0.1275	-277.52
0.7695,0.2305	-278.78
0.8994,0.1006	-277.24
0.9370,0.0630	-276.87
0.8886,0.1114	-277.35
0.9550,0.0450	-276.69
0.8769,0.1231	-277.48
0.7452,0.2548	-279.12
0.9002,0.0998	-277.23
0.9375,0.0625	-276.86
0.8856,0.1144	-277.38
0.9444,0.0556	-276.79
0.9048,0.0952	-277.18
0.7712,0.2288	-278.76
0.9050,0.0950	-277.18
0.9425,0.0575	-276.81
0.8812,0.1188	-277.43
0.9479,0.0521	-276.76
0.9106,0.0894	-277.13
0.7966,0.2034	-278.42
0.9138,0.0862	-277.09
0.9400,0.0600	-276.84
0.8779,0.1221	-277.47
0.9160,0.0840	-277.07
0.9315,0.0685	-276.92
0.8212,0.1788	-278.12
0.9099,0.0901	-277.13
0.9353,0.0647	-276.88
0.8618,0.1382	-277.64
0.9093,0.0907	-277.14
0.9274,0.0726	-276.96
0.8235,0.1765	-278.09
0.8981,0.1019	-277.25
0.9340,0.0660	-276.89
0.8798,0.1202	-277.45
0.9135,0.0865	-277.10
0.9291,0.0709	-276.94
0.8106,0.1894	-278.25
0.9055,0.0945	-277.18
0.9287,0.0713	-276.95
0.8874,0.1126	-277.36
0.9103,0.0897	-277.13
0.9427,0.0573	-276.81
0.8474,0.1526	-277.81
0.8854,0.1146	-277.39
0.9220,0.0780	-277.01
0.8711,0.1289	-277.54
0.9107,0.0893	-277.12
0.9502,0.0498	-276.74
0.8402,0.1598	-277.89
0.8826,0.1174	-277.42
0.9176,0.0824	-277.05
0.8733,0.1267	-277.52
0.9094,0.0906	-277.14
0.9560,0.0440	-276.69
0.8387,0.1613	-277.91
0.8593,0.1407	-277.67
0.9158,0.0842	-277.07
0.8926,0.1074	-277.31
0.8985,0.1015	-277.25
0.9441,0.0559	-276.80
0.8547,0.1453	-277.72
0.8437,0.1563	-277.85
0.9097,0.0903	-277.13
0.9033,0.0967	-277.20
0.9060,0.0940	-277.17
0.9462,0.0538	-276.78
0.8336,0.1664	-277.97
0.8204,0.1796	-278.13
0.9131,0.0869	-277.10
0.8973,0.1027	-277.26
0.9198,0.0802	-277.03
0.9291,0.0709	-276.94
0.8461,0.1539	-277.82
0.8192,0.1808	-278.14
0.8925,0.1075	-277.31
0.8898,0.1102	-277.34
0.9368,0.0632	-276.87
0.9323,0.0677	-276.91
0.8463,0.1537	-277.82
0.8221,0.1779	-278.11
0.8999,0.1001	-277.23
0.8687,0.1313	-277.57
0.9467,0.0533	-276.77
0.9398,0.0602	-276.84
0.8200,0.1800	-278.13
0.8099,0.1901	-278.25
0.9167,0.0833	-277.06
0.8199,0.1801	-278.13
0.9456,0.0544	-276.78
0.9190,0.0810	-277.04
0.8243,0.1757	-278.08
0.7848,0.2152	-278.58
0.9054,0.0946	-277.18
0.8276,0.1724	-278.04
0.9484,0.0516	-276.76
0.9114,0.0886	-277.12
0.8025,0.1975	-278.35
0.8215,0.1785	-278.11
0.9122,0.0878	-277.11
0.8103,0.1897	-278.25
0.9525,0.0475	-276.72
0.9141,0.0859	-277.09
0.7991,0.2009	-278.39
0.7774,0.2226	-278.68
0.9209,0.0791	-277.02
0.8189,0.1811	-278.14
0.9590,0.0410	-276.66
0.9033,0.0967	-277.20
0.7755,0.2245	-278.70
0.7767,0.2233	-278.68
0.9216,0.0784	-277.01
0.8000,0.2000	-278.38
0.9500,0.0500	-276.74
0.8825,0.1175	-277.42
0.8026,0.1974	-278.35
0.7144,0.2856	-279.58
0.9283,0.0717	-276.95
0.7399,0.2601	-279.20
0.9540,0.0460	-276.70
0.9033,0.0967	-277.20
0.7572,0.2428	-278.95
0.6827,0.3173	-280.10
0.9196,0.0804	-277.03
0.6789,0.3211	-280.16
0.9524,0.0476	-276.72
0.9114,0.0886	-277.12
0.7385,0.2615	-279.22
0.6636,0.3364	-280.43
0.9195,0.0805	-277.04
0.6533,0.3467	-280.61
0.9551,0.0449	-276.69
0.9238,0.0762	-276.99
0.7257,0.2743	-279.41
0.6533,0.3467	-280.61
0.9365,0.0635	-276.87
0.6575,0.3425	-280.53
0.9475,0.0525	-276.77
0.9204,0.0796	-277.03
0.7132,0.2868	-279.60
0.6386,0.3614	-280.88
0.9332,0.0668	-276.90
0.7012,0.2988	-279.79
0.9452,0.0548	-276.79
0.9284,0.0716	-276.95
0.7459,0.2541	-279.11
0.6172,0.3828	-281.30
0.9368,0.0632	-276.87
0.6841,0.3159	-280.07
0.9377,0.0623	-276.86
0.9399,0.0601	-276.84
0.7581,0.2419	-278.94
0.6267,0.3733	-281.11
0.9469,0.0531	-276.77
0.6222,0.3778	-281.20
0.9519,0.0481	-276.72
0.9478,0.0522	-276.76
0.7182,0.2818	-279.53
0.6423,0.3577	-280.81
0.9474,0.0526	-276.77
0.6710,0.3290	-280.30
0.9546,0.0454	-276.70
0.9494,0.0506	-276.75
0.7328,0.2672	-279.30
0.6524,0.3476	-280.63
0.9557,0.0443	-276.69
0.6929,0.3071	-279.93
0.9454,0.0546	-276.78
0.9376,0.0624	-276.86
0.7174,0.2826	-279.54
0.6577,0.3423	-280.53
0.9599,0.0401	-276.65
0.7225,0.2775	-279.46
0.9291,0.0709	-276.94
0.9501,0.0499	-276.74
0.7397,0.2603	-279.20
0.6587,0.3413	-280.51
0.9608,0.0392	-276.64
0.7559,0.2441	-278.97
0.9222,0.0778	-277.01
0.9610,0.0390	-276.64
0.7665,0.2335	-278.82
0.6597,0.3403	-280.49
0.9654,0.0346	-276.60
0.7405,0.2595	-279.19
0.9138,0.0862	-277.09
0.9613,0.0387	-276.64
0.7782,0.2218	-278.66
0.6476,0.3524	-280.71
0.9514,0.0486	-276.73
0.7641,0.2359	-278.86
0.9118,0.0882	-277.11
0.9659,0.0341	-276.59
0.7704,0.2296	-278.77
0.6179,0.3821	-281.28
0.9454,0.0546	-276.78
0.7996,0.2004	-278.38
0.9217,0.0783	-277.01
0.9613,0.0387	-276.64
0.7744,0.2256	-278.72
0.6403,0.3597	-280.85
0.9400,0.0600	-276.84
0.7894,0.2106	-278.52
0.9072,0.0928	-277.16
0.9559,0.0441	-276.69
0.7560,0.2440	-278.97
0.6218,0.3782	-281.21
0.9318,0.0682	-276.92
0.7881,0.2119	-278.53
0.9138,0.0862	-277.09
0.9572,0.0428	-276.67
0.7754,0.2246	-278.70
0.6491,0.3509	-280.69
0.9262,0.0738	-276.97
0.7819,0.2181	-278.61
0.9138,0.0862	-277.09
0.9545,0.0455	-276.70
0.7730,0.2270	-278.73
0.6146,0.3854	-281.35
0.9293,0.0707	-276.94
0.8259,0.1741	-278.06
0.9271,0.0729	-276.96
0.9512,0.0488	-276.73
0.7920,0.2080	-278.48
0.6352,0.3648	-280.95
0.9243,0.0757	-276.99
0.8435,0.1565	-277.85
0.9029,0.0971	-277.20
0.9557,0.0443	-276.69
0.7940,0.2060	-278.46
0.6806,0.3194	-280.13
0.9291,0.0709	-276.94
0.8547,0.1453	-277.72
0.9144,0.0856	-277.09
0.9555,0.0445	-276.69
0.8049,0.1951	-278.32
0.6986,0.3014	-279.83
0.9323,0.0677	-276.91
0.8729,0.1271	-277.52
0.9061,0.0939	-277.17
0.9608,0.0392	-276.64
0.8155,0.1845	-278.18
0.7007,0.2993	-279.80
0.9219,0.0781	-277.01
0.8950,0.1050	-277.28
0.9050,0.0950	-277.18
0.9693,0.0307	-276.56
0.7814,0.2186	-278.62
0.7355,0.2645	-279.26
0.9302,0.0698	-276.93
0.9084,0.0916	-277.15
0.8983,0.1017	-277.25
0.9701,0.0299	-276.56
0.7795,0.2205	-278.65
0.7656,0.2344	-278.83
0.9471,0.0529	-276.77
0.9187,0.0813	-277.04
0.8753,0.1247	-277.49
0.9705,0.0295	-276.55
0.7666,0.2334	-278.82
0.7862,0.2138	-278.56
0.9485,0.0515	-276.76
0.9420,0.0580	-276.82
0.8766,0.1234	-277.48
0.9702,0.0298	-276.56
0.7442,0.2558	-279.14
0.7933,0.2067	-278.47
0.9479,0.0521	-276.76
0.9462,0.0538	-276.78
0.8832,0.1168	-277.41
0.9751,0.0249	-276.51
0.7498,0.2502	-279.06
0.7767,0.2233	-278.68
0.9489,0.0511	-276.75
0.9539,0.0461	-276.70
0.8915,0.1085	-277.32
0.9737,0.0263	-276.52
0.7557,0.2443	-278.97
0.7762,0.2238	-278.69
0.9547,0.0453	-276.70
0.9556,0.0444	-276.69
0.9128,0.0872	-277.10
0.9762,0.0238	-276.50
0.7447,0.2553	-279.13
0.7677,0.2323	-278.81
0.9531,0.0469	-276.71
0.9411,0.0589	-276.83
0.9103,0.0897	-277.13
0.9714,0.0286	-276.55
0.7771,0.2229	-278.68
0.7776,0.2224	-278.67
0.9525,0.0475	-276.72
0.9517,0.0483	-276.73
0.9020,0.0980	-277.21
0.9756,0.0244	-276.51
0.7809,0.2191	-278.63
0.7541,0.2459	-278.99
0.9352,0.0648	-276.88
0.9558,0.0442	-276.69
0.8864,0.1136	-277.38
0.9822,0.0178	-276.45
0.7629,0.2371	-278.87
0.7647,0.2353	-278.85
0.9349,0.0651	-276.89
0.9475,0.0525	-276.77
0.8731,0.1269	-277.52
0.9818,0.0182	-276.45
0.7863,0.2137	-278.56
0.7598,0.2402	-278.91
0.9197,0.0803	-277.03
0.9651,0.0349	-276.60
0.8420,0.1580	-277.87
0.9819,0.0181	-276.45
0.7985,0.2015	-278.40
0.7606,0.2394	-278.90
0.9045,0.0955	-277.19
0.9601,0.0399	-276.65
0.8401,0.1599	-277.89
0.9818,0.0182	-276.45
0.8191,0.1809	-278.14
0.7642,0.2358	-278.85
0.8945,0.1055	-277.29
0.9586,0.0414	-276.66
0.8303,0.1697	-278.01
0.9773,0.0227	-276.49
0.8057,0.1943	-278.31
0.7531,0.2469	-279.01
0.8971,0.1029	-277.26
0.9642,0.0358	-276.61
0.7843,0.2157	-278.58
0.9777,0.0223	-276.49
0.7911,0.2089	-278.49
0.7812,0.2188	-278.62
0.9114,0.0886	-277.12
0.9581,0.0419	-276.67
0.7682,0.2318	-278.80
0.9824,0.0176	-276.45
0.7686,0.2314	-278.79
0.7791,0.2209	-278.65
0.9191,0.0809	-277.04
0.9496,0.0504	-276.75
0.7923,0.2077	-278.48
0.9732,0.0268	-276.53
0.6833,0.3167	-280.09
0.8053,0.1947	-278.31
0.9139,0.0861	-277.09
0.9393,0.0607	-276.84
0.8410,0.1590	-277.88
0.9654,0.0346	-276.60
0.6960,0.3040	-279.88
0.7970,0.2030	-278.42
0.9131,0.0869	-277.10
0.9493,0.0507	-276.75
0.8163,0.1837	-278.18
0.9569,0.0431	-276.68
0.7380,0.2620	-279.23
0.8091,0.1909	-278.26
0.9169,0.0831	-277.06
0.9489,0.0511	-276.75
0.8390,0.1610	-277.90
0.9585,0.0415	-276.66
0.7277,0.2723	-279.38
0.8188,0.1812	-278.14
0.9158,0.0842	-277.07
0.9446,0.0554	-276.79
0.8495,0.1505	-277.78
0.9614,0.0386	-276.64
0.6952,0.3048	-279.89
0.7876,0.2124	-278.54
0.9106,0.0894	-277.12
0.9356,0.0644	-276.88
0.8687,0.1313	-277.57
0.9590,0.0410	-276.66
0.7253,0.2747	-279.42
0.7743,0.2257	-278.72
0.8914,0.1086	-277.32
0.9373,0.0627	-276.86
0.8723,0.1277	-277.53
0.9642,0.0358	-276.61
0.6794,0.3206	-280.15
0.7647,0.2353	-278.85
0.9001,0.0999	-277.23
0.9459,0.0541	-276.78
0.8883,0.1117	-277.36
0.9632,0.0368	-276.62
0.6601,0.3399	-280.49
0.7879,0.2121	-278.54
0.8813,0.1187	-277.43
0.9427,0.0573	-276.81
0.8831,0.1169	-277.41
0.9695,0.0305	-276.56
0.6492,0.3508	-280.69
0.7566,0.2434	-278.96
0.8422,0.1578	-277.87
0.9409,0.0591	-276.83
0.8811,0.1189	-277.43
0.9703,0.0297	-276.55
0.6793,0.3207	-280.15
0.7799,0.2201	-278.64
0.8365,0.1635	-277.93
0.9409,0.0591	-276.83
0.8644,0.1356	-277.61
0.9707,0.0293	-276.55
0.6549,0.3451	-280.58
0.8051,0.1949	-278.32
0.8255,0.1745	-278.06
0.9334,0.0666	-276.90
0.8483,0.1517	-277.80
0.9659,0.0341	-276.59
0.6697,0.3303	-280.32
0.8101,0.1899	-278.25
0.8425,0.1575	-277.86
0.9205,0.0795	-277.03
0.8465,0.1535	-277.82
0.9601,0.0399	-276.65
0.7221,0.2779	-279.46
0.8065,0.1935	-278.30
0.8391,0.1609	-277.90
0.9120,0.0880	-277.11
0.8619,0.1381	-277.64
0.9588,0.0412	-276.66
0.7450,0.2550	-279.13
0.8231,0.1769	-278.09
0.8360,0.1640	-277.94
0.9208,0.0792	-277.02
0.8619,0.1381	-277.64
0.9496,0.0504	-276.75
0.7019,0.2981	-279.78
0.8316,0.1684	-277.99
0.8233,0.1767	-278.09
0.9182,0.0818	-277.05
0.8593,0.1407	-277.67
0.9500,0.0500	-276.74
0.7188,0.2812	-279.52
0.8374,0.1626	-277.92
0.8253,0.1747	-278.07
0.9232,0.0768	-277.00
0.8646,0.1354	-277.61
0.9499,0.0501	-276.74
0.7476,0.2524	-279.09
0.7799,0.2201	-278.64
0.8310,0.1690	-278.00
0.9225,0.0775	-277.01
0.8319,0.1681	-277.99
0.9368,0.0632	-276.87
0.7399,0.2601	-279.20
0.7804,0.2196	-278.63
0.8310,0.1690	-278.00
0.9081,0.0919	-277.15
0.8585,0.1415	-277.68
0.9316,0.0684	-276.92
0.7255,0.2745	-279.41
0.7194,0.2806	-279.51
0.8055,0.1945	-278.31
0.9217,0.0783	-277.01
0.8624,0.1376	-277.64
0.9362,0.0638	-276.87
0.7618,0.2382	-278.89
0.7671,0.2329	-278.81
0.8299,0.1701	-278.01
0.9181,0.0819	-277.05
0.8634,0.1366	-277.63
0.9402,0.0598	-276.83
0.7754,0.2246	-278.70
0.7729,0.2271	-278.74
0.8176,0.1824	-278.16
0.9161,0.0839	-277.07
0.8537,0.1463	-277.73
0.9442,0.0558	-276.80
0.7619,0.2381	-278.89
0.7351,0.2649	-279.27
0.8200,0.1800	-278.13
0.9083,0.0917	-277.15
0.8699,0.1301	-277.55
0.9351,0.0649	-276.88
0.7872,0.2128	-278.54
0.7143,0.2857	-279.59
0.7959,0.2041	-278.43
0.8973,0.1027	-277.26
0.8607,0.1393	-277.66
0.9384,0.0616	-276.85
0.8447,0.1553	-277.84
0.7430,0.2570	-279.15
0.7902,0.2098	-278.51
0.8983,0.1017	-277.25
0.8704,0.1296	-277.55
0.9459,0.0541	-276.78
0.8315,0.1685	-277.99
0.7659,0.2341	-278.83
0.7558,0.2442	-278.97
0.9075,0.0925	-277.16
0.8691,0.1309	-277.56
0.9437,0.0563	-276.80
0.8619,0.1381	-277.64
0.7826,0.2174	-278.60
0.7715,0.2285	-278.75
0.9064,0.0936	-277.17
0.8907,0.1093	-277.33
0.9123,0.0877	-277.11
0.8519,0.1481	-277.75
0.7999,0.2001	-278.38
0.7366,0.2634	-279.25
0.9104,0.0896	-277.13
0.8882,0.1118	-277.36
0.9297,0.0703	-276.94
0.8351,0.1649	-277.95
0.8003,0.1997	-278.38
0.7055,0.2945	-279.72
0.9027,0.0973	-277.21
0.8797,0.1203	-277.45
0.9399,0.0601	-276.84
0.8275,0.1725	-278.04
0.7375,0.2625	-279.23
0.6775,0.3225	-280.18
0.9033,0.0967	-277.20
0.8806,0.1194	-277.44
0.9488,0.0512	-276.75
0.8293,0.1707	-278.02
0.7596,0.2404	-278.92
0.6998,0.3002	-279.82
0.9091,0.0909	-277.14
0.8982,0.1018	-277.25
0.9391,0.0609	-276.85
0.8162,0.1838	-278.18
0.7446,0.2554	-279.13
0.7789,0.2211	-278.65
0.8868,0.1132	-277.37
0.8850,0.1150	-277.39
0.9300,0.0700	-276.93
0.8223,0.1777	-278.10
0.7117,0.2883	-279.63
0.7882,0.2118	-278.53
0.8669,0.1331	-277.59
0.9087,0.0913	-277.14
0.9137,0.0863	-277.09
0.8164,0.1836	-278.17
0.7206,0.2794	-279.49
0.7967,0.2033	-278.42
0.8381,0.1619	-277.91
0.9294,0.0706	-276.94
0.9215,0.0785	-277.02
0.7876,0.2124	-278.54
0.7719,0.2281	-278.75
0.7619,0.2381	-278.89
0.8649,0.1351	-277.61
0.9340,0.0660	-276.89
0.9262,0.0738	-276.97
0.7672,0.2328	-278.81
0.7907,0.2093	-278.50
0.7594,0.2406	-278.92
0.8711,0.1289	-277.54
0.9340,0.0660	-276.89
0.9301,0.0699	-276.93
0.7781,0.2219	-278.67
0.8123,0.1877	-278.22
0.7571,0.2429	-278.95
0.8633,0.1367	-277.63
0.9429,0.0571	-276.81
0.9317,0.0683	-276.92
0.7622,0.2378	-278.88
0.7774,0.2226	-278.67
0.7696,0.2304	-278.78
0.8511,0.1489	-277.76
0.9447,0.0553	-276.79
0.9410,0.0590	-276.83
0.7498,0.2502	-279.06
0.7968,0.2032	-278.42
0.7695,0.2305	-278.78
0.8593,0.1407	-277.67
0.9419,0.0581	-276.82
0.9367,0.0633	-276.87
0.7480,0.2520	-279.08
0.7650,0.2350	-278.84
0.7469,0.2531	-279.10
0.8573,0.1427	-277.69
0.9514,0.0486	-276.73
0.9383,0.0617	-276.85
0.7238,0.2762	-279.44
0.7686,0.2314	-278.79
0.7826,0.2174	-278.60
0.8361,0.1639	-277.94
0.9554,0.0446	-276.69
0.9221,0.0779	-277.01
0.7533,0.2467	-279.01
0.7320,0.2680	-279.32
0.8271,0.1729	-278.04
0.8461,0.1539	-277.82
0.9639,0.0361	-276.61
0.9108,0.0892	-277.12
0.7107,0.2893	-279.64
0.7317,0.2683	-279.32
0.8506,0.1494	-277.77
0.8548,0.1452	-277.72
0.9498,0.0502	-276.74
0.9070,0.0930	-277.16
0.7582,0.2418	-278.94
0.7320,0.2680	-279.32
0.8088,0.1912	-278.27
0.8674,0.1326	-277.58
0.9461,0.0539	-276.78
0.9105,0.0895	-277.13
0.7534,0.2466	-279.00
0.7408,0.2592	-279.19
0.8509,0.1491	-277.77
0.8823,0.1177	-277.42
0.9482,0.0518	-276.76
0.9122,0.0878	-277.11
0.7557,0.2443	-278.97
0.7757,0.2243	-278.70
0.7936,0.2064	-278.46
0.8611,0.1389	-277.65
0.9500,0.0500	-276.74
0.9203,0.0797	-277.03
0.7018,0.2982	-279.78
0.7622,0.2378	-278.88
0.7625,0.2375	-278.88
0.8360,0.1640	-277.94
0.9560,0.0440	-276.69
0.9272,0.0728	-276.96
0.7021,0.2979	-279.78
0.7754,0.2246	-278.70
0.7699,0.2301	-278.78
0.8418,0.1582	-277.87
0.9529,0.0471	-276.71
0.9342,0.0658	-276.89
0.6616,0.3384	-280.46
0.7762,0.2238	-278.69
0.7512,0.2488	-279.04
0.8242,0.1758	-278.08
0.9518,0.0482	-276.73
0.9011,0.0989	-277.22
0.7267,0.2733	-279.40
0.7387,0.2613	-279.22
0.7851,0.2149	-278.57
0.8352,0.1648	-277.95
0.9526,0.0474	-276.72
0.9059,0.0941	-277.17
0.7126,0.2874	-279.61
0.7555,0.2445	-278.98
0.7782,0.2218	-278.66
0.8119,0.1881	-278.23
0.9418,0.0582	-276.82
0.9171,0.0829	-277.06
0.6912,0.3088	-279.95
0.7499,0.2501	-279.06
0.7877,0.2123	-278.54
0.8118,0.1882	-278.23
0.9371,0.0629	-276.86
0.8999,0.1001	-277.23
0.7462,0.2538	-279.11
0.7362,0.2638	-279.25
0.8112,0.1888	-278.24
0.8132,0.1868	-278.21
0.9313,0.0687	-276.92
0.9239,0.0761	-276.99
0.7458,0.2542	-279.11
0.7372,0.2628	-279.24
0.8059,0.1941	-278.30
0.7845,0.2155	-278.58
0.9017,0.0983	-277.22
0.9271,0.0729	-276.96
0.7241,0.2759	-279.43
0.7460,0.2540	-279.11
0.7901,0.2099	-278.51
0.8162,0.1838	-278.18
0.9021,0.0979	-277.21
0.9415,0.0585	-276.82
0.7020,0.2980	-279.78
0.7384,0.2616	-279.22
0.7995,0.2005	-278.39
0.8355,0.1645	-277.94
0.9119,0.0881	-277.11
0.9353,0.0647	-276.88
0.7178,0.2822	-279.53
0.7402,0.2598	-279.19
0.8533,0.1467	-277.74
0.8463,0.1537	-277.82
0.9207,0.0793	-277.02
0.9177,0.0823	-277.05
0.7303,0.2697	-279.34
0.7724,0.2276	-278.74
0.8658,0.1342	-277.60
0.8371,0.1629	-277.93
0.9134,0.0866	-277.10
0.9205,0.0795	-277.03
0.7232,0.2768	-279.45
0.7709,0.2291	-278.76
0.8597,0.1403	-277.67
0.8331,0.1669	-277.97
0.9158,0.0842	-277.07
0.9303,0.0697	-276.93
0.7618,0.2382	-278.89
0.7588,0.2412	-278.93
0.8723,0.1277	-277.53
0.8036,0.1964	-278.33
0.9213,0.0787	-277.02
0.9251,0.0749	-276.98
0.7607,0.2393	-278.90
0.7481,0.2519	-279.08
0.8834,0.1166	-277.41
0.7656,0.2344	-278.84
0.9303,0.0697	-276.93
0.9033,0.0967	-277.20
0.7496,0.2504	-279.06
0.7738,0.2262	-278.72
0.8738,0.1262	-277.51
0.7931,0.2069	-278.47
0.9012,0.0988	-277.22
0.8850,0.1150	-277.39
0.8094,0.1906	-278.26
0.7733,0.2267	-278.73
0.8655,0.1345	-277.60
0.7761,0.2239	-278.69
0.8708,0.1292	-277.54
0.9039,0.0961	-277.19
0.8252,0.1748	-278.07
0.7901,0.2099	-278.51
0.8575,0.1425	-277.69
0.7719,0.2281	-278.75
0.8989,0.1011	-277.24
0.8929,0.1071	-277.31
0.8351,0.1649	-277.95
0.8043,0.1957	-278.33
0.8555,0.1445	-277.71
0.7935,0.2065	-278.46
0.9202,0.0798	-277.03
0.8754,0.1246	-277.49
0.8413,0.1587	-277.88
0.8070,0.1930	-278.29
0.8427,0.1573	-277.86
0.8068,0.1932	-278.29
0.9036,0.0964	-277.20
0.8729,0.1271	-277.52
0.8087,0.1913	-278.27
0.8138,0.1862	-278.21
0.8176,0.1824	-278.16
0.8140,0.1860	-278.20
0.9188,0.0812	-277.04
0.8946,0.1054	-277.29
0.8248,0.1752	-278.07
0.7610,0.2390	-278.90
0.8421,0.1579	-277.87
0.8213,0.1787	-278.11
0.9083,0.0917	-277.15
0.8807,0.1193	-277.44
0.8548,0.1452	-277.72
0.7417,0.2583	-279.17
0.8744,0.1256	-277.50
0.8485,0.1515	-277.79
0.8926,0.1074	-277.31
0.8753,0.1247	-277.49
0.8762,0.1238	-277.48
0.7763,0.2237	-278.69
0.8802,0.1198	-277.44
0.8561,0.1439	-277.71
0.9175,0.0825	-277.06
0.8919,0.1081	-277.32
0.8797,0.1203	-277.45
0.8092,0.1908	-278.26
0.8522,0.1478	-277.75
0.8660,0.1340	-277.60
0.9297,0.0703	-276.94
0.9087,0.0913	-277.14
0.8849,0.1151	-277.39
0.8097,0.1903	-278.26
0.8464,0.1536	-277.82
0.8709,0.1291	-277.54
0.9285,0.0715	-276.95
0.9171,0.0829	-277.06
0.8721,0.1279	-277.53
0.8095,0.1905	-278.26
0.8657,0.1343	-277.60
0.8593,0.1407	-277.67
0.9204,0.0796	-277.03
0.9082,0.0918	-277.15
0.8594,0.1406	-277.67
0.8023,0.1977	-278.35
0.8647,0.1353	-277.61
0.8488,0.1512	-277.79
0.9181,0.0819	-277.05
0.9142,0.0858	-277.09
0.8836,0.1164	-277.41
0.8213,0.1787	-278.11
0.8684,0.1316	-277.57
0.8612,0.1388	-277.65
0.9145,0.0855	-277.09
0.9181,0.0819	-277.05
0.8947,0.1053	-277.29
0.8172,0.1828	-278.17
0.8789,0.1211	-277.46
0.8525,0.1475	-277.75
0.9036,0.0964	-277.20
0.9252,0.0748	-276.98
0.8885,0.1115	-277.35
0.8432,0.1568	-277.85
0.8935,0.1065	-277.30
0.8687,0.1313	-277.57
0.9155,0.0845	-277.08
0.9471,0.0529	-276.77
0.8992,0.1008	-277.24
0.8523,0.1477	-277.75
0.8602,0.1398	-277.66
0.8436,0.1564	-277.85
0.9049,0.0951	-277.18
0.9428,0.0572	-276.81
0.8992,0.1008	-277.24
0.8473,0.1527	-277.81
0.8408,0.1592	-277.88
0.8488,0.1512	-277.79
0.9188,0.0812	-277.04
0.9400,0.0600	-276.84
0.8983,0.1017	-277.25
0.8455,0.1545	-277.83
0.8555,0.1445	-277.71
0.8211,0.1789	-278.12
0.9102,0.0898	-277.13
0.9397,0.0603	-276.84
0.8999,0.1001	-277.23
0.8514,0.1486	-277.76
0.8416,0.1584	-277.87
0.8175,0.1825	-278.16
0.9021,0.0979	-277.21
0.9564,0.0436	-276.68
0.9102,0.0898	-277.13
0.8634,0.1366	-277.63
0.8356,0.1644	-277.94
0.8003,0.1997	-278.38
0.8961,0.1039	-277.27
0.9585,0.0415	-276.66
0.9099,0.0901	-277.13
0.8639,0.1361	-277.62
0.8473,0.1527	-277.81
0.7666,0.2334	-278.82
0.9269,0.0731	-276.96
0.9607,0.0393	-276.64
0.8845,0.1155	-277.40
0.8754,0.1246	-277.49
0.8714,0.1286	-277.54
0.7972,0.2028	-278.42
0.9320,0.0680	-276.91
0.9600,0.0400	-276.65
0.8927,0.1073	-277.31
0.9010,0.0990	-277.22
0.9101,0.0899	-277.13
0.7928,0.2072	-278.47
0.9307,0.0693	-276.93
0.9529,0.0471	-276.71
0.8762,0.1238	-277.48
0.8895,0.1105	-277.34
0.9056,0.0944	-277.18
0.7717,0.2283	-278.75
0.9404,0.0596	-276.83
0.9582,0.0418	-276.67
0.9071,0.0929	-277.16
0.9021,0.0979	-277.21
0.9086,0.0914	-277.15
0.7676,0.2324	-278.81
0.9412,0.0588	-276.83
0.9503,0.0497	-276.74
0.9116,0.0884	-277.12
0.8728,0.1272	-277.52
0.9014,0.0986	-277.22
0.7411,0.2589	-279.18
0.9431,0.0569	-276.81
0.9319,0.0681	-276.91
0.9023,0.0977	-277.21
0.8509,0.1491	-277.77
0.8965,0.1035	-277.27
0.7279,0.2721	-279.38
0.9549,0.0451	-276.70
0.9319,0.0681	-276.91
0.9006,0.0994	-277.23
0.8471,0.1529	-277.81
0.8961,0.1039	-277.27
0.7362,0.2638	-279.25
0.9447,0.0553	-276.79
0.9202,0.0798	-277.03
0.8950,0.1050	-277.29
0.8254,0.1746	-278.06
0.9174,0.0826	-277.06
0.7413,0.2587	-279.18
0.9454,0.0546	-276.78
0.9255,0.0745	-276.98
0.8912,0.1088	-277.32
0.8449,0.1551	-277.83
0.9304,0.0696	-276.93
0.7870,0.2130	-278.55
0.9451,0.0549	-276.79
0.9280,0.0720	-276.95
0.8797,0.1203	-277.45
0.8295,0.1705	-278.02
0.9258,0.0742	-276.97
0.7840,0.2160	-278.59
0.9425,0.0575	-276.81
0.9505,0.0495	-276.74
0.8898,0.1102	-277.34
0.8645,0.1355	-277.61
0.9272,0.0728	-276.96
0.8070,0.1930	-278.29
0.9439,0.0561	-276.80
0.9574,0.0426	-276.67
0.8974,0.1026	-277.26
0.8769,0.1231	-277.48
0.9349,0.0651	-276.88
0.7929,0.2071	-278.47
0.9474,0.0526	-276.77
0.9563,0.0437	-276.68
0.8785,0.1215	-277.46
0.8740,0.1260	-277.51
0.9276,0.0724	-276.96
0.8049,0.1951	-278.32
0.9441,0.0559	-276.80
0.9697,0.0303	-276.56
0.8820,0.1180	-277.42
0.8671,0.1329	-277.58
0.9333,0.0667	-276.90
0.7773,0.2227	-278.68
0.9466,0.0534	-276.77
0.9640,0.0360	-276.61
0.8768,0.1232	-277.48
0.8698,0.1302	-277.55
0.9432,0.0568	-276.81
0.7670,0.2330	-278.82
0.9534,0.0466	-276.71
0.9585,0.0415	-276.66
0.8819,0.1181	-277.42
0.8618,0.1382	-277.64
0.9441,0.0559	-276.80
0.8199,0.1801	-278.13
0.9572,0.0428	-276.68
0.9550,0.0450	-276.70
0.8454,0.1546	-277.83
0.8356,0.1644	-277.94
0.9273,0.0727	-276.96
0.7688,0.2312	-278.79
0.9594,0.0406	-276.65
0.9588,0.0412	-276.66
0.8655,0.1345	-277.60
0.8168,0.1832	-278.17
0.9126,0.0874	-277.11
0.7511,0.2489	-279.04
0.9573,0.0427	-276.67
0.9430,0.0570	-276.81
0.8764,0.1236	-277.48
0.8051,0.1949	-278.32
0.8948,0.1052	-277.29
0.7702,0.2298	-278.77
0.9553,0.0447	-276.69
0.9431,0.0569	-276.81
0.8921,0.1079	-277.32
0.7594,0.2406	-278.92
0.9021,0.0979	-277.21
0.7997,0.2003	-278.38
0.9595,0.0405	-276.65
0.9521,0.0479	-276.72
0.8876,0.1124	-277.36
0.7643,0.2357	-278.85
0.9020,0.0980	-277.21
0.7824,0.2176	-278.61
0.9622,0.0378	-276.63
0.9576,0.0424	-276.67
0.8641,0.1359	-277.62
0.7404,0.2596	-279.19
0.8945,0.1055	-277.29
0.7928,0.2072	-278.47
0.9571,0.0429	-276.68
0.9535,0.0465	-276.71
0.8887,0.1113	-277.35
0.7878,0.2122	-278.54
0.8907,0.1093	-277.33
0.7844,0.2156	-278.58
0.9568,0.0432	-276.68
0.9546,0.0454	-276.70
0.8956,0.1044	-277.28
0.8153,0.1847	-278.19
0.9017,0.0983	-277.22
0.7919,0.2081	-278.48
0.9585,0.0415	-276.66
0.9537,0.0463	-276.71
0.8643,0.1357	-277.62
0.8356,0.1644	-277.94
0.9189,0.0811	-277.04
0.7622,0.2378	-278.88
0.9647,0.0353	-276.61
0.9630,0.0370	-276.62
0.8759,0.1241	-277.49
0.8259,0.1741	-278.06
0.8997,0.1003	-277.24
0.7927,0.2073	-278.47
0.9619,0.0381	-276.63
0.9699,0.0301	-276.56
0.9076,0.0924	-277.16
0.7969,0.2031	-278.42
0.8878,0.1122	-277.36
0.8068,0.1932	-278.29
0.9443,0.0557	-276.80
0.9667,0.0333	-276.59
0.9082,0.0918	-277.15
0.7786,0.2214	-278.66
0.8996,0.1004	-277.24
0.7853,0.2147	-278.57
0.9474,0.0526	-276.77
0.9558,0.0442	-276.69
0.9104,0.0896	-277.13
0.7661,0.2339	-278.83
0.8965,0.1035	-277.27
0.8184,0.1816	-278.15
0.9536,0.0464	-276.71
0.9605,0.0395	-276.64
0.9213,0.0787	-277.02
0.7482,0.2518	-279.08
0.8406,0.1594	-277.89
0.8054,0.1946	-278.31
0.9487,0.0513	-276.75
0.9614,0.0386	-276.64
0.9257,0.0743	-276.97
0.7411,0.2589	-279.18
0.8063,0.1937	-278.30
0.7639,0.2361	-278.86
0.9520,0.0480	-276.72
0.9582,0.0418	-276.67
0.9306,0.0694	-276.93
0.7486,0.2514	-279.07
0.8311,0.1689	-278.00
0.7999,0.2001	-278.38
0.9606,0.0394	-276.64
0.9587,0.0413	-276.66
0.9180,0.0820	-277.05
0.7244,0.2756	-279.43
0.8461,0.1539	-277.82
0.8062,0.1938	-278.30
0.9505,0.0495	-276.74
0.9633,0.0367	-276.62
0.9325,0.0675	-276.91
0.7014,0.2986	-279.79
0.8478,0.1522	-277.80
0.7961,0.2039	-278.43
0.9574,0.0426	-276.67
0.9519,0.0481	-276.72
0.9259,0.0741	-276.97
0.7226,0.2774	-279.46
0.8294,0.1706	-278.02
0.7824,0.2176	-278.61
0.9591,0.0409	-276.66
0.9530,0.0470	-276.71
0.9263,0.0737	-276.97
0.7443,0.2557	-279.13
0.8076,0.1924	-278.28
0.7933,0.2067	-278.47
0.9511,0.0489	-276.73
0.9506,0.0494	-276.74
0.9308,0.0692	-276.92
0.7586,0.2414	-278.93
0.8383,0.1617	-277.91
0.7908,0.2092	-278.50
0.9502,0.0498	-276.74
0.9580,0.0420	-276.67
0.9216,0.0784	-277.01
0.7860,0.2140	-278.56
0.8522,0.1478	-277.75
0.7998,0.2002	-278.38
0.9494,0.0506	-276.75
0.9510,0.0490	-276.73
0.9303,0.0697	-276.93
0.8070,0.1930	-278.29
0.8054,0.1946	-278.31
0.7963,0.2037	-278.43
0.9463,0.0537	-276.78
0.9452,0.0548	-276.79
0.9213,0.0787	-277.02
0.7733,0.2267	-278.73
0.7709,0.2291	-278.76
0.7956,0.2044	-278.44
0.9409,0.0591	-276.83
0.9445,0.0555	-276.79
0.9029,0.0971	-277.20
0.7856,0.2144	-278.57
0.7677,0.2323	-278.81
0.8230,0.1770	-278.09
0.9296,0.0704	-276.94
0.9295,0.0705	-276.94
0.8846,0.1154	-277.39
0.7625,0.2375	-278.88
0.8190,0.1810	-278.14
0.8072,0.1928	-278.29
0.9228,0.0772	-277.00
0.9523,0.0477	-276.72
0.8984,0.1016	-277.25
0.7934,0.2066	-278.46
0.8195,0.1805	-278.14
0.7694,0.2306	-278.78
0.9150,0.0850	-277.08
0.9461,0.0539	-276.78
0.9209,0.0791	-277.02
0.7829,0.2171	-278.60
0.8290,0.1710	-278.02
0.7631,0.2369	-278.87
0.9322,0.0678	-276.91
0.9318,0.0682	-276.92
0.9234,0.0766	-277.00
0.8304,0.1696	-278.00
0.8184,0.1816	-278.15
0.7595,0.2405	-278.92
0.9380,0.0620	-276.86
0.9310,0.0690	-276.92
0.9267,0.0733	-276.96
0.8316,0.1684	-277.99
0.8337,0.1663	-277.97
0.7798,0.2202	-278.64
0.9244,0.0756	-276.99
0.9373,0.0627	-276.86
0.9226,0.0774	-277.01
0.8817,0.1183	-277.43
0.8632,0.1368	-277.63
0.7422,0.2578	-279.17
0.9488,0.0512	-276.75
0.9444,0.0556	-276.79
0.9313,0.0687	-276.92
0.9088,0.0912	-277.14
0.8547,0.1453	-277.72
0.7453,0.2547	-279.12
0.9516,0.0484	-276.73
0.9421,0.0579	-276.82
0.9264,0.0736	-276.97
0.8998,0.1002	-277.24
0.8756,0.1244	-277.49
0.7143,0.2857	-279.58
0.9573,0.0427	-276.67
0.9441,0.0559	-276.80
0.9235,0.0765	-277.00
0.8998,0.1002	-277.24
0.8990,0.1010	-277.24
0.7376,0.2624	-279.23
0.9605,0.0395	-276.64
0.9347,0.0653	-276.89
0.9186,0.0814	-277.04
0.9025,0.0975	-277.21
0.8877,0.1123	-277.36
0.7699,0.2301	-278.78
0.9450,0.0550	-276.79
0.9171,0.0829	-277.06
0.9304,0.0696	-276.93
0.9120,0.0880	-277.11
0.8876,0.1124	-277.36
0.7832,0.2168	-278.60
0.9360,0.0640	-276.87
0.9139,0.0861	-277.09
0.9268,0.0732	-276.96
0.9052,0.0948	-277.18
0.8908,0.1092	-277.33
0.7423,0.2577	-279.16
0.9402,0.0598	-276.83
0.9188,0.0812	-277.04
0.9224,0.0776	-277.01
0.8668,0.1332	-277.59
0.8734,0.1266	-277.52
0.7395,0.2605	-279.21
0.9474,0.0526	-276.77
0.9461,0.0539	-276.78
0.9224,0.0776	-277.01
0.8407,0.1593	-277.88
0.8777,0.1223	-277.47
0.7364,0.2636	-279.25
0.9498,0.0502	-276.74
0.9498,0.0502	-276.74
0.9092,0.0908	-277.14
0.8199,0.1801	-278.13
0.8856,0.1144	-277.38
0.6910,0.3090	-279.96
0.9368,0.0632	-276.87
0.9423,0.0577	-276.81
0.8946,0.1054	-277.29
0.8162,0.1838	-278.18
0.8917,0.1083	-277.32
0.7258,0.2742	-279.41
0.9223,0.0777	-277.01
0.9502,0.0498	-276.74
0.8805,0.1195	-277.44
0.8365,0.1635	-277.93
0.8912,0.1088	-277.32
0.7412,0.2588	-279.18
0.9303,0.0697	-276.93
0.9513,0.0487	-276.73
0.8596,0.1404	-277.67
0.8406,0.1594	-277.88
0.8949,0.1051	-277.29
0.7643,0.2357	-278.85
0.9272,0.0728	-276.96
0.9497,0.0503	-276.74
0.8641,0.1359	-277.62
0.8483,0.1517	-277.80
0.8821,0.1179	-277.42
0.7954,0.2046	-278.44
0.9237,0.0763	-276.99
0.9483,0.0517	-276.76
0.8639,0.1361	-277.62
0.8393,0.1607	-277.90
0.8748,0.1252	-277.50
0.8232,0.1768	-278.09
0.9194,0.0806	-277.04
0.9404,0.0596	-276.83
0.8558,0.1442	-277.71
0.8354,0.1646	-277.95
0.8800,0.1200	-277.44
0.7994,0.2006	-278.39
0.9095,0.0905	-277.14
0.9328,0.0672	-276.91
0.8784,0.1216	-277.46
0.8015,0.1985	-278.36
0.8576,0.1424	-277.69
0.7738,0.2262	-278.72
0.8889,0.1111	-277.35
0.9359,0.0641	-276.88
0.8588,0.1412	-277.68
0.7956,0.2044	-278.44
0.8588,0.1412	-277.68
0.7944,0.2056	-278.45
0.8987,0.1013	-277.25
0.9304,0.0696	-276.93
0.8827,0.1173	-277.41
0.7814,0.2186	-278.62
0.8721,0.1279	-277.53
0.8234,0.1766	-278.09
0.8857,0.1143	-277.38
0.9352,0.0648	-276.88
0.8892,0.1108	-277.35
0.8032,0.1968	-278.34
0.8583,0.1417	-277.68
0.8073,0.1927	-278.29
0.8954,0.1046	-277.28
0.9336,0.0664	-276.90
0.9055,0.0945	-277.18
0.8182,0.1818	-278.15
0.8695,0.1305	-277.56
0.7975,0.2025	-278.41
0.9120,0.0880	-277.11
0.9326,0.0674	-276.91
0.9001,0.0999	-277.23
0.8402,0.1598	-277.89
0.8694,0.1306	-277.56
0.8231,0.1769	-278.09
0.9121,0.0879	-277.11
0.9296,0.0704	-276.94
0.8789,0.1211	-277.46
0.8601,0.1399	-277.66
0.8758,0.1242	-277.49
0.8257,0.1743	-278.06
0.9325,0.0675	-276.91
0.9297,0.0703	-276.94
0.8788,0.1212	-277.46
0.8466,0.1534	-277.82
0.8714,0.1286	-277.54
0.8378,0.1622	-277.92
0.9320,0.0680	-276.91
0.9329,0.0671	-276.90
0.8745,0.1255	-277.50
0.8138,0.1862	-278.21
0.9035,0.0965	-277.20
0.8127,0.1873	-278.22
0.9398,0.0602	-276.84
0.9280,0.0720	-276.95
0.8766,0.1234	-277.48
0.8320,0.1680	-277.99
0.9046,0.0954	-277.19
0.8152,0.1848	-278.19
0.9362,0.0638	-276.87
0.9271,0.0729	-276.96
0.8741,0.1259	-277.51
0.8455,0.1545	-277.83
0.9180,0.0820	-277.05
0.8444,0.1556	-277.84
0.9371,0.0629	-276.86
0.9387,0.0613	-276.85
0.8569,0.1431	-277.70
0.8840,0.1160	-277.40
0.9069,0.0931	-277.16
0.8208,0.1792	-278.12
0.9412,0.0588	-276.82
0.9152,0.0848	-277.08
0.8701,0.1299	-277.55
0.9038,0.0962	-277.19
0.8958,0.1042	-277.28
0.8103,0.1897	-278.25
0.9390,0.0610	-276.85
0.9257,0.0743	-276.98
0.8311,0.1689	-278.00
0.8934,0.1066	-277.30
0.8982,0.1018	-277.25
0.8116,0.1884	-278.23
0.9266,0.0734	-276.97
0.9062,0.0938	-277.17
0.8263,0.1737	-278.05
0.8906,0.1094	-277.33
0.8868,0.1132	-277.37
0.8359,0.1641	-277.94
0.9277,0.0723	-276.96
0.9002,0.0998	-277.23
0.7739,0.2261	-278.72
0.9064,0.0936	-277.17
0.8658,0.1342	-277.60
0.8080,0.1920	-278.28
0.9322,0.0678	-276.91
0.9009,0.0991	-277.22
0.7949,0.2051	-278.44
0.9008,0.0992	-277.23
0.8748,0.1252	-277.50
0.8282,0.1718	-278.03
0.9219,0.0781	-277.01
0.8790,0.1210	-277.45
0.7583,0.2417	-278.94
0.9269,0.0731	-276.96
0.8942,0.1058	-277.29
0.8269,0.1731	-278.05
0.9264,0.0736	-276.97
0.8878,0.1122	-277.36
0.7520,0.2480	-279.03
0.9292,0.0708	-276.94
0.8904,0.1096	-277.33
0.8184,0.1816	-278.15
0.9322,0.0678	-276.91
0.8755,0.1245	-277.49
0.7778,0.2222	-278.67
0.9426,0.0574	-276.81
0.8805,0.1195	-277.44
0.8345,0.1655	-277.96
0.9347,0.0653	-276.89
0.8782,0.1218	-277.46
0.7686,0.2314	-278.79
0.9490,0.0510	-276.75
0.8655,0.1345	-277.60
0.8417,0.1583	-277.87
0.9388,0.0612	-276.85
0.8816,0.1184	-277.43
0.7652,0.2348	-278.84
0.9515,0.0485	-276.73
0.8621,0.1379	-277.64
0.8750,0.1250	-277.50
0.9366,0.0634	-276.87
0.8891,0.1109	-277.35
0.7902,0.2098	-278.51
0.9530,0.0470	-276.71
0.8588,0.1412	-277.68
0.8949,0.1051	-277.29
0.9363,0.0637	-276.87
0.9100,0.0900	-277.13
0.8104,0.1896	-278.25
0.9616,0.0384	-276.63
0.8327,0.1673	-277.98
0.9149,0.0851	-277.08
0.9302,0.0698	-276.93
0.9142,0.0858	-277.09
0.7929,0.2071	-278.47
0.9547,0.0453	-276.70
0.8619,0.1381	-277.64
0.9245,0.0755	-276.99
0.9251,0.0749	-276.98
0.9233,0.0767	-277.00
0.8026,0.1974	-278.35
0.9592,0.0408	-276.66
0.8507,0.1493	-277.77
0.9425,0.0575	-276.81
0.9268,0.0732	-276.96
0.9110,0.0890	-277.12
0.7728,0.2272	-278.74
0.9674,0.0326	-276.58
0.8589,0.1411	-277.68
0.9439,0.0561	-276.80
0.9234,0.0766	-277.00
0.9093,0.0907	-277.14
0.7604,0.2396	-278.91
0.9643,0.0357	-276.61
0.8881,0.1119	-277.36
0.9270,0.0730	-276.96
0.9285,0.0715	-276.95
0.9129,0.0871	-277.10
0.7912,0.2088	-278.49
0.9646,0.0354	-276.61
0.8989,0.1011	-277.24
0.9200,0.0800	-277.03
0.9149,0.0851	-277.08
0.9058,0.0942	-277.17
0.7717,0.2283	-278.75
0.9565,0.0435	-276.68
0.8902,0.1098	-277.34
0.9249,0.0751	-276.98
0.9121,0.0879	-277.11
0.9059,0.0941	-277.17
0.7733,0.2267	-278.73
0.9524,0.0476	-276.72
0.8534,0.1466	-277.74
0.9296,0.0704	-276.94
0.9003,0.0997	-277.23
0.9286,0.0714	-276.95
0.7539,0.2461	-279.00
0.9540,0.0460	-276.70
0.8861,0.1139	-277.38
0.9236,0.0764	-277.00
0.9224,0.0776	-277.01
0.9181,0.0819	-277.05
0.8028,0.1972	-278.34
0.9438,0.0562	-276.80
0.8859,0.1141	-277.38
0.9429,0.0571	-276.81
0.9162,0.0838	-277.07
0.9400,0.0600	-276.84
0.8405,0.1595	-277.89
0.9450,0.0550	-276.79
0.8699,0.1301	-277.55
0.9392,0.0608	-276.84
0.9242,0.0758	-276.99
0.9420,0.0580	-276.82
0.8518,0.1482	-277.76
0.9347,0.0653	-276.89
0.8510,0.1490	-277.76
0.9396,0.0604	-276.84
0.9143,0.0857	-277.09
0.9470,0.0530	-276.77
0.8765,0.1235	-277.48
0.9052,0.0948	-277.18
0.8261,0.1739	-278.06
0.9190,0.0810	-277.04
0.9008,0.0992	-277.22
0.9459,0.0541	-276.78
0.8933,0.1067	-277.30
0.8988,0.1012	-277.25
0.8286,0.1714	-278.03
0.9258,0.0742	-276.97
0.8848,0.1152	-277.39
0.9597,0.0403	-276.65
0.8747,0.1253	-277.50
0.8911,0.1089	-277.33
0.8178,0.1822	-278.16
0.9242,0.0758	-276.99
0.9171,0.0829	-277.06
0.9712,0.0288	-276.55
0.8856,0.1144	-277.38
0.8994,0.1006	-277.24
0.8568,0.1432	-277.70
0.9359,0.0641	-276.88
0.9345,0.0655	-276.89
0.9695,0.0305	-276.56
0.8930,0.1070	-277.31
0.8733,0.1267	-277.52
0.8483,0.1517	-277.80
0.9461,0.0539	-276.78
0.9461,0.0539	-276.78
0.9666,0.0334	-276.59
0.9047,0.0953	-277.18
0.9019,0.0981	-277.21
0.8666,0.1334	-277.59
0.9423,0.0577	-276.81
0.9436,0.0564	-276.80
0.9630,0.0370	-276.62
0.8760,0.1240	-277.49
0.9046,0.0954	-277.19
0.8807,0.1193	-277.44
0.9460,0.0540	-276.78
0.9559,0.0441	-276.69
0.9556,0.0444	-276.69
0.9006,0.0994	-277.23
0.9259,0.0741	-276.97
0.9003,0.0997	-277.23
0.9529,0.0471	-276.72
0.9575,0.0425	-276.67
0.9622,0.0378	-276.63
0.8966,0.1034	-277.27
0.9304,0.0696	-276.93
0.8928,0.1072	-277.31
0.9472,0.0528	-276.77
0.9609,0.0391	-276.64
0.9589,0.0411	-276.66
0.8804,0.1196	-277.44
0.9353,0.0647	-276.88
0.9224,0.0776	-277.01
0.9531,0.0469	-276.71
0.9710,0.0290	-276.55
0.9515,0.0485	-276.73
0.8904,0.1096	-277.33
0.9395,0.0605	-276.84
0.9219,0.0781	-277.01
0.9489,0.0511	-276.75
0.9668,0.0332	-276.59
0.9409,0.0591	-276.83
0.8946,0.1054	-277.29
0.9325,0.0675	-276.91
0.9195,0.0805	-277.04
0.9450,0.0550	-276.79
0.9704,0.0296	-276.55
0.9390,0.0610	-276.85
0.8846,0.1154	-277.39
0.9276,0.0724	-276.96
0.9286,0.0714	-276.95
0.9480,0.0520	-276.76
0.9688,0.0312	-276.57
0.9295,0.0705	-276.94
0.8890,0.1110	-277.35
0.9398,0.0602	-276.84
0.9306,0.0694	-276.93
0.9374,0.0626	-276.86
0.9729,0.0271	-276.53
0.9369,0.0631	-276.87
0.8754,0.1246	-277.49
0.9468,0.0532	-276.77
0.9401,0.0599	-276.84
0.9239,0.0761	-276.99
0.9689,0.0311	-276.57
0.9306,0.0694	-276.93
0.8689,0.1311	-277.56
0.9556,0.0444	-276.69
0.9230,0.0770	-277.00
0.9197,0.0803	-277.03
0.9623,0.0377	-276.63
0.9207,0.0793	-277.02
0.8228,0.1772	-278.10
0.9518,0.0482	-276.73
0.9052,0.0948	-277.18
0.9089,0.0911	-277.14
0.9657,0.0343	-276.60
0.8856,0.1144	-277.38
0.8315,0.1685	-277.99
0.9548,0.0452	-276.70
0.8880,0.1120	-277.36
0.8865,0.1135	-277.37
0.9660,0.0340	-276.59
0.8700,0.1300	-277.55
0.8445,0.1555	-277.84
0.9599,0.0401	-276.65
0.8823,0.1177	-277.42
0.9009,0.0991	-277.22
0.9571,0.0429	-276.68
0.8747,0.1253	-277.50
0.8946,0.1054	-277.29
0.9612,0.0388	-276.64
0.8547,0.1453	-277.72
0.9055,0.0945	-277.18
0.9638,0.0362	-276.61
0.8677,0.1323	-277.58
0.9017,0.0983	-277.22
0.9536,0.0464	-276.71
0.8496,0.1504	-277.78
0.8925,0.1075	-277.31
0.9633,0.0367	-276.62
0.8632,0.1368	-277.63
0.8899,0.1101	-277.34
0.9605,0.0395	-276.64
0.8113,0.1887	-278.24
0.9085,0.0915	-277.15
0.9679,0.0321	-276.58
0.8718,0.1282	-277.53
0.9206,0.0794	-277.02
0.9592,0.0408	-276.66
0.8266,0.1734	-278.05
0.9123,0.0877	-277.11
0.9685,0.0315	-276.57
0.8804,0.1196	-277.44
0.9193,0.0807	-277.04
0.9571,0.0429	-276.68
0.8104,0.1896	-278.25
0.9089,0.0911	-277.14
0.9753,0.0247	-276.51
0.8866,0.1134	-277.37
0.9157,0.0843	-277.07
0.9454,0.0546	-276.78
0.8110,0.1890	-278.24
0.8871,0.1129	-277.37
0.9729,0.0271	-276.53
0.8847,0.1153	-277.39
0.9236,0.0764	-277.00
0.9583,0.0417	-276.66
0.7822,0.2178	-278.61
0.8987,0.1013	-277.25
0.9708,0.0292	-276.55
0.8767,0.1233	-277.48
0.9279,0.0721	-276.95
0.9616,0.0384	-276.63
0.8178,0.1822	-278.16
0.9034,0.0966	-277.20
0.9697,0.0303	-276.56
0.8735,0.1265	-277.51
0.9171,0.0829	-277.06
0.9667,0.0333	-276.59
0.7935,0.2065	-278.46
0.8977,0.1023	-277.26
0.9714,0.0286	-276.55
0.8795,0.1205	-277.45
0.9125,0.0875	-277.11
0.9695,0.0305	-276.56
0.8331,0.1669	-277.97
0.8681,0.1319	-277.57
0.9646,0.0354	-276.61
0.8852,0.1148	-277.39
0.9047,0.0953	-277.19
0.9755,0.0245	-276.51
0.8328,0.1672	-277.98
0.8394,0.1606	-277.90
0.9706,0.0294	-276.55
0.8670,0.1330	-277.58
0.9143,0.0857	-277.09
0.9687,0.0313	-276.57
0.7927,0.2073	-278.47
0.8424,0.1576	-277.86
0.9711,0.0289	-276.55
0.8642,0.1358	-277.62
0.8671,0.1329	-277.58
0.9770,0.0230	-276.49
0.7887,0.2113	-278.53
0.8176,0.1824	-278.16
0.9731,0.0269	-276.53
0.8261,0.1739	-278.06
0.8640,0.1360	-277.62
0.9742,0.0258	-276.52
0.7868,0.2132	-278.55
0.8274,0.1726	-278.04
0.9744,0.0256	-276.52
0.8352,0.1648	-277.95
0.8651,0.1349	-277.61
0.9680,0.0320	-276.58
0.8200,0.1800	-278.13
0.8397,0.1603	-277.90
0.9758,0.0242	-276.51
0.8163,0.1837	-278.18
0.8679,0.1321	-277.58
0.9738,0.0262	-276.52
0.8357,0.1643	-277.94
0.8263,0.1737	-278.05
0.9770,0.0230	-276.50
0.8239,0.1761	-278.08
0.8976,0.1024	-277.26
0.9680,0.0320	-276.58
0.8028,0.1972	-278.34
0.8505,0.1495	-277.77
0.9711,0.0289	-276.55
0.8338,0.1662	-277.97
0.8766,0.1234	-277.48
0.9686,0.0314	-276.57
0.7830,0.2170	-278.60
0.8768,0.1232	-277.48
0.9685,0.0315	-276.57
0.7969,0.2031	-278.42
0.8820,0.1180	-277.42
0.9682,0.0318	-276.57
0.7551,0.2449	-278.98
0.8609,0.1391	-277.65
0.9567,0.0433	-276.68
0.7565,0.2435	-278.96
0.9010,0.0990	-277.22
0.9749,0.0251	-276.51
0.7940,0.2060	-278.46
0.8791,0.1209	-277.45
0.9613,0.0387	-276.64
0.7419,0.2581	-279.17
0.9040,0.0960	-277.19
0.9818,0.0182	-276.45
0.8201,0.1799	-278.13
0.8885,0.1115	-277.35
0.9479,0.0521	-276.76
0.7154,0.2846	-279.57
0.9033,0.0967	-277.20
0.9816,0.0184	-276.45
0.8308,0.1692	-278.00
0.8874,0.1126	-277.37
0.9395,0.0605	-276.84
0.6659,0.3341	-280.39
0.8958,0.1042	-277.28
0.9857,0.0143	-276.42
0.8173,0.1827	-278.16
0.9034,0.0966	-277.20
0.9281,0.0719	-276.95
0.6777,0.3223	-280.18
0.8996,0.1004	-277.24
0.9837,0.0163	-276.44
0.8173,0.1827	-278.16
0.9148,0.0852	-277.08
0.9464,0.0536	-276.78
0.6808,0.3192	-280.13
0.9096,0.0904	-277.13
0.9861,0.0139	-276.41
0.8366,0.1634	-277.93
0.9211,0.0789	-277.02
0.9511,0.0489	-276.73
0.7390,0.2610	-279.21
0.9020,0.0980	-277.21
0.9865,0.0135	-276.41
0.8474,0.1526	-277.81
0.9123,0.0877	-277.11
0.9541,0.0459	-276.70
0.6968,0.3032	-279.86
0.8923,0.1077	-277.31
0.9854,0.0146	-276.42
0.8422,0.1578	-277.87
0.8963,0.1037	-277.27
0.9580,0.0420	-276.67
0.7079,0.2921	-279.69
0.9042,0.0958	-277.19
0.9839,0.0161	-276.43
0.8034,0.1966	-278.34
0.9101,0.0899	-277.13
0.9581,0.0419	-276.67
0.7570,0.2430	-278.95
0.9088,0.0912	-277.14
0.9806,0.0194	-276.46
0.8396,0.1604	-277.90
0.8986,0.1014	-277.25
0.9540,0.0460	-276.70
0.7051,0.2949	-279.73
0.9174,0.0826	-277.06
0.9764,0.0236	-276.50
0.8477,0.1523	-277.80
0.8840,0.1160	-277.40
0.9506,0.0494	-276.74
0.6975,0.3025	-279.85
0.9295,0.0705	-276.94
0.9773,0.0227	-276.49
0.8208,0.1792	-278.12
0.8841,0.1159	-277.40
0.9540,0.0460	-276.70
0.7401,0.2599	-279.20
0.9238,0.0762	-276.99
0.9793,0.0207	-276.48
0.8304,0.1696	-278.00
0.8853,0.1147	-277.39
0.9421,0.0579	-276.82
0.7914,0.2086	-278.49
0.9252,0.0748	-276.98
0.9794,0.0206	-276.47
0.8534,0.1466	-277.74
0.8711,0.1289	-277.54
0.9256,0.0744	-276.98
0.8213,0.1787	-278.11
0.9367,0.0633	-276.87
0.9797,0.0203	-276.47
0.8620,0.1380	-277.64
0.8721,0.1279	-277.53
0.9060,0.0940	-277.17
0.8050,0.1950	-278.32
0.9216,0.0784	-277.02
0.9801,0.0199	-276.47
0.8802,0.1198	-277.44
0.8936,0.1064	-277.30
0.9181,0.0819	-277.05
0.7913,0.2087	-278.49
0.9182,0.0818	-277.05
0.9820,0.0180	-276.45
0.8625,0.1375	-277.64
0.8686,0.1314	-277.57
0.9131,0.0869	-277.10
0.8219,0.1781	-278.11
0.9232,0.0768	-277.00
0.9779,0.0221	-276.49
0.8516,0.1484	-277.76
0.8843,0.1157	-277.40
0.8993,0.1007	-277.24
0.8194,0.1806	-278.14
0.9107,0.0893	-277.12
0.9805,0.0195	-276.46
0.8441,0.1559	-277.84
0.8782,0.1218	-277.46
0.8884,0.1116	-277.35
0.8279,0.1721	-278.04
0.9255,0.0745	-276.98
0.9802,0.0198	-276.47
0.8570,0.1430	-277.70
0.8866,0.1134	-277.37
0.8739,0.1261	-277.51
0.7985,0.2015	-278.40
0.9251,0.0749	-276.98
0.9829,0.0171	-276.44
0.8586,0.1414	-277.68
0.9069,0.0931	-277.16
0.8881,0.1119	-277.36
0.7587,0.2413	-278.93
0.9304,0.0696	-276.93
0.9849,0.0151	-276.43
0.8459,0.1541	-277.82
0.9107,0.0893	-277.12
0.8768,0.1232	-277.48
0.7546,0.2454	-278.99
0.9222,0.0778	-277.01
0.9818,0.0182	-276.45
0.8342,0.1658	-277.96
0.9340,0.0660	-276.89
0.8502,0.1498	-277.77
0.7386,0.2614	-279.22
0.9165,0.0835	-277.07
0.9777,0.0223	-276.49
0.8700,0.1300	-277.55
0.9553,0.0447	-276.69
0.8740,0.1260	-277.51
0.7525,0.2475	-279.02
0.9317,0.0683	-276.92
0.9759,0.0241	-276.50
0.8670,0.1330	-277.59
0.9555,0.0445	-276.69
0.8937,0.1063	-277.30
0.7933,0.2067	-278.47
0.9317,0.0683	-276.92
0.9796,0.0204	-276.47
0.8815,0.1185	-277.43
0.9518,0.0482	-276.72
0.9171,0.0829	-277.06
0.8239,0.1761	-278.08
0.9325,0.0675	-276.91
0.9836,0.0164	-276.44
0.8678,0.1322	-277.58
0.9509,0.0491	-276.73
0.9167,0.0833	-277.06
0.8667,0.1333	-277.59
0.9268,0.0732	-276.96
0.9814,0.0186	-276.46
0.8751,0.1249	-277.50
0.9369,0.0631	-276.87
0.9265,0.0735	-276.97
0.8552,0.1448	-277.72
0.9256,0.0744	-276.98
0.9804,0.0196	-276.46
0.8884,0.1116	-277.35
0.9296,0.0704	-276.94
0.9263,0.0737	-276.97
0.8667,0.1333	-277.59
0.9179,0.0821	-277.05
0.9796,0.0204	-276.47
0.8778,0.1222	-277.47
0.9390,0.0610	-276.85
0.8947,0.1053	-277.29
0.8970,0.1030	-277.26
0.9291,0.0709	-276.94
0.9806,0.0194	-276.46
0.8641,0.1359	-277.62
0.9545,0.0455	-276.70
0.8839,0.1161	-277.40
0.8973,0.1027	-277.26
0.9292,0.0708	-276.94
0.9783,0.0217	-276.48
0.8609,0.1391	-277.65
0.9519,0.0481	-276.72
0.8925,0.1075	-277.31
0.8951,0.1049	-277.28
0.9392,0.0608	-276.84
0.9758,0.0242	-276.51
0.8419,0.1581	-277.87
0.9631,0.0369	-276.62
0.8674,0.1326	-277.58
0.8715,0.1285	-277.54
0.9367,0.0633	-276.87
0.9716,0.0284	-276.54
0.8449,0.1551	-277.84
0.9569,0.0431	-276.68
0.8518,0.1482	-277.76
0.8726,0.1274	-277.52
0.9252,0.0748	-276.98
0.9730,0.0270	-276.53
0.8677,0.1323	-277.58
0.9566,0.0434	-276.68
0.8450,0.1550	-277.83
0.8947,0.1053	-277.29
0.9234,0.0766	-277.00
0.9737,0.0263	-276.52
0.8786,0.1214	-277.46
0.9677,0.0323	-276.58
0.7921,0.2079	-278.48
0.9014,0.0986	-277.22
0.9288,0.0712	-276.94
0.9733,0.0267	-276.53
0.8874,0.1126	-277.37
0.9642,0.0358	-276.61
0.8165,0.1835	-278.17
0.8977,0.1023	-277.26
0.8966,0.1034	-277.27
0.9749,0.0251	-276.51
0.8676,0.1324	-277.58
0.9605,0.0395	-276.64
0.8066,0.1934	-278.30
0.8872,0.1128	-277.37
0.9085,0.0915	-277.15
0.9735,0.0265	-276.53
0.8678,0.1322	-277.58
0.9534,0.0466	-276.71
0.7910,0.2090	-278.49
0.8755,0.1245	-277.49
0.9066,0.0934	-277.17
0.9798,0.0202	-276.47
0.8774,0.1226	-277.47
0.9477,0.0523	-276.76
0.7990,0.2010	-278.39
0.8885,0.1115	-277.35
0.8948,0.1052	-277.29
0.9762,0.0238	-276.50
0.8710,0.1290	-277.54
0.9457,0.0543	-276.78
0.7661,0.2339	-278.83
0.9144,0.0856	-277.09
0.8919,0.1081	-277.32
0.9747,0.0253	-276.52
0.8937,0.1063	-277.30
0.9315,0.0685	-276.92
0.7331,0.2669	-279.30
0.9207,0.0793	-277.02
0.9127,0.0873	-277.10
0.9755,0.0245	-276.51
0.9031,0.0969	-277.20
0.9339,0.0661	-276.90
0.7273,0.2727	-279.39
0.9435,0.0565	-276.80
0.9110,0.0890	-277.12
0.9743,0.0257	-276.52
0.9243,0.0757	-276.99
0.9454,0.0546	-276.78
0.7732,0.2268	-278.73
0.9348,0.0652	-276.89
0.8845,0.1155	-277.40
0.9695,0.0305	-276.56
0.9311,0.0689	-276.92
0.9404,0.0596	-276.83
0.7612,0.2388	-278.90
0.9354,0.0646	-276.88
0.8716,0.1284	-277.53
0.9647,0.0353	-276.61
0.9396,0.0604	-276.84
0.9408,0.0592	-276.83
0.7346,0.2654	-279.28
0.9353,0.0647	-276.88
0.8568,0.1432	-277.70
0.9693,0.0307	-276.56
0.9347,0.0653	-276.89
0.9325,0.0675	-276.91
0.8165,0.1835	-278.17
0.9390,0.0610	-276.85
0.8297,0.1703	-278.01
0.9597,0.0403	-276.65
0.9336,0.0664	-276.90
0.9355,0.0645	-276.88
0.7941,0.2059	-278.46
0.9392,0.0608	-276.84
0.8406,0.1594	-277.88
0.9653,0.0347	-276.60
0.9363,0.0637	-276.87
0.9511,0.0489	-276.73
0.7872,0.2128	-278.54
0.9240,0.0760	-276.99
0.8308,0.1692	-278.00
0.9646,0.0354	-276.61
0.9458,0.0542	-276.78
0.9463,0.0537	-276.78
0.7490,0.2510	-279.07
0.9195,0.0805	-277.04
0.8332,0.1668	-277.97
0.9551,0.0449	-276.69
0.9470,0.0530	-276.77
0.9327,0.0673	-276.91
0.7678,0.2322	-278.80
0.9233,0.0767	-277.00
0.8497,0.1503	-277.78
0.9435,0.0565	-276.80
0.9525,0.0475	-276.72
0.9452,0.0548	-276.79
0.7816,0.2184	-278.62
0.9378,0.0622	-276.86
0.8528,0.1472	-277.74
0.9469,0.0531	-276.77
0.9456,0.0544	-276.78
0.9504,0.0496	-276.74
0.8222,0.1778	-278.10
0.9308,0.0692	-276.92
0.8503,0.1497	-277.77
0.9466,0.0534	-276.77
0.9515,0.0485	-276.73
0.9541,0.0459	-276.70
0.8114,0.1886	-278.24
0.9395,0.0605	-276.84
0.8619,0.1381	-277.64
0.9546,0.0454	-276.70
0.9580,0.0420	-276.67
0.9547,0.0453	-276.70
0.8043,0.1957	-278.32
0.9319,0.0681	-276.91
0.8575,0.1425	-277.69
0.9491,0.0509	-276.75
0.9504,0.0496	-276.74
0.9486,0.0514	-276.76
0.7766,0.2234	-278.69
0.9445,0.0555	-276.79
0.8499,0.1501	-277.78
0.9328,0.0672	-276.91
0.9492,0.0508	-276.75
0.9304,0.0696	-276.93
0.7587,0.2413	-278.93
0.9403,0.0597	-276.83
0.8523,0.1477	-277.75
0.9157,0.0843	-277.07
0.9596,0.0404	-276.65
0.9494,0.0506	-276.75
0.7822,0.2178	-278.61
0.9305,0.0695	-276.93
0.8542,0.1458	-277.73
0.9356,0.0644	-276.88
0.9635,0.0365	-276.62
0.9385,0.0615	-276.85
0.8076,0.1924	-278.28
0.9225,0.0775	-277.01
0.8669,0.1331	-277.59
0.9479,0.0521	-276.76
0.9592,0.0408	-276.66
0.9390,0.0610	-276.85
0.8197,0.1803	-278.13
0.9338,0.0662	-276.90
0.8696,0.1304	-277.56
0.9592,0.0408	-276.66
0.9635,0.0365	-276.62
0.9472,0.0528	-276.77
0.8191,0.1809	-278.14
0.9474,0.0526	-276.77
0.8672,0.1328	-277.58
0.9571,0.0429	-276.68
0.9572,0.0428	-276.68
0.9462,0.0538	-276.78
0.7958,0.2042	-278.43
0.9535,0.0465	-276.71
0.8677,0.1323	-277.58
0.9675,0.0325	-276.58
0.9616,0.0384	-276.63
0.9432,0.0568	-276.81
0.7818,0.2182	-278.62
0.9524,0.0476	-276.72
0.8721,0.1279	-277.53
0.9746,0.0254	-276.52
0.9616,0.0384	-276.63
0.9418,0.0582	-276.82
0.7699,0.2301	-278.78
0.9447,0.0553	-276.79
0.8760,0.1240	-277.49
0.9746,0.0254	-276.52
0.9634,0.0366	-276.62
0.9423,0.0577	-276.81
0.7691,0.2309	-278.79
0.9453,0.0547	-276.79
0.8547,0.1453	-277.72
0.9730,0.0270	-276.53
0.9664,0.0336	-276.59
0.9435,0.0565	-276.80
0.7576,0.2424	-278.95
0.9499,0.0501	-276.74
0.8399,0.1601	-277.89
0.9759,0.0241	-276.51
0.9658,0.0342	-276.60
0.9422,0.0578	-276.82
0.7977,0.2023	-278.41
0.9528,0.0472	-276.72
0.8441,0.1559	-277.84
0.9754,0.0246	-276.51
0.9542,0.0458	-276.70
0.9413,0.0587	-276.82
0.8571,0.1429	-277.70
0.9613,0.0387	-276.64
0.8147,0.1853	-278.20
0.9751,0.0249	-276.51
0.9498,0.0502	-276.74
0.9261,0.0739	-276.97
0.8487,0.1513	-277.79
0.9611,0.0389	-276.64
0.8210,0.1790	-278.12
0.9789,0.0211	-276.48
0.9608,0.0392	-276.64
0.9110,0.0890	-277.12
0.8282,0.1718	-278.03
0.9652,0.0348	-276.60
0.8568,0.1432	-277.70
0.9783,0.0217	-276.48
0.9615,0.0385	-276.64
0.9289,0.0711	-276.94
0.8206,0.1794	-278.12
0.9629,0.0371	-276.62
0.8700,0.1300	-277.55
0.9745,0.0255	-276.52
0.9538,0.0462	-276.71
0.9289,0.0711	-276.94
0.8721,0.1279	-277.53
0.9604,0.0396	-276.64
0.8727,0.1273	-277.52
0.9720,0.0280	-276.54
0.9539,0.0461	-276.71
0.9202,0.0798	-277.03
0.8276,0.1724	-278.04
0.9624,0.0376	-276.63
0.8804,0.1196	-277.44
0.9706,0.0294	-276.55
0.9489,0.0511	-276.75
0.9182,0.0818	-277.05
0.8566,0.1434	-277.70
0.9593,0.0407	-276.66
0.8521,0.1479	-277.75
0.9690,0.0310	-276.57
0.9494,0.0506	-276.75
0.9336,0.0664	-276.90
0.8521,0.1479	-277.75
0.9612,0.0388	-276.64
0.8596,0.1404	-277.67
0.9692,0.0308	-276.57
0.9459,0.0541	-276.78
0.9153,0.0847	-277.08
0.8493,0.1507	-277.78
0.9479,0.0521	-276.76
0.8430,0.1570	-277.86
0.9583,0.0417	-276.66
0.9338,0.0662	-276.90
0.9270,0.0730	-276.96
0.8576,0.1424	-277.69
0.9558,0.0442	-276.69
0.8591,0.1409	-277.67
0.9547,0.0453	-276.70
0.9452,0.0548	-276.79
0.9263,0.0737	-276.97
0.8707,0.1293	-277.54
0.9544,0.0456	-276.70
0.8405,0.1595	-277.89
0.9534,0.0466	-276.71
0.9461,0.0539	-276.78
0.9286,0.0714	-276.95
0.8500,0.1500	-277.78
0.9503,0.0497	-276.74
0.8496,0.1504	-277.78
0.9579,0.0421	-276.67
0.9466,0.0534	-276.77
0.9335,0.0665	-276.90
0.8471,0.1529	-277.81
0.9551,0.0449	-276.69
0.8113,0.1887	-278.24
0.9622,0.0378	-276.63
0.9462,0.0538	-276.78
0.9497,0.0503	-276.74
0.8396,0.1604	-277.90
0.9587,0.0413	-276.66
0.7963,0.2037	-278.43
0.9637,0.0363	-276.62
0.9502,0.0498	-276.74
0.9428,0.0572	-276.81
0.8397,0.1603	-277.90
0.9541,0.0459	-276.70
0.7901,0.2099	-278.51
0.9654,0.0346	-276.60
0.9618,0.0382	-276.63
0.9510,0.0490	-276.73
0.8113,0.1887	-278.24
0.9524,0.0476	-276.72
0.7761,0.2239	-278.69
0.9581,0.0419	-276.67
0.9683,0.0317	-276.57
0.9516,0.0484	-276.73
0.7897,0.2103	-278.51
0.9415,0.0585	-276.82
0.7877,0.2123	-278.54
0.9518,0.0482	-276.72
0.9643,0.0357	-276.61
0.9599,0.0401	-276.65
0.8210,0.1790	-278.12
0.9455,0.0545	-276.78
0.7670,0.2330	-278.82
0.9518,0.0482	-276.72
0.9494,0.0506	-276.75
0.9477,0.0523	-276.76
0.8579,0.1421	-277.69
0.9630,0.0370	-276.62
0.7945,0.2055	-278.45
0.9534,0.0466	-276.71
0.9356,0.0644	-276.88
0.9412,0.0588	-276.83
0.8748,0.1252	-277.50
0.9658,0.0342	-276.60
0.7841,0.2159	-278.59
0.9509,0.0491	-276.73
0.9320,0.0680	-276.91
0.9399,0.0601	-276.84
0.8796,0.1204	-277.45
0.9648,0.0352	-276.61
0.7729,0.2271	-278.74
0.9608,0.0392	-276.64
0.9213,0.0787	-277.02
0.9392,0.0608	-276.84
0.8987,0.1013	-277.25
0.9732,0.0268	-276.53
0.7928,0.2072	-278.47
0.9611,0.0389	-276.64
0.9392,0.0608	-276.84
0.9529,0.0471	-276.72
0.9049,0.0951	-277.18
0.9623,0.0377	-276.63
0.7796,0.2204	-278.64
0.9522,0.0478	-276.72
0.9368,0.0632	-276.87
0.9497,0.0503	-276.74
0.8747,0.1253	-277.50
0.9648,0.0352	-276.61
0.8313,0.1687	-277.99
0.9398,0.0602	-276.84
0.9179,0.0821	-277.05
0.9498,0.0502	-276.74
0.8820,0.1180	-277.42
0.9664,0.0336	-276.59
0.8824,0.1176	-277.42
0.9369,0.0631	-276.87
0.9073,0.0927	-277.16
0.9444,0.0556	-276.79
0.8602,0.1398	-277.66
0.9617,0.0383	-276.63
0.8949,0.1051	-277.29
0.9316,0.0684	-276.92
0.8967,0.1033	-277.27
0.9549,0.0451	-276.70
0.8703,0.1297	-277.55
0.9618,0.0382	-276.63
0.9037,0.0963	-277.20
0.9400,0.0600	-276.84
0.8803,0.1197	-277.44
0.9556,0.0444	-276.69
0.8634,0.1366	-277.63
0.9687,0.0313	-276.57
0.8554,0.1446	-277.71
0.9504,0.0496	-276.74
0.8961,0.1039	-277.27
0.9543,0.0457	-276.70
0.8823,0.1177	-277.42
0.9704,0.0296	-276.55
0.8613,0.1387	-277.65
0.9502,0.0498	-276.74
0.8774,0.1226	-277.47
0.9474,0.0526	-276.77
0.8857,0.1143	-277.38
0.9674,0.0326	-276.58
0.8681,0.1319	-277.57
0.9500,0.0500	-276.74
0.8917,0.1083	-277.32
0.9406,0.0594	-276.83
0.9075,0.0925	-277.16
0.9707,0.0293	-276.55
0.8846,0.1154	-277.39
0.9484,0.0516	-276.76
0.8998,0.1002	-277.24
0.9381,0.0619	-276.85
0.8952,0.1048	-277.28
0.9813,0.0187	-276.46
0.8565,0.1435	-277.70
0.9443,0.0557	-276.80
0.9180,0.0820	-277.05
0.9248,0.0752	-276.98
0.9039,0.0961	-277.19
0.9834,0.0166	-276.44
0.8620,0.1380	-277.64
0.9566,0.0434	-276.68
0.9078,0.0922	-277.15
0.9458,0.0542	-276.78
0.8937,0.1063	-277.30
0.9829,0.0171	-276.44
0.8870,0.1130	-277.37
0.9498,0.0502	-276.74
0.8983,0.1017	-277.25
0.9494,0.0506	-276.75
0.9064,0.0936	-277.17
0.9794,0.0206	-276.47
0.8688,0.1312	-277.57
0.9490,0.0510	-276.75
0.8961,0.1039	-277.27
0.9546,0.0454	-276.70
0.9306,0.0694	-276.93
0.9787,0.0213	-276.48
0.8923,0.1077	-277.31
0.9567,0.0433	-276.68
0.9032,0.0968	-277.20
0.9471,0.0529	-276.77
0.9381,0.0619	-276.85
0.9792,0.0208	-276.48
0.9208,0.0792	-277.02
0.9546,0.0454	-276.70
0.9211,0.0789	-277.02
0.9542,0.0458	-276.70
0.9371,0.0629	-276.86
0.9819,0.0181	-276.45
0.9236,0.0764	-277.00
0.9461,0.0539	-276.78
0.9056,0.0944	-277.18
0.9531,0.0469	-276.71
0.9425,0.0575	-276.81
0.9848,0.0152	-276.43
0.9092,0.0908	-277.14
0.9389,0.0611	-276.85
0.9024,0.0976	-277.21
0.9543,0.0457	-276.70
0.9399,0.0601	-276.84
0.9861,0.0139	-276.41
0.9101,0.0899	-277.13
0.9345,0.0655	-276.89
0.8972,0.1028	-277.26
0.9489,0.0511	-276.75
0.9301,0.0699	-276.93
0.9836,0.0164	-276.44
0.8982,0.1018	-277.25
0.9142,0.0858	-277.09
0.9154,0.0846	-277.08
0.9509,0.0491	-276.73
0.9340,0.0660	-276.89
0.9868,0.0132	-276.41
0.8869,0.1131	-277.37
0.9243,0.0757	-276.99
0.9274,0.0726	-276.96
0.9374,0.0626	-276.86
0.9373,0.0627	-276.86
0.9837,0.0163	-276.44
0.8741,0.1259	-277.51
0.9114,0.0886	-277.12
0.9260,0.0740	-276.97
0.9369,0.0631	-276.87
0.9485,0.0515	-276.76
0.9850,0.0150	-276.42
0.9162,0.0838	-277.07
0.9015,0.0985	-277.22
0.9339,0.0661	-276.90
0.9398,0.0602	-276.84
0.9466,0.0534	-276.77
0.9859,0.0141	-276.42
0.8921,0.1079	-277.31
0.9022,0.0978	-277.21
0.9453,0.0547	-276.79
0.9456,0.0544	-276.78
0.9510,0.0490	-276.73
0.9831,0.0169	-276.44
0.8991,0.1009	-277.24
0.9057,0.0943	-277.17
0.9423,0.0577	-276.81
0.9404,0.0596	-276.83
0.9466,0.0534	-276.77
0.9871,0.0129	-276.41
0.9128,0.0872	-277.10
0.9121,0.0879	-277.11
0.9447,0.0553	-276.79
0.9392,0.0608	-276.84
0.9441,0.0559	-276.80
0.9855,0.0145	-276.42
0.9226,0.0774	-277.00
0.8959,0.1041	-277.28
0.9443,0.0557	-276.80
0.9482,0.0518	-276.76
0.9407,0.0593	-276.83
0.9846,0.0154	-276.43
0.9237,0.0763	-276.99
0.9012,0.0988	-277.22
0.9313,0.0687	-276.92
0.9391,0.0609	-276.84
0.9313,0.0687	-276.92
0.9843,0.0157	-276.43
0.9222,0.0778	-277.01
0.9300,0.0700	-276.93
0.9417,0.0583	-276.82
0.9370,0.0630	-276.86
0.9373,0.0627	-276.86
0.9865,0.0135	-276.41
0.9116,0.0884	-277.11
0.9402,0.0598	-276.83
0.9511,0.0489	-276.73
0.9315,0.0685	-276.92
0.9315,0.0685	-276.92
0.9859,0.0141	-276.42
0.9056,0.0944	-277.18
0.9522,0.0478	-276.72
0.9455,0.0545	-276.78
0.9334,0.0666	-276.90
0.9269,0.0731	-276.96
0.9860,0.0140	-276.42
0.8971,0.1029	-277.26
0.9411,0.0589	-276.83
0.9398,0.0602	-276.84
0.9193,0.0807	-277.04
0.9325,0.0675	-276.91
0.9861,0.0139	-276.42
0.8971,0.1029	-277.26
0.9298,0.0702	-276.93
0.9339,0.0661	-276.89
0.9153,0.0847	-277.08
0.9372,0.0628	-276.86
0.9852,0.0148	-276.42
0.9009,0.0991	-277.22
0.9267,0.0733	-276.96
0.9289,0.0711	-276.94
0.8950,0.1050	-277.29
0.9308,0.0692	-276.93
0.9864,0.0136	-276.41
0.8897,0.1103	-277.34
0.9134,0.0866	-277.10
0.9380,0.0620	-276.86
0.9137,0.0863	-277.09
0.9164,0.0836	-277.07
0.9844,0.0156	-276.43
0.8896,0.1104	-277.34
0.8991,0.1009	-277.24
0.9474,0.0526	-276.77
0.9223,0.0777	-277.01
0.9041,0.0959	-277.19
0.9826,0.0174	-276.45
0.8836,0.1164	-277.41
0.9041,0.0959	-277.19
0.9337,0.0663	-276.90
0.9089,0.0911	-277.14
0.8890,0.1110	-277.35
0.9837,0.0163	-276.44
0.8945,0.1055	-277.29
0.9083,0.0917	-277.15
0.9477,0.0523	-276.76
0.8801,0.1199	-277.44
0.8887,0.1113	-277.35
0.9852,0.0148	-276.42
0.8844,0.1156	-277.40
0.9148,0.0852	-277.08
0.9386,0.0614	-276.85
0.9025,0.0975	-277.21
0.8543,0.1457	-277.73
0.9883,0.0117	-276.40
0.8959,0.1041	-277.28
0.9122,0.0878	-277.11
0.9358,0.0642	-276.88
0.9086,0.0914	-277.15
0.8590,0.1410	-277.67
0.9869,0.0131	-276.41
0.9104,0.0896	-277.13
0.9360,0.0640	-276.87
0.9489,0.0511	-276.75
0.9142,0.0858	-277.09
0.8770,0.1230	-277.48
0.9876,0.0124	-276.40
0.9065,0.0935	-277.17
0.9164,0.0836	-277.07
0.9403,0.0597	-276.83
0.9114,0.0886	-277.12
0.9121,0.0879	-277.11
0.9845,0.0155	-276.43
0.8928,0.1072	-277.31
0.9308,0.0692	-276.93
0.9415,0.0585	-276.82
0.9051,0.0949	-277.18
0.9143,0.0857	-277.09
0.9837,0.0163	-276.44
0.9032,0.0968	-277.20
0.9192,0.0808	-277.04
0.9335,0.0665	-276.90
0.9070,0.0930	-277.16
0.9293,0.0707	-276.94
0.9841,0.0159	-276.43
0.8986,0.1014	-277.25
0.9301,0.0699	-276.93
0.9301,0.0699	-276.93
0.9049,0.0951	-277.18
0.9167,0.0833	-277.06
0.9843,0.0157	-276.43
0.9115,0.0885	-277.12
0.9228,0.0772	-277.00
0.9292,0.0708	-276.94
0.8833,0.1167	-277.41
0.9089,0.0911	-277.14
0.9855,0.0145	-276.42
0.9302,0.0698	-276.93
0.9149,0.0851	-277.08
0.9181,0.0819	-277.05
0.8971,0.1029	-277.26
0.9204,0.0796	-277.03
0.9891,0.0109	-276.39
0.9380,0.0620	-276.86
0.8987,0.1013	-277.25
0.9051,0.0949	-277.18
0.9028,0.0972	-277.20
0.9204,0.0796	-277.03
0.9880,0.0120	-276.40
0.9316,0.0684	-276.92
0.9090,0.0910	-277.14
0.8988,0.1012	-277.25
0.9222,0.0778	-277.01
0.9301,0.0699	-276.93
0.9898,0.0102	-276.38
0.9127,0.0873	-277.10
0.9166,0.0834	-277.06
0.8947,0.1053	-277.29
0.9273,0.0727	-276.96
0.9334,0.0666	-276.90
0.9909,0.0091	-276.37
0.9093,0.0907	-277.14
0.9044,0.0956	-277.19
0.9101,0.0899	-277.13
0.9238,0.0762	-276.99
0.9370,0.0630	-276.87
0.9897,0.0103	-276.38
0.8930,0.1070	-277.31
0.9183,0.0817	-277.05
0.9114,0.0886	-277.12
0.9182,0.0818	-277.05
0.9267,0.0733	-276.97
0.9895,0.0105	-276.39
0.8788,0.1212	-277.46
0.9054,0.0946	-277.18
0.9201,0.0799	-277.03
0.9231,0.0769	-277.00
0.8967,0.1033	-277.27
0.9904,0.0096	-276.38
0.8861,0.1139	-277.38
0.9076,0.0924	-277.16
0.9135,0.0865	-277.10
0.9231,0.0769	-277.00
0.8873,0.1127	-277.37
0.9878,0.0122	-276.40
0.8965,0.1035	-277.27
0.9285,0.0715	-276.95
0.9276,0.0724	-276.96
0.9174,0.0826	-277.06
0.8788,0.1212	-277.46
0.9871,0.0129	-276.41
0.9171,0.0829	-277.06
0.9172,0.0828	-277.06
0.9235,0.0765	-277.00
0.9208,0.0792	-277.02
0.8660,0.1340	-277.60
0.9814,0.0186	-276.46
0.9215,0.0785	-277.02
0.9212,0.0788	-277.02
0.9293,0.0707	-276.94
0.9230,0.0770	-277.00
0.8676,0.1324	-277.58
0.9780,0.0220	-276.49
0.9135,0.0865	-277.10
0.9311,0.0689	-276.92
0.8933,0.1067	-277.30
0.9242,0.0758	-276.99
0.8471,0.1529	-277.81
0.9766,0.0234	-276.50
0.9123,0.0877	-277.11
0.9219,0.0781	-277.01
0.8872,0.1128	-277.37
0.9282,0.0718	-276.95
0.8483,0.1517	-277.80
0.9754,0.0246	-276.51
0.9243,0.0757	-276.99
0.9144,0.0856	-277.09
0.8562,0.1438	-277.71
0.9473,0.0527	-276.77
0.8400,0.1600	-277.89
0.9756,0.0244	-276.51
0.9297,0.0703	-276.94
0.9273,0.0727	-276.96
0.8426,0.1574	-277.86
0.9515,0.0485	-276.73
0.8491,0.1509	-277.79
0.9682,0.0318	-276.57
0.9329,0.0671	-276.90
0.9223,0.0777	-277.01
0.8485,0.1515	-277.79
0.9424,0.0576	-276.81
0.8564,0.1436	-277.70
0.9681,0.0319	-276.57
0.9398,0.0602	-276.84
0.9314,0.0686	-276.92
0.8788,0.1212	-277.46
0.9280,0.0720	-276.95
0.8409,0.1591	-277.88
0.9663,0.0337	-276.59
0.9293,0.0707	-276.94
0.9322,0.0678	-276.91
0.8759,0.1241	-277.49
0.9278,0.0722	-276.95
0.8487,0.1513	-277.79
0.9614,0.0386	-276.64
0.9425,0.0575	-276.81
0.9494,0.0506	-276.75
0.8678,0.1322	-277.58
0.9389,0.0611	-276.85
0.8774,0.1226	-277.47
0.9617,0.0383	-276.63
0.9280,0.0720	-276.95
0.9517,0.0483	-276.73
0.8727,0.1273	-277.52
0.9266,0.0734	-276.97
0.8602,0.1398	-277.66
0.9581,0.0419	-276.67
0.9414,0.0586	-276.82
