#isoforms=['ENSG00000101294.SE.1.A.up_ENSG00000101294.SE.1.A.SE1_ENSG00000101294.SE.1.A.dn','ENSG00000101294.SE.1.B.up_ENSG00000101294.SE.1.B.dn']	exon_lens=('ENSG00000101294.SE.1.A.up',99),('ENSG00000101294.SE.1.A.SE1',376),('ENSG00000101294.SE.1.A.dn',89),('ENSG00000101294.SE.1.B.up',99),('ENSG00000101294.SE.1.B.dn',89)	iters=5000	burn_in=500	lag=10	percent_accept=90.91	proposal_type=drift	counts=(0,0):172,(1,0):124,(1,1):97	assigned_counts=0:186,1:35	chrom=chr20	strand=+	mRNA_starts=31527484,31527484	mRNA_ends=31545035,31545035
sampled_psi	log_score
0.4977,0.5023	-1443.33
0.4666,0.5334	-1442.87
0.4470,0.5530	-1443.58
0.4626,0.5374	-1443.61
0.4800,0.5200	-1444.25
0.5250,0.4750	-1443.12
0.5173,0.4827	-1443.35
0.5270,0.4730	-1443.44
0.4133,0.5867	-1447.23
0.4011,0.5989	-1441.41
0.4985,0.5015	-1443.30
0.4831,0.5169	-1443.34
0.5276,0.4724	-1442.13
0.5011,0.4989	-1443.34
0.4382,0.5618	-1441.08
0.4295,0.5705	-1444.37
0.5638,0.4362	-1444.30
0.4873,0.5127	-1443.52
0.5107,0.4893	-1443.32
0.4828,0.5172	-1443.34
0.5155,0.4845	-1443.03
0.4044,0.5956	-1443.69
0.5881,0.4119	-1443.86
0.4541,0.5459	-1442.52
0.4787,0.5213	-1443.12
0.4468,0.5532	-1442.30
0.5049,0.4951	-1443.25
0.3890,0.6110	-1445.75
0.5756,0.4244	-1439.86
0.4137,0.5863	-1441.61
0.4582,0.5418	-1443.20
0.4658,0.5342	-1443.14
0.5405,0.4595	-1442.85
0.4454,0.5546	-1445.37
0.5143,0.4857	-1442.65
0.4450,0.5550	-1443.85
0.4848,0.5152	-1443.33
0.5305,0.4695	-1443.00
0.5454,0.4546	-1441.95
0.4670,0.5330	-1443.40
0.5251,0.4749	-1443.22
0.4904,0.5096	-1443.73
0.4581,0.5419	-1444.55
0.5267,0.4733	-1443.01
0.5578,0.4422	-1444.11
0.5120,0.4880	-1443.56
0.5144,0.4856	-1443.10
0.5252,0.4748	-1444.03
0.4866,0.5134	-1443.16
0.5080,0.4920	-1443.31
0.5714,0.4286	-1442.56
0.5240,0.4760	-1442.64
0.4912,0.5088	-1443.31
0.5650,0.4350	-1441.98
0.4343,0.5657	-1444.46
0.5155,0.4845	-1443.65
0.5959,0.4041	-1441.40
0.5247,0.4753	-1442.43
0.4143,0.5857	-1441.61
0.4578,0.5422	-1443.55
0.4452,0.5548	-1443.40
0.5460,0.4540	-1444.71
0.5874,0.4126	-1441.72
0.5497,0.4503	-1441.49
0.3268,0.6732	-1443.80
0.4210,0.5790	-1443.15
0.4408,0.5592	-1443.50
0.5660,0.4340	-1443.05
0.6268,0.3732	-1443.92
0.5706,0.4294	-1439.14
0.3406,0.6594	-1440.80
0.3821,0.6179	-1441.89
0.4514,0.5486	-1444.07
0.5752,0.4248	-1444.41
0.6388,0.3612	-1443.29
0.5637,0.4363	-1442.24
0.4043,0.5957	-1445.24
0.4111,0.5889	-1442.72
0.5011,0.4989	-1443.29
0.6251,0.3749	-1441.29
0.6432,0.3568	-1439.34
0.5656,0.4344	-1441.98
0.4194,0.5806	-1443.52
0.4041,0.5959	-1441.76
0.5202,0.4798	-1444.26
0.5911,0.4089	-1438.06
0.6017,0.3983	-1443.09
0.5360,0.4640	-1443.29
0.4576,0.5424	-1444.40
0.5007,0.4993	-1443.33
0.5452,0.4548	-1442.68
0.5759,0.4241	-1443.52
0.5535,0.4465	-1443.12
0.5375,0.4625	-1441.80
0.4456,0.5544	-1446.67
0.5393,0.4607	-1443.33
0.5493,0.4507	-1443.08
0.6330,0.3670	-1441.99
0.5318,0.4682	-1443.00
0.4940,0.5060	-1443.38
0.5265,0.4735	-1443.33
0.5200,0.4800	-1442.65
0.5210,0.4790	-1443.38
0.6025,0.3975	-1441.03
0.5749,0.4251	-1443.50
0.4874,0.5126	-1443.47
0.5781,0.4219	-1443.26
0.5794,0.4206	-1440.73
0.4931,0.5069	-1443.36
0.5902,0.4098	-1442.46
0.5696,0.4304	-1442.26
0.4537,0.5463	-1443.26
0.5716,0.4284	-1440.54
0.5377,0.4623	-1443.31
0.5321,0.4679	-1443.77
0.6048,0.3952	-1439.35
0.5565,0.4435	-1443.61
0.4623,0.5377	-1444.22
0.5688,0.4312	-1441.43
0.5422,0.4578	-1442.52
0.5738,0.4262	-1441.69
0.6270,0.3730	-1441.33
0.5009,0.4991	-1443.32
0.5169,0.4831	-1443.35
0.5346,0.4654	-1442.72
0.5258,0.4742	-1443.02
0.5478,0.4522	-1443.26
0.6821,0.3179	-1437.05
0.4886,0.5114	-1443.22
0.5322,0.4678	-1443.13
0.4967,0.5033	-1443.34
0.4721,0.5279	-1442.33
0.6049,0.3951	-1441.47
0.6350,0.3650	-1439.27
0.4888,0.5112	-1443.54
0.5441,0.4559	-1442.68
0.5055,0.4945	-1443.27
0.5122,0.4878	-1442.98
0.6005,0.3995	-1442.65
0.6498,0.3502	-1437.56
0.5324,0.4676	-1442.48
0.5525,0.4475	-1441.84
0.4867,0.5133	-1443.32
0.5162,0.4838	-1442.95
0.5904,0.4096	-1442.47
0.6205,0.3795	-1442.20
0.5268,0.4732	-1443.55
0.5575,0.4425	-1443.63
0.5476,0.4524	-1443.06
0.5126,0.4874	-1443.28
0.5777,0.4223	-1443.57
0.6178,0.3822	-1440.22
0.5609,0.4391	-1442.24
0.4977,0.5023	-1443.32
0.5564,0.4436	-1441.80
0.5447,0.4553	-1443.40
0.5617,0.4383	-1440.75
0.6234,0.3766	-1439.75
0.5955,0.4045	-1444.10
0.4920,0.5080	-1443.18
0.5296,0.4704	-1443.36
0.4767,0.5233	-1444.05
0.4925,0.5075	-1443.49
0.5880,0.4120	-1441.36
0.5655,0.4345	-1440.67
0.5415,0.4585	-1443.52
0.5459,0.4541	-1443.05
0.4744,0.5256	-1442.81
0.4665,0.5335	-1443.67
0.5667,0.4333	-1443.32
0.4864,0.5136	-1443.05
0.5157,0.4843	-1443.09
0.6179,0.3821	-1441.18
0.5494,0.4506	-1442.28
0.5364,0.4636	-1442.71
0.6177,0.3823	-1438.78
0.4860,0.5140	-1443.77
0.5541,0.4459	-1442.48
0.6117,0.3883	-1438.83
0.5124,0.4876	-1443.47
0.5842,0.4158	-1444.08
0.6315,0.3685	-1436.03
0.4940,0.5060	-1443.53
0.5109,0.4891	-1443.19
0.5340,0.4660	-1443.00
0.5386,0.4614	-1442.86
0.5818,0.4182	-1441.03
0.6351,0.3649	-1443.71
0.4720,0.5280	-1443.45
0.5373,0.4627	-1442.56
0.5219,0.4781	-1444.26
0.5258,0.4742	-1443.43
0.4777,0.5223	-1443.65
0.6093,0.3907	-1442.86
0.4373,0.5627	-1443.08
0.5440,0.4560	-1443.39
0.5768,0.4232	-1442.92
0.5731,0.4269	-1441.69
0.4828,0.5172	-1442.79
0.6177,0.3823	-1441.18
0.4646,0.5354	-1443.00
0.5330,0.4670	-1442.74
0.5235,0.4765	-1442.84
0.5175,0.4825	-1442.72
0.5171,0.4829	-1442.87
0.6680,0.3320	-1439.03
0.5325,0.4675	-1442.87
0.5542,0.4458	-1442.69
0.5161,0.4839	-1443.47
0.5152,0.4848	-1443.70
0.4910,0.5090	-1443.53
0.6513,0.3487	-1441.93
0.4874,0.5126	-1443.52
0.5986,0.4014	-1439.02
0.5216,0.4784	-1443.91
0.5321,0.4679	-1441.85
0.5040,0.4960	-1443.30
0.6558,0.3442	-1435.63
0.4766,0.5234	-1443.21
0.6034,0.3966	-1440.62
0.4765,0.5235	-1443.77
0.5587,0.4413	-1441.77
0.5106,0.4894	-1443.11
0.5905,0.4095	-1441.01
0.5215,0.4785	-1443.04
0.6882,0.3118	-1432.38
0.5788,0.4212	-1442.64
0.5410,0.4590	-1443.18
0.5590,0.4410	-1445.33
0.5849,0.4151	-1441.36
0.5296,0.4704	-1443.24
0.6810,0.3190	-1440.83
0.5790,0.4210	-1442.01
0.5343,0.4657	-1443.41
0.6003,0.3997	-1441.02
0.5560,0.4440	-1444.05
0.4896,0.5104	-1443.52
0.7179,0.2821	-1437.81
0.6120,0.3880	-1445.21
0.5588,0.4412	-1441.30
0.5227,0.4773	-1443.03
0.5437,0.4563	-1442.16
0.4792,0.5208	-1443.37
0.7237,0.2763	-1436.07
0.6557,0.3443	-1441.43
0.5620,0.4380	-1441.74
0.5204,0.4796	-1442.31
0.5316,0.4684	-1442.75
0.4702,0.5298	-1443.60
0.7415,0.2585	-1434.49
0.6278,0.3722	-1446.04
0.5596,0.4404	-1442.00
0.6152,0.3848	-1443.02
0.5458,0.4542	-1443.78
0.5079,0.4921	-1443.31
0.7345,0.2655	-1437.38
0.6587,0.3413	-1442.18
0.5130,0.4870	-1443.69
0.6767,0.3233	-1439.21
0.5412,0.4588	-1443.02
0.5379,0.4621	-1442.86
0.6911,0.3089	-1440.40
0.6436,0.3564	-1441.11
0.5302,0.4698	-1442.64
0.6573,0.3427	-1434.96
0.5133,0.4867	-1442.96
0.5191,0.4809	-1443.21
0.6201,0.3799	-1438.76
0.6210,0.3790	-1447.15
0.5677,0.4323	-1443.89
0.6191,0.3809	-1438.77
0.4957,0.5043	-1443.45
0.5178,0.4822	-1443.43
0.6308,0.3692	-1441.40
0.5487,0.4513	-1442.09
0.5447,0.4553	-1442.50
0.5856,0.4144	-1444.47
0.5273,0.4727	-1443.45
0.4566,0.5434	-1443.57
0.6692,0.3308	-1439.76
0.4913,0.5087	-1443.41
0.5603,0.4397	-1442.73
0.6066,0.3934	-1442.36
0.4985,0.5015	-1443.32
0.5091,0.4909	-1443.39
0.6396,0.3604	-1435.29
0.5471,0.4529	-1444.19
0.5012,0.4988	-1443.35
0.6060,0.3940	-1438.90
0.5250,0.4750	-1442.72
0.5155,0.4845	-1443.46
0.6256,0.3744	-1442.33
0.5545,0.4455	-1442.04
0.4893,0.5107	-1443.87
0.6075,0.3925	-1442.38
0.5467,0.4533	-1441.74
0.5022,0.4978	-1443.24
0.5857,0.4143	-1441.02
0.5435,0.4565	-1442.51
0.5583,0.4417	-1445.06
0.6099,0.3901	-1437.07
0.5256,0.4744	-1443.12
0.4580,0.5420	-1445.22
0.6092,0.3908	-1442.86
0.5139,0.4861	-1442.77
0.5444,0.4556	-1441.61
0.6120,0.3880	-1440.65
0.5547,0.4453	-1444.01
0.4813,0.5187	-1443.65
0.5735,0.4265	-1444.06
0.5564,0.4436	-1441.80
0.4816,0.5184	-1443.65
0.6584,0.3416	-1440.85
0.5232,0.4768	-1443.77
0.4956,0.5044	-1443.36
0.6105,0.3895	-1443.79
0.5371,0.4629	-1442.41
0.4880,0.5120	-1443.17
0.6212,0.3788	-1443.70
0.4676,0.5324	-1444.04
0.4873,0.5127	-1443.47
0.6260,0.3740	-1437.70
0.5347,0.4653	-1443.42
0.5274,0.4726	-1443.12
0.6387,0.3613	-1441.01
0.4756,0.5244	-1443.21
0.4812,0.5188	-1443.88
0.5863,0.4137	-1444.15
0.5564,0.4436	-1441.12
0.5166,0.4834	-1443.75
0.5943,0.4057	-1446.73
0.4794,0.5206	-1443.37
0.5492,0.4508	-1442.68
0.6258,0.3742	-1440.28
0.5246,0.4754	-1443.42
0.5200,0.4800	-1443.69
0.5823,0.4177	-1441.03
0.4780,0.5220	-1442.94
0.5751,0.4249	-1441.99
0.6749,0.3251	-1438.44
0.5382,0.4618	-1441.94
0.5248,0.4752	-1442.72
0.6312,0.3688	-1441.41
0.4256,0.5744	-1445.14
0.5759,0.4241	-1441.99
0.6832,0.3168	-1442.44
0.5569,0.4431	-1442.25
0.5324,0.4676	-1442.87
0.6416,0.3584	-1443.40
0.4223,0.5777	-1442.80
0.5399,0.4601	-1442.22
0.6589,0.3411	-1437.58
0.5335,0.4665	-1443.27
0.4648,0.5352	-1443.00
0.6441,0.3559	-1441.12
0.4083,0.5917	-1440.57
0.5226,0.4774	-1442.67
0.6628,0.3372	-1438.27
0.5408,0.4592	-1443.02
0.4907,0.5093	-1443.20
0.6472,0.3528	-1436.34
0.4591,0.5409	-1442.86
0.4933,0.5067	-1443.20
0.6058,0.3942	-1445.35
0.5780,0.4220	-1443.89
0.4892,0.5108	-1443.31
0.6875,0.3125	-1441.06
0.4582,0.5418	-1443.37
0.5040,0.4960	-1443.30
0.5715,0.4285	-1443.13
0.5018,0.4982	-1443.30
0.5046,0.4954	-1443.22
0.6694,0.3306	-1448.94
0.4703,0.5297	-1444.07
0.5158,0.4842	-1443.40
0.5765,0.4235	-1441.38
0.4798,0.5202	-1443.20
0.5413,0.4587	-1442.69
0.6642,0.3358	-1440.33
0.3549,0.6451	-1443.14
0.5064,0.4936	-1443.18
0.5814,0.4186	-1443.01
0.5021,0.4979	-1443.27
0.5045,0.4955	-1443.24
0.7357,0.2643	-1432.31
0.3598,0.6402	-1445.17
0.5318,0.4682	-1443.13
0.6226,0.3774	-1441.75
0.5202,0.4798	-1443.21
0.5482,0.4518	-1441.33
0.7401,0.2599	-1441.78
0.3409,0.6591	-1440.78
0.5486,0.4514	-1441.90
0.5661,0.4339	-1445.44
0.6200,0.3800	-1438.76
0.5737,0.4263	-1443.77
0.6963,0.3037	-1436.44
0.3890,0.6110	-1446.65
0.5649,0.4351	-1441.98
0.5332,0.4668	-1444.60
0.6122,0.3878	-1438.83
0.5123,0.4877	-1443.32
0.6603,0.3397	-1432.93
0.4290,0.5710	-1442.97
0.5567,0.4433	-1440.88
0.4980,0.5020	-1443.31
0.5731,0.4269	-1443.75
0.5692,0.4308	-1442.82
0.6914,0.3086	-1439.60
0.4132,0.5868	-1440.92
0.5417,0.4583	-1443.36
0.5172,0.4828	-1442.73
0.5591,0.4409	-1441.06
0.5909,0.4091	-1443.95
0.6267,0.3733	-1440.28
0.4158,0.5842	-1442.61
0.5491,0.4509	-1442.88
0.5222,0.4778	-1442.68
0.4771,0.5229	-1442.84
0.5538,0.4462	-1441.18
0.6029,0.3971	-1440.20
0.4469,0.5531	-1441.66
0.5703,0.4297	-1446.22
0.5494,0.4506	-1442.88
0.4080,0.5920	-1442.06
0.5711,0.4289	-1442.27
0.6061,0.3939	-1442.35
0.3933,0.6067	-1443.74
0.4951,0.5049	-1443.39
0.5558,0.4442	-1443.37
0.4386,0.5614	-1447.01
0.5954,0.4046	-1442.94
0.6482,0.3518	-1436.95
0.4134,0.5866	-1440.57
0.5202,0.4798	-1443.70
0.6104,0.3896	-1443.34
0.4276,0.5724	-1441.54
0.5988,0.4012	-1440.22
0.6202,0.3798	-1441.21
0.4189,0.5811	-1443.53
0.5641,0.4359	-1443.28
0.5780,0.4220	-1443.26
0.4644,0.5356	-1443.29
0.5732,0.4268	-1439.33
0.6341,0.3659	-1440.37
0.5241,0.4759	-1443.41
0.5657,0.4343	-1442.78
0.6058,0.3942	-1442.34
0.4759,0.5241	-1443.60
0.5552,0.4448	-1442.03
0.5760,0.4240	-1444.14
0.5351,0.4649	-1444.41
0.5702,0.4298	-1440.85
0.6439,0.3561	-1441.12
0.5076,0.4924	-1443.13
0.5494,0.4506	-1443.67
0.6291,0.3709	-1436.08
0.5052,0.4948	-1443.25
0.5789,0.4211	-1443.60
0.5716,0.4284	-1441.98
0.4973,0.5027	-1443.31
0.5086,0.4914	-1443.52
0.6202,0.3798	-1437.29
0.5056,0.4944	-1443.42
0.5419,0.4581	-1442.35
0.5626,0.4374	-1441.74
0.5096,0.4904	-1443.12
0.5449,0.4551	-1442.68
0.6233,0.3767	-1440.25
0.4672,0.5328	-1442.08
0.5207,0.4793	-1442.88
0.5335,0.4665	-1442.87
0.5217,0.4783	-1443.30
0.5318,0.4682	-1442.87
0.6240,0.3760	-1441.78
0.4643,0.5357	-1443.58
0.4924,0.5076	-1443.40
0.5037,0.4963	-1443.34
0.5544,0.4456	-1441.82
0.5323,0.4677	-1442.10
0.6661,0.3339	-1437.62
0.4252,0.5748	-1440.94
0.4854,0.5146	-1443.21
0.4654,0.5346	-1444.81
0.4844,0.5156	-1443.46
0.5387,0.4613	-1443.01
0.7024,0.2976	-1439.11
0.4864,0.5136	-1443.54
0.4733,0.5267	-1443.65
0.4709,0.5291	-1444.17
0.5318,0.4682	-1442.24
0.4388,0.5612	-1443.30
0.7083,0.2917	-1440.20
0.5129,0.4871	-1442.96
0.5316,0.4684	-1443.64
0.4448,0.5552	-1442.30
0.5671,0.4329	-1442.79
0.4271,0.5729	-1440.95
0.7222,0.2778	-1434.12
0.5305,0.4695	-1442.76
0.5570,0.4430	-1442.71
0.4784,0.5216	-1443.38
0.5379,0.4621	-1442.70
0.4573,0.5427	-1442.01
0.7058,0.2942	-1435.73
0.5634,0.4366	-1442.50
0.5553,0.4447	-1444.03
0.4827,0.5173	-1443.00
0.5189,0.4811	-1443.14
0.4298,0.5702	-1446.06
0.6931,0.3069	-1433.14
0.5766,0.4234	-1441.38
0.5621,0.4379	-1442.74
0.4420,0.5580	-1444.40
0.4647,0.5353	-1442.86
0.4105,0.5895	-1442.38
0.6544,0.3456	-1443.31
0.5727,0.4273	-1441.98
0.5620,0.4380	-1443.49
0.4790,0.5210	-1443.79
0.4562,0.5438	-1444.63
0.3907,0.6093	-1442.52
0.6508,0.3492	-1435.69
0.5632,0.4368	-1442.50
0.5614,0.4386	-1442.24
0.5047,0.4953	-1443.35
0.4874,0.5126	-1443.32
0.4137,0.5863	-1442.66
0.6183,0.3817	-1440.70
0.5379,0.4621	-1442.70
0.5541,0.4459	-1442.48
0.5302,0.4698	-1443.25
0.4536,0.5464	-1443.26
0.4400,0.5600	-1445.93
0.6054,0.3946	-1440.62
0.5616,0.4384	-1442.49
0.5720,0.4280	-1443.43
0.5091,0.4909	-1443.21
0.4938,0.5062	-1443.33
0.4910,0.5090	-1443.35
0.6301,0.3699	-1441.92
0.5708,0.4292	-1441.70
0.6297,0.3703	-1438.19
0.4964,0.5036	-1443.33
0.4793,0.5207	-1443.62
0.4731,0.5269	-1443.01
0.5967,0.4033	-1443.36
0.5197,0.4803	-1443.61
0.6279,0.3721	-1436.63
0.5214,0.4786	-1443.13
0.4916,0.5084	-1443.48
0.4771,0.5229	-1443.57
0.5467,0.4533	-1442.31
0.5558,0.4442	-1442.70
0.6596,0.3404	-1435.59
0.4897,0.5103	-1443.35
0.5179,0.4821	-1443.14
0.4614,0.5386	-1441.62
0.5217,0.4783	-1442.78
0.5575,0.4425	-1443.17
0.6626,0.3374	-1439.62
0.4677,0.5323	-1444.29
0.4706,0.5294	-1443.00
0.4021,0.5979	-1441.00
0.5739,0.4261	-1439.60
0.5876,0.4124	-1439.95
0.7097,0.2903	-1434.00
0.5220,0.4780	-1444.18
0.4228,0.5772	-1443.72
0.3740,0.6260	-1441.16
0.5699,0.4301	-1441.14
0.6418,0.3582	-1446.91
0.6995,0.3005	-1444.09
0.5285,0.4715	-1442.32
0.4092,0.5908	-1440.94
0.4239,0.5761	-1442.16
0.5867,0.4133	-1441.01
0.6589,0.3411	-1434.28
0.7407,0.2593	-1434.47
0.5336,0.4664	-1443.41
0.4125,0.5875	-1444.10
0.4267,0.5733	-1448.63
0.5045,0.4955	-1443.28
0.7065,0.2935	-1433.10
0.7577,0.2423	-1432.67
0.5424,0.4576	-1442.35
0.4371,0.5629	-1443.59
0.4938,0.5062	-1443.48
0.4520,0.5480	-1442.71
0.6990,0.3010	-1441.53
0.7706,0.2294	-1431.79
0.5092,0.4908	-1443.28
0.4357,0.5643	-1443.37
0.5038,0.4962	-1443.41
0.5005,0.4995	-1443.33
0.6613,0.3387	-1441.60
0.7445,0.2555	-1433.49
0.4918,0.5082	-1443.21
0.4584,0.5416	-1443.53
0.5438,0.4562	-1444.44
0.4946,0.5054	-1443.48
0.6684,0.3316	-1439.74
0.7214,0.2786	-1434.11
0.4941,0.5059	-1443.14
0.4523,0.5477	-1443.47
0.5106,0.4894	-1443.53
0.4397,0.5603	-1443.28
0.6455,0.3545	-1438.76
0.7194,0.2806	-1434.09
0.4872,0.5128	-1443.01
0.5002,0.4998	-1443.32
0.5534,0.4466	-1442.26
0.4831,0.5169	-1443.75
0.6484,0.3516	-1438.78
0.7198,0.2802	-1440.70
0.5048,0.4952	-1443.39
0.5034,0.4966	-1443.30
0.5259,0.4741	-1443.64
0.5041,0.4959	-1443.18
0.6811,0.3189	-1441.59
0.7444,0.2556	-1435.63
0.5004,0.4996	-1443.33
0.5202,0.4798	-1443.29
0.4915,0.5085	-1443.17
0.5317,0.4683	-1443.13
0.7010,0.2990	-1437.37
0.7464,0.2536	-1442.16
0.4679,0.5321	-1442.87
0.5336,0.4664	-1442.60
0.4775,0.5225	-1443.57
0.5430,0.4570	-1443.37
0.6760,0.3240	-1431.84
0.7526,0.2474	-1434.79
0.3920,0.6080	-1444.24
0.5943,0.4057	-1444.44
0.3983,0.6017	-1446.01
0.5721,0.4279	-1444.60
0.6717,0.3283	-1440.54
0.7464,0.2536	-1435.69
0.4244,0.5756	-1442.76
0.6176,0.3824	-1439.74
0.4031,0.5969	-1439.81
0.4893,0.5107	-1443.49
0.6680,0.3320	-1436.24
0.7313,0.2687	-1442.28
0.4541,0.5459	-1444.36
0.5952,0.4048	-1441.78
0.4034,0.5966	-1440.60
0.5576,0.4424	-1442.94
0.6746,0.3254	-1443.54
0.7041,0.2959	-1436.57
0.4295,0.5705	-1445.79
0.5684,0.4316	-1440.88
0.4429,0.5571	-1442.30
0.5220,0.4780	-1443.30
0.6487,0.3513	-1441.24
0.6863,0.3137	-1439.45
0.4640,0.5360	-1443.58
0.6033,0.3967	-1441.04
0.4872,0.5128	-1442.86
0.5231,0.4769	-1443.49
0.6692,0.3308	-1436.94
0.6237,0.3763	-1442.28
0.4760,0.5240	-1443.40
0.6323,0.3677	-1440.35
0.4356,0.5644	-1442.85
0.5305,0.4695	-1443.86
0.6031,0.3969	-1446.06
0.6341,0.3659	-1444.22
0.4793,0.5207	-1443.20
0.6532,0.3468	-1440.09
0.5149,0.4851	-1443.16
0.5162,0.4838	-1442.96
0.6245,0.3755	-1437.72
0.6866,0.3134	-1434.76
0.4788,0.5212	-1442.95
0.5802,0.4198	-1442.01
0.5840,0.4160	-1445.09
0.5279,0.4721	-1443.46
0.6291,0.3709	-1438.72
0.6178,0.3822	-1442.14
0.4931,0.5069	-1443.42
0.6280,0.3720	-1442.92
0.5781,0.4219	-1442.00
0.5296,0.4704	-1443.24
0.6407,0.3593	-1442.21
0.5922,0.4078	-1443.24
0.5178,0.4822	-1443.64
0.5967,0.4033	-1443.36
0.5467,0.4533	-1441.37
0.5087,0.4913	-1443.28
0.6282,0.3718	-1443.45
0.6079,0.3921	-1439.32
0.5247,0.4753	-1443.32
0.5413,0.4587	-1444.01
0.5680,0.4320	-1441.43
0.5187,0.4813	-1443.59
0.6266,0.3734	-1444.42
0.6134,0.3866	-1441.59
0.4975,0.5025	-1443.35
0.5008,0.4992	-1443.34
0.5434,0.4566	-1442.16
0.5152,0.4848	-1442.91
0.6222,0.3778	-1444.23
0.6006,0.3994	-1439.39
0.4623,0.5377	-1443.01
0.4595,0.5405	-1441.89
0.5802,0.4198	-1444.28
0.5119,0.4881	-1442.89
0.5750,0.4250	-1440.48
0.5695,0.4305	-1444.50
0.4842,0.5158	-1442.96
0.5260,0.4740	-1443.43
0.5200,0.4800	-1442.97
0.6024,0.3976	-1440.20
0.5788,0.4212	-1442.96
0.6083,0.3917	-1442.83
0.4939,0.5061	-1443.31
0.5229,0.4771	-1443.76
0.5504,0.4496	-1441.67
0.5398,0.4602	-1443.33
0.4956,0.5044	-1443.44
0.6216,0.3784	-1441.23
0.5386,0.4614	-1444.09
0.5780,0.4220	-1443.26
0.5601,0.4399	-1441.04
0.5836,0.4164	-1439.67
0.4388,0.5612	-1442.81
0.6473,0.3527	-1439.38
0.4925,0.5075	-1443.49
0.5357,0.4643	-1443.15
0.5708,0.4292	-1443.12
0.5513,0.4487	-1442.07
0.4535,0.5465	-1443.07
0.6524,0.3476	-1442.60
0.4843,0.5157	-1443.33
0.5944,0.4056	-1439.48
0.5238,0.4762	-1442.36
0.5167,0.4833	-1443.15
0.4453,0.5547	-1443.62
0.6283,0.3717	-1438.20
0.5357,0.4643	-1441.72
0.5300,0.4700	-1444.08
0.5291,0.4709	-1442.77
0.5354,0.4646	-1443.57
0.4435,0.5565	-1444.35
0.6104,0.3896	-1437.05
0.5646,0.4354	-1444.84
0.5366,0.4634	-1442.57
0.5143,0.4857	-1442.76
0.4762,0.5238	-1442.92
0.4117,0.5883	-1444.49
0.6438,0.3562	-1444.08
0.5367,0.4633	-1441.68
0.5225,0.4775	-1443.39
0.4600,0.5400	-1444.95
0.4603,0.5397	-1442.23
0.4573,0.5427	-1443.21
0.6436,0.3564	-1436.39
0.5606,0.4394	-1443.46
0.4909,0.5091	-1443.60
0.4391,0.5609	-1445.50
0.4651,0.5349	-1443.42
0.4654,0.5346	-1444.53
0.5775,0.4225	-1443.25
0.6001,0.3999	-1441.43
0.5245,0.4755	-1443.42
0.4242,0.5758	-1443.68
0.5040,0.4960	-1443.23
0.4950,0.5050	-1443.39
0.5236,0.4764	-1443.22
0.5969,0.4031	-1442.58
0.5594,0.4406	-1445.11
0.4128,0.5872	-1443.39
0.5190,0.4810	-1443.14
0.5156,0.4844	-1443.09
0.4864,0.5136	-1443.21
0.5959,0.4041	-1441.40
0.5203,0.4797	-1442.72
0.4179,0.5821	-1446.55
0.4880,0.5120	-1443.27
0.5128,0.4872	-1443.33
0.5503,0.4497	-1442.88
0.5776,0.4224	-1441.69
0.5573,0.4427	-1445.01
0.4344,0.5656	-1442.87
0.4679,0.5321	-1443.00
0.5161,0.4839	-1442.96
0.6295,0.3705	-1438.72
0.5903,0.4097	-1443.20
0.5538,0.4462	-1442.91
0.4068,0.5932	-1443.60
0.5063,0.4937	-1443.36
0.4909,0.5091	-1443.53
0.6009,0.3991	-1438.57
0.5698,0.4302	-1442.26
0.5569,0.4431	-1443.62
0.4097,0.5903	-1443.12
0.5126,0.4874	-1443.12
0.4941,0.5059	-1443.36
0.5707,0.4293	-1441.70
0.6414,0.3586	-1436.99
0.5358,0.4642	-1442.86
0.4522,0.5478	-1441.75
0.4649,0.5351	-1443.99
0.4771,0.5229	-1443.67
0.5640,0.4360	-1442.24
0.6172,0.3828	-1434.01
0.5563,0.4437	-1441.80
0.4607,0.5393	-1443.65
0.5158,0.4842	-1443.09
0.5157,0.4843	-1443.47
0.5405,0.4595	-1442.04
0.7050,0.2950	-1436.59
0.6154,0.3846	-1442.09
0.5339,0.4661	-1443.54
0.4944,0.5056	-1443.42
0.5570,0.4430	-1442.25
0.5765,0.4235	-1441.07
0.6973,0.3027	-1441.46
0.6223,0.3777	-1438.75
0.5069,0.4931	-1443.37
0.5105,0.4895	-1443.32
0.5731,0.4269	-1444.63
0.5659,0.4341	-1443.84
0.6954,0.3046	-1433.13
0.5648,0.4352	-1440.94
0.5403,0.4597	-1443.18
0.5358,0.4642	-1442.86
0.5214,0.4786	-1443.04
0.5566,0.4434	-1442.93
0.7463,0.2537	-1437.84
0.5748,0.4252	-1440.18
0.5349,0.4651	-1443.28
0.5272,0.4728	-1443.23
0.5270,0.4730	-1441.50
0.5883,0.4117	-1443.15
0.7601,0.2399	-1432.72
0.5580,0.4420	-1443.88
0.5006,0.4994	-1443.34
0.4764,0.5236	-1443.49
0.5976,0.4024	-1443.78
0.5707,0.4293	-1442.27
0.7769,0.2231	-1428.22
0.5390,0.4610	-1441.92
0.4882,0.5118	-1443.22
0.5311,0.4689	-1443.63
0.5743,0.4257	-1441.99
0.5496,0.4504	-1442.68
0.7976,0.2024	-1423.09
0.5236,0.4764	-1442.93
0.4561,0.5439	-1443.05
0.5207,0.4793	-1443.54
0.5298,0.4702	-1444.32
0.5418,0.4582	-1442.02
0.7399,0.2601	-1434.45
0.5068,0.4932	-1443.20
0.4799,0.5201	-1443.04
0.4648,0.5352	-1443.14
0.5390,0.4610	-1443.17
0.5693,0.4307	-1441.70
0.7140,0.2860	-1440.44
0.4886,0.5114	-1443.63
0.4770,0.5230	-1443.85
0.4245,0.5755	-1443.67
0.5384,0.4616	-1442.55
0.5663,0.4337	-1443.85
0.6347,0.3653	-1438.72
0.4922,0.5078	-1443.22
0.5173,0.4827	-1442.94
0.5438,0.4562	-1443.74
0.5850,0.4150	-1441.70
0.5905,0.4095	-1439.91
0.6188,0.3812	-1437.80
0.4582,0.5418	-1443.70
0.5254,0.4746	-1443.43
0.5069,0.4931	-1443.34
0.6645,0.3355	-1444.44
0.5881,0.4119	-1441.01
0.6193,0.3807	-1448.50
0.4878,0.5122	-1443.37
0.5788,0.4212	-1440.73
0.4876,0.5124	-1443.92
0.6532,0.3468	-1434.39
0.6630,0.3370	-1441.66
0.5491,0.4509	-1441.89
0.5585,0.4415	-1440.36
0.5469,0.4531	-1442.68
0.4773,0.5227	-1443.48
0.6432,0.3568	-1443.46
0.5850,0.4150	-1441.70
0.5145,0.4855	-1443.16
0.5042,0.4958	-1443.38
0.5202,0.4798	-1443.37
0.4961,0.5039	-1443.42
0.6394,0.3606	-1443.89
0.5657,0.4343	-1443.31
0.4890,0.5110	-1443.18
0.4737,0.5263	-1443.32
0.5315,0.4685	-1442.24
0.4594,0.5406	-1442.05
0.6371,0.3629	-1439.29
0.5597,0.4403	-1440.57
0.4786,0.5214	-1442.69
0.4495,0.5505	-1444.95
0.5534,0.4466	-1443.33
0.4513,0.5487	-1444.47
0.6543,0.3457	-1440.11
0.5956,0.4044	-1443.72
0.4642,0.5358	-1443.29
0.4707,0.5293	-1444.41
0.6186,0.3814	-1442.16
0.4506,0.5494	-1443.30
0.6587,0.3413	-1444.15
0.6277,0.3723	-1439.77
0.4642,0.5358	-1442.43
0.5323,0.4677	-1443.26
0.6095,0.3905	-1442.42
0.4231,0.5769	-1442.79
0.6291,0.3709	-1443.48
0.5676,0.4324	-1439.26
0.5263,0.4737	-1442.80
0.5615,0.4385	-1441.01
0.5694,0.4306	-1441.42
0.4320,0.5680	-1445.92
0.6616,0.3384	-1442.28
0.5523,0.4477	-1441.85
0.5030,0.4970	-1443.42
0.5390,0.4610	-1442.39
0.5020,0.4980	-1443.32
0.4713,0.5287	-1443.23
0.6661,0.3339	-1441.07
0.5259,0.4741	-1443.12
0.4966,0.5034	-1443.52
0.5865,0.4135	-1441.36
0.4378,0.5622	-1444.32
0.4165,0.5835	-1444.96
0.6107,0.3893	-1442.45
0.5208,0.4792	-1443.46
0.4849,0.5151	-1444.12
0.5410,0.4590	-1443.02
0.4551,0.5449	-1445.04
0.4019,0.5981	-1445.38
0.5973,0.4027	-1441.01
0.6127,0.3873	-1445.24
0.5232,0.4768	-1442.19
0.4864,0.5136	-1443.00
0.4020,0.5980	-1440.21
0.3862,0.6138	-1443.15
0.5693,0.4307	-1443.37
0.6650,0.3350	-1442.41
0.4893,0.5107	-1443.61
0.5145,0.4855	-1443.10
0.4459,0.5541	-1442.74
0.4024,0.5976	-1442.58
0.5533,0.4467	-1444.19
0.6831,0.3169	-1437.06
0.5053,0.4947	-1443.36
0.4923,0.5077	-1443.22
0.4809,0.5191	-1443.81
0.4145,0.5855	-1444.02
0.5677,0.4323	-1443.34
0.6170,0.3830	-1440.21
0.4869,0.5131	-1443.22
0.5709,0.4291	-1441.70
0.4825,0.5175	-1443.69
0.4201,0.5799	-1443.17
0.5982,0.4018	-1443.00
0.5503,0.4497	-1444.90
0.4628,0.5372	-1444.35
0.5537,0.4463	-1443.77
0.4894,0.5106	-1443.27
0.4588,0.5412	-1443.20
0.5931,0.4069	-1439.87
0.5938,0.4062	-1440.25
0.4693,0.5307	-1442.63
0.5536,0.4464	-1443.34
0.4985,0.5015	-1443.33
0.5295,0.4705	-1443.95
0.6112,0.3888	-1441.55
0.5889,0.4111	-1442.09
0.4626,0.5374	-1444.06
0.5287,0.4713	-1442.78
0.5006,0.4994	-1443.32
0.5284,0.4716	-1443.35
0.5972,0.4028	-1444.16
0.6215,0.3785	-1441.73
0.4594,0.5406	-1442.05
0.5394,0.4606	-1443.17
0.5797,0.4203	-1443.30
0.5400,0.4600	-1441.89
0.6837,0.3163	-1444.01
0.6467,0.3533	-1438.16
0.4553,0.5447	-1443.42
0.5229,0.4771	-1443.03
0.5895,0.4105	-1444.62
0.5026,0.4974	-1443.30
0.6814,0.3186	-1429.44
0.6014,0.3986	-1442.26
0.4480,0.5520	-1442.72
0.5357,0.4643	-1441.43
0.5363,0.4637	-1443.88
0.5360,0.4640	-1444.01
0.6991,0.3009	-1435.64
0.6225,0.3775	-1443.75
0.5582,0.4418	-1444.12
0.5331,0.4669	-1442.34
0.5626,0.4374	-1441.74
0.6050,0.3950	-1441.05
0.6969,0.3031	-1432.29
0.6647,0.3353	-1441.03
0.5714,0.4286	-1441.12
0.4835,0.5165	-1443.54
0.5205,0.4795	-1442.72
0.6525,0.3475	-1440.71
0.7280,0.2720	-1431.26
0.6720,0.3280	-1444.85
0.5860,0.4140	-1443.10
0.5243,0.4757	-1443.22
0.4708,0.5292	-1442.77
0.6473,0.3527	-1438.77
0.6630,0.3370	-1443.01
0.6367,0.3633	-1443.21
0.5735,0.4265	-1443.76
0.5034,0.4966	-1443.23
0.5196,0.4804	-1443.52
0.6401,0.3599	-1441.61
0.6387,0.3613	-1441.58
0.5861,0.4139	-1439.97
0.5388,0.4612	-1441.92
0.4900,0.5100	-1443.35
0.5167,0.4833	-1443.28
0.6512,0.3488	-1440.68
0.6669,0.3331	-1435.54
0.6037,0.3963	-1437.67
0.5175,0.4825	-1443.07
0.5316,0.4684	-1442.75
0.5044,0.4956	-1443.40
0.6649,0.3351	-1438.98
0.6671,0.3329	-1435.54
0.5697,0.4303	-1440.58
0.5208,0.4792	-1443.04
0.5412,0.4588	-1442.86
0.4948,0.5052	-1443.39
0.6574,0.3426	-1441.48
0.6403,0.3597	-1435.85
0.5371,0.4629	-1442.26
0.5388,0.4612	-1441.92
0.5404,0.4596	-1442.69
0.4595,0.5405	-1442.54
0.5652,0.4348	-1441.98
0.6333,0.3667	-1439.27
0.5899,0.4101	-1440.28
0.5433,0.4567	-1443.90
0.5871,0.4129	-1444.88
0.4499,0.5501	-1444.32
0.5732,0.4268	-1440.80
0.6838,0.3162	-1439.39
0.6036,0.3964	-1444.82
0.5239,0.4761	-1443.60
0.5990,0.4010	-1441.42
0.4974,0.5026	-1443.35
0.5619,0.4381	-1444.48
0.6752,0.3248	-1439.91
0.5592,0.4408	-1442.24
0.5470,0.4530	-1443.06
0.6077,0.3923	-1442.38
0.5214,0.4786	-1443.04
0.5676,0.4324	-1440.62
0.6574,0.3426	-1435.61
0.5294,0.4706	-1443.36
0.5096,0.4904	-1443.43
0.6181,0.3819	-1442.15
0.5515,0.4485	-1442.48
0.5732,0.4268	-1441.98
0.6558,0.3442	-1444.01
0.5368,0.4632	-1442.71
0.5436,0.4564	-1443.73
0.6322,0.3678	-1447.93
0.5657,0.4343	-1444.36
0.5475,0.4525	-1442.30
0.6231,0.3769	-1442.26
0.4927,0.5073	-1443.31
0.4910,0.5090	-1443.31
0.6183,0.3817	-1437.33
0.6014,0.3986	-1436.92
0.5175,0.4825	-1442.51
0.6245,0.3755	-1446.37
0.5299,0.4701	-1443.48
0.5040,0.4960	-1443.23
0.6216,0.3784	-1440.74
0.6332,0.3668	-1439.27
0.5875,0.4125	-1446.67
0.6278,0.3722	-1440.82
0.5350,0.4650	-1442.16
0.5114,0.4886	-1442.59
0.5367,0.4633	-1442.27
0.6040,0.3960	-1440.62
0.5410,0.4590	-1443.02
0.5804,0.4196	-1441.69
0.5524,0.4476	-1443.32
0.4407,0.5593	-1442.31
0.5817,0.4183	-1440.37
0.6185,0.3815	-1443.12
0.5019,0.4981	-1443.29
0.5454,0.4546	-1443.23
0.6244,0.3756	-1439.75
0.4601,0.5399	-1443.50
0.5546,0.4454	-1445.11
0.6163,0.3837	-1445.90
0.5282,0.4718	-1443.46
0.5836,0.4164	-1442.37
0.6430,0.3570	-1439.33
0.4847,0.5153	-1442.90
0.5364,0.4636	-1444.17
0.5856,0.4144	-1442.40
0.5240,0.4760	-1442.74
0.5657,0.4343	-1442.25
0.6332,0.3668	-1444.18
0.4305,0.5695	-1442.38
0.5772,0.4228	-1441.06
0.5502,0.4498	-1442.68
0.4561,0.5439	-1444.28
0.5635,0.4365	-1443.27
0.6298,0.3702	-1439.79
0.4800,0.5200	-1443.52
0.4950,0.5050	-1443.23
0.5269,0.4731	-1443.34
0.4433,0.5567	-1443.90
0.5608,0.4392	-1442.00
0.6292,0.3708	-1442.42
0.5108,0.4892	-1443.54
0.5157,0.4843	-1443.28
0.4851,0.5149	-1443.21
0.4583,0.5417	-1443.87
0.5599,0.4401	-1442.97
0.6233,0.3767	-1439.25
0.5324,0.4676	-1442.74
0.5809,0.4191	-1441.36
0.5015,0.4985	-1443.36
0.5361,0.4639	-1442.28
0.5844,0.4156	-1441.36
0.6324,0.3676	-1438.18
0.4976,0.5024	-1443.33
0.5004,0.4996	-1443.31
0.4403,0.5597	-1443.99
0.5540,0.4460	-1441.61
0.5593,0.4407	-1439.62
0.6183,0.3817	-1439.74
0.4969,0.5031	-1443.28
0.4294,0.5706	-1443.53
0.5036,0.4964	-1443.26
0.5475,0.4525	-1444.21
0.5686,0.4314	-1443.64
0.5969,0.4031	-1440.23
0.5277,0.4723	-1443.01
0.4789,0.5211	-1444.05
0.4615,0.5385	-1443.94
0.5033,0.4967	-1443.42
0.5874,0.4126	-1441.01
0.5365,0.4635	-1443.74
0.5278,0.4722	-1443.12
0.5220,0.4780	-1443.21
0.5328,0.4672	-1442.87
0.5368,0.4632	-1442.42
0.5835,0.4165	-1440.01
0.4777,0.5223	-1443.65
0.5553,0.4447	-1444.48
0.4826,0.5174	-1444.11
0.5561,0.4439	-1444.05
0.5652,0.4348	-1443.82
0.5583,0.4417	-1441.08
0.4546,0.5454	-1441.97
0.5371,0.4629	-1443.30
0.4848,0.5152	-1443.27
0.5524,0.4476	-1443.32
0.6297,0.3703	-1441.38
0.5473,0.4527	-1442.87
0.4647,0.5353	-1442.72
0.5086,0.4914	-1443.59
0.4599,0.5401	-1443.99
0.5311,0.4689	-1442.88
0.6199,0.3801	-1440.72
0.5688,0.4312	-1445.30
0.4788,0.5212	-1443.12
0.4626,0.5374	-1443.91
0.5122,0.4878	-1443.08
0.5470,0.4530	-1442.11
0.6353,0.3647	-1438.72
0.5905,0.4095	-1441.37
0.5344,0.4656	-1443.83
0.4250,0.5750	-1443.66
0.5371,0.4629	-1442.86
0.5507,0.4493	-1443.09
0.6717,0.3283	-1437.67
0.5255,0.4745	-1442.40
0.5952,0.4048	-1438.69
0.4859,0.5141	-1442.93
0.6248,0.3752	-1437.21
0.5778,0.4222	-1442.00
0.6388,0.3612	-1439.30
0.5098,0.4902	-1443.00
0.5374,0.4626	-1444.06
0.5218,0.4782	-1443.74
0.6167,0.3833	-1441.64
0.5414,0.4586	-1443.35
0.6450,0.3550	-1439.95
0.5459,0.4541	-1441.76
0.5517,0.4483	-1440.82
0.4690,0.5310	-1442.63
0.6124,0.3876	-1444.32
0.5780,0.4220	-1441.69
0.6663,0.3337	-1440.39
0.5930,0.4070	-1440.25
0.5302,0.4698	-1442.64
0.4460,0.5540	-1441.22
0.5409,0.4591	-1442.36
0.5530,0.4470	-1443.54
0.6391,0.3609	-1442.16
0.5991,0.4009	-1441.02
0.4906,0.5094	-1443.35
0.4708,0.5292	-1442.30
0.4843,0.5157	-1443.02
0.5006,0.4994	-1443.30
0.6453,0.3547	-1439.36
0.6448,0.3552	-1438.76
0.5002,0.4998	-1443.32
0.4523,0.5477	-1443.85
0.4872,0.5128	-1443.12
0.4828,0.5172	-1443.69
0.6713,0.3287	-1434.81
0.6128,0.3872	-1440.66
0.4781,0.5219	-1443.12
0.5174,0.4826	-1443.28
0.5008,0.4992	-1443.34
0.4668,0.5332	-1442.73
0.6589,0.3411	-1440.21
0.5927,0.4073	-1442.51
0.4821,0.5179	-1443.42
0.5608,0.4392	-1442.98
0.5342,0.4658	-1443.14
0.4126,0.5874	-1443.04
0.6650,0.3350	-1433.50
0.5718,0.4282	-1441.69
0.4643,0.5357	-1443.29
0.5071,0.4929	-1443.31
0.5400,0.4600	-1441.57
0.3682,0.6318	-1442.45
0.6925,0.3075	-1438.82
0.5956,0.4044	-1442.17
0.4560,0.5440	-1444.29
0.5035,0.4965	-1443.23
0.5839,0.4161	-1440.01
0.4418,0.5582	-1441.37
0.6808,0.3192	-1437.79
0.6100,0.3900	-1441.09
0.4618,0.5382	-1443.47
0.4795,0.5205	-1443.04
0.5808,0.4192	-1438.43
0.4799,0.5201	-1443.28
0.6755,0.3245	-1439.92
0.6301,0.3699	-1440.32
0.5022,0.4978	-1443.27
0.4884,0.5116	-1443.22
0.5839,0.4161	-1442.72
0.5449,0.4551	-1442.68
0.6686,0.3314	-1438.34
0.6082,0.3918	-1441.51
0.4482,0.5518	-1443.14
0.4916,0.5084	-1443.38
0.6108,0.3892	-1440.20
0.5318,0.4682	-1443.13
0.6288,0.3712	-1442.41
0.6182,0.3818	-1440.70
0.3871,0.6129	-1444.03
0.5155,0.4845	-1443.46
0.6343,0.3657	-1438.72
0.5405,0.4595	-1443.34
0.5879,0.4121	-1440.65
0.6094,0.3906	-1441.08
0.3767,0.6233	-1442.08
0.4855,0.5145	-1443.67
0.6026,0.3974	-1440.20
0.5575,0.4425	-1441.55
0.6117,0.3883	-1441.11
0.5889,0.4111	-1444.60
0.3788,0.6212	-1442.01
0.5322,0.4678	-1443.52
0.6323,0.3677	-1441.43
0.6008,0.3992	-1440.62
0.5700,0.4300	-1439.16
0.5154,0.4846	-1443.40
0.3892,0.6108	-1448.89
0.5247,0.4753	-1443.12
0.5927,0.4073	-1440.63
0.5973,0.4027	-1445.74
0.5373,0.4627	-1443.90
0.5158,0.4842	-1442.90
0.4177,0.5823	-1443.24
0.5746,0.4254	-1445.90
0.6881,0.3119	-1437.92
0.5586,0.4414	-1439.66
0.5367,0.4633	-1441.54
0.5593,0.4407	-1444.15
0.4702,0.5298	-1443.84
0.5310,0.4690	-1443.00
0.6520,0.3480	-1439.44
0.5327,0.4673	-1443.13
0.5434,0.4566	-1443.21
0.5164,0.4836	-1443.28
0.4551,0.5449	-1443.24
0.6157,0.3843	-1441.15
0.5818,0.4182	-1441.69
0.5096,0.4904	-1442.82
0.5438,0.4562	-1444.09
0.5493,0.4507	-1442.68
0.4667,0.5333	-1443.27
0.6286,0.3714	-1436.62
0.6153,0.3847	-1441.15
0.4750,0.5250	-1442.61
0.4652,0.5348	-1442.86
0.4956,0.5044	-1443.43
0.4534,0.5466	-1443.07
0.5943,0.4057	-1442.53
0.6661,0.3339	-1433.48
0.4469,0.5531	-1444.65
0.4938,0.5062	-1443.36
0.5189,0.4811	-1443.14
0.4623,0.5377	-1443.77
0.5762,0.4238	-1444.14
0.6318,0.3682	-1440.34
0.4561,0.5439	-1442.87
0.5154,0.4846	-1443.59
0.4986,0.5014	-1443.35
0.4592,0.5408	-1442.70
0.5908,0.4092	-1442.84
0.6458,0.3542	-1443.57
0.4658,0.5342	-1442.59
0.5554,0.4446	-1443.37
0.4723,0.5277	-1443.67
0.4706,0.5294	-1442.53
0.5739,0.4261	-1443.77
0.6313,0.3687	-1434.42
0.5269,0.4731	-1442.58
0.5885,0.4115	-1444.59
0.4666,0.5334	-1443.40
0.4872,0.5128	-1443.27
0.5822,0.4178	-1442.03
0.5905,0.4095	-1441.01
0.5487,0.4513	-1440.53
0.6089,0.3911	-1442.85
0.4587,0.5413	-1444.02
0.4586,0.5414	-1443.86
0.6023,0.3977	-1443.11
0.6045,0.3955	-1442.32
0.5393,0.4607	-1443.01
0.6850,0.3150	-1434.76
0.4732,0.5268	-1443.54
0.4777,0.5223	-1442.49
0.6421,0.3579	-1437.57
0.6629,0.3371	-1440.98
0.5269,0.4731	-1442.47
0.6657,0.3343	-1441.75
0.5729,0.4271	-1444.92
0.4586,0.5414	-1444.19
0.6234,0.3766	-1437.74
0.6829,0.3171	-1438.60
0.5485,0.4515	-1445.80
0.6640,0.3360	-1438.97
0.5648,0.4352	-1444.85
0.5124,0.4876	-1443.32
0.6062,0.3938	-1441.92
0.6856,0.3144	-1437.87
0.5455,0.4545	-1441.04
0.6397,0.3603	-1434.14
0.5701,0.4299	-1443.39
0.4960,0.5040	-1443.34
0.6049,0.3951	-1439.77
0.7041,0.2959	-1440.90
0.5358,0.4642	-1442.43
0.6043,0.3957	-1441.47
0.6075,0.3925	-1440.63
0.5421,0.4579	-1441.68
0.5570,0.4430	-1441.79
0.7169,0.2831	-1440.57
0.5137,0.4863	-1443.38
0.6355,0.3645	-1437.61
0.6149,0.3851	-1445.35
0.5070,0.4930	-1443.28
0.5912,0.4088	-1443.96
0.6876,0.3124	-1440.28
0.5189,0.4811	-1443.06
0.5876,0.4124	-1442.07
0.6185,0.3815	-1441.19
0.5270,0.4730	-1443.23
0.5715,0.4285	-1441.41
0.6747,0.3253	-1433.33
0.5047,0.4953	-1443.24
0.5824,0.4176	-1440.70
0.6886,0.3114	-1435.55
0.5478,0.4522	-1441.53
0.5174,0.4826	-1443.00
0.7176,0.2824	-1435.93
0.5311,0.4689	-1442.75
0.5440,0.4560	-1442.33
0.6196,0.3804	-1439.74
0.5595,0.4405	-1442.72
0.5473,0.4527	-1442.11
0.7104,0.2896	-1438.49
0.5238,0.4762	-1443.98
0.5611,0.4389	-1443.23
0.6346,0.3654	-1444.79
0.5312,0.4688	-1443.50
0.5438,0.4562	-1445.14
0.6879,0.3121	-1439.50
0.6048,0.3952	-1441.90
0.5454,0.4546	-1442.68
0.6261,0.3739	-1438.73
0.4827,0.5173	-1443.55
0.5257,0.4743	-1442.81
0.7064,0.2936	-1440.12
0.5756,0.4244	-1444.43
0.5793,0.4207	-1442.97
0.6608,0.3392	-1442.25
0.5019,0.4981	-1443.24
0.5277,0.4723	-1443.23
0.6806,0.3194	-1442.33
0.4962,0.5038	-1443.34
0.5679,0.4321	-1443.89
0.6741,0.3259	-1438.43
0.5278,0.4722	-1443.57
0.5438,0.4562	-1441.28
0.6423,0.3577	-1441.67
0.4861,0.5139	-1443.21
0.5606,0.4394	-1440.78
0.6567,0.3433	-1438.22
0.5491,0.4509	-1444.85
0.4807,0.5193	-1443.59
0.6480,0.3520	-1437.56
0.5080,0.4920	-1443.31
0.5624,0.4376	-1442.49
0.5942,0.4058	-1439.86
0.5220,0.4780	-1443.39
0.4991,0.5009	-1443.32
0.5836,0.4164	-1442.37
0.4611,0.5389	-1442.55
0.5297,0.4703	-1442.77
0.6034,0.3966	-1439.78
0.5116,0.4884	-1443.46
0.5398,0.4602	-1441.74
0.6113,0.3887	-1444.73
0.4926,0.5074	-1443.37
0.5474,0.4526	-1443.44
0.5461,0.4539	-1443.79
0.5067,0.4933	-1443.18
0.5215,0.4785	-1443.13
0.6319,0.3681	-1441.42
0.4761,0.5239	-1443.79
0.4997,0.5003	-1443.32
0.5711,0.4289	-1445.99
0.5620,0.4380	-1441.74
0.5174,0.4826	-1443.42
0.6534,0.3466	-1433.12
0.4942,0.5058	-1443.40
0.4514,0.5486	-1443.10
0.4960,0.5040	-1443.42
0.5863,0.4137	-1442.06
0.5405,0.4595	-1442.53
0.6737,0.3263	-1436.97
0.4813,0.5187	-1443.73
0.4804,0.5196	-1443.83
0.5176,0.4824	-1442.72
0.6170,0.3830	-1442.60
0.5766,0.4234	-1441.07
0.6387,0.3613	-1437.02
0.4579,0.5421	-1445.57
0.4911,0.5089	-1443.28
0.6038,0.3962	-1442.73
0.6433,0.3567	-1441.70
0.6050,0.3950	-1445.31
0.6636,0.3364	-1443.04
0.4047,0.5953	-1441.36
0.5288,0.4712	-1443.12
0.5760,0.4240	-1442.91
0.6491,0.3509	-1436.94
0.5959,0.4041	-1441.01
0.6724,0.3276	-1438.40
0.3904,0.6096	-1449.22
0.5446,0.4554	-1442.14
0.5318,0.4682	-1444.15
0.6629,0.3371	-1435.57
0.6388,0.3612	-1439.87
0.6903,0.3097	-1434.76
0.4223,0.5777	-1444.37
0.5083,0.4917	-1443.25
0.4976,0.5024	-1443.29
0.5797,0.4203	-1439.12
0.6321,0.3679	-1439.26
0.6300,0.3700	-1436.59
0.4447,0.5553	-1443.41
0.5159,0.4841	-1442.90
0.4827,0.5173	-1443.55
0.5629,0.4371	-1440.98
0.6385,0.3615	-1443.28
0.6386,0.3614	-1441.57
0.4616,0.5384	-1443.02
0.5043,0.4957	-1443.33
0.5202,0.4798	-1442.65
0.5701,0.4299	-1443.96
0.6567,0.3433	-1445.35
0.6084,0.3916	-1442.84
0.4734,0.5266	-1443.22
0.5546,0.4454	-1442.70
0.5798,0.4202	-1444.26
0.6247,0.3753	-1438.23
0.6757,0.3243	-1435.52
0.6292,0.3708	-1438.19
0.4869,0.5131	-1443.64
0.5521,0.4479	-1442.48
0.5569,0.4431	-1440.88
0.6602,0.3398	-1439.57
0.6357,0.3643	-1438.72
0.6057,0.3943	-1441.91
0.4472,0.5528	-1444.00
0.6004,0.3996	-1443.87
0.5713,0.4287	-1442.56
0.6260,0.3740	-1440.28
0.6293,0.3707	-1439.25
0.6378,0.3622	-1440.99
0.5199,0.4801	-1443.93
0.6041,0.3959	-1438.93
0.5004,0.4996	-1443.32
0.6113,0.3887	-1440.20
0.6254,0.3746	-1439.76
0.6290,0.3710	-1440.84
0.5431,0.4569	-1443.03
0.5829,0.4171	-1440.36
0.5286,0.4714	-1442.89
0.6690,0.3310	-1439.76
0.5945,0.4055	-1440.62
0.6283,0.3717	-1438.73
0.5707,0.4293	-1442.84
0.6202,0.3798	-1441.70
0.5051,0.4949	-1443.31
0.6318,0.3682	-1435.48
0.5835,0.4165	-1445.41
0.5788,0.4212	-1442.64
0.5300,0.4700	-1443.36
0.6017,0.3983	-1443.92
0.5056,0.4944	-1443.49
0.6323,0.3677	-1443.06
0.6398,0.3602	-1443.90
0.5123,0.4877	-1443.03
0.5557,0.4443	-1443.15
0.6061,0.3939	-1441.92
0.5039,0.4961	-1443.41
0.6508,0.3492	-1446.27
0.6013,0.3987	-1440.21
0.4977,0.5023	-1443.40
0.5508,0.4492	-1443.91
0.5441,0.4559	-1443.21
0.5253,0.4747	-1444.23
0.6121,0.3879	-1439.74
0.6120,0.3880	-1440.20
0.5393,0.4607	-1443.48
0.5402,0.4598	-1442.53
0.5641,0.4359	-1442.76
0.5422,0.4578	-1442.52
0.6101,0.3899	-1443.78
0.6029,0.3971	-1443.12
0.5090,0.4910	-1443.14
0.5638,0.4362	-1444.04
0.5620,0.4380	-1443.74
0.5062,0.4938	-1443.36
0.6163,0.3837	-1441.16
0.6091,0.3909	-1445.07
0.5908,0.4092	-1441.74
0.5467,0.4533	-1442.12
0.5788,0.4212	-1440.73
0.4680,0.5320	-1443.64
0.5817,0.4183	-1441.03
0.5881,0.4119	-1438.52
0.4382,0.5618	-1444.06
0.5582,0.4418	-1443.88
0.5287,0.4713	-1443.24
0.4772,0.5228	-1443.57
0.5176,0.4824	-1443.35
0.6099,0.3901	-1437.96
0.4173,0.5827	-1446.26
0.5264,0.4736	-1442.59
0.5932,0.4068	-1438.36
0.5104,0.4896	-1443.40
0.5667,0.4333	-1441.18
0.5387,0.4613	-1443.32
0.4377,0.5623	-1445.33
0.4839,0.5161	-1443.47
0.5982,0.4018	-1439.02
0.4998,0.5002	-1443.32
0.5239,0.4761	-1442.93
0.5276,0.4724	-1442.35
0.4589,0.5411	-1443.85
0.4904,0.5096	-1443.47
0.6079,0.3921	-1442.39
0.5060,0.4940	-1443.48
0.5360,0.4640	-1442.28
0.4709,0.5291	-1444.64
0.4433,0.5567	-1444.13
0.4536,0.5464	-1442.70
0.6213,0.3787	-1438.26
0.5829,0.4171	-1443.70
0.5348,0.4652	-1442.30
0.4953,0.5047	-1443.33
0.4451,0.5549	-1444.95
0.4240,0.5760	-1443.38
0.5623,0.4377	-1439.74
0.6034,0.3966	-1440.20
0.5773,0.4227	-1440.44
0.5383,0.4617	-1444.08
0.4643,0.5357	-1442.15
0.4540,0.5460	-1442.52
0.5781,0.4219	-1442.95
0.5794,0.4206	-1442.01
0.5686,0.4314	-1441.98
0.5100,0.4900	-1443.20
0.4543,0.5457	-1442.88
0.4343,0.5657	-1444.19
0.5586,0.4414	-1441.77
0.5773,0.4227	-1442.31
0.5139,0.4861	-1443.50
0.4713,0.5287	-1442.77
0.4250,0.5750	-1444.26
0.4239,0.5761	-1443.38
0.4885,0.5115	-1443.09
0.5774,0.4226	-1443.87
0.5318,0.4682	-1443.00
0.5418,0.4582	-1442.69
0.4172,0.5828	-1443.59
0.4538,0.5462	-1444.56
0.4544,0.5456	-1442.88
0.5906,0.4094	-1437.71
0.5200,0.4800	-1442.97
0.4790,0.5210	-1443.88
0.4264,0.5736	-1441.54
0.4673,0.5327	-1444.05
0.4748,0.5252	-1443.21
0.5724,0.4276	-1444.32
0.5391,0.4609	-1443.48
0.4520,0.5480	-1443.86
0.4443,0.5557	-1442.08
0.4863,0.5137	-1443.65
0.4730,0.5270	-1442.79
0.5794,0.4206	-1439.77
0.5052,0.4948	-1443.46
0.3795,0.6205	-1446.41
0.4266,0.5734	-1444.49
0.4551,0.5449	-1442.52
0.5333,0.4667	-1442.60
0.6027,0.3973	-1442.28
0.5508,0.4492	-1441.87
0.4068,0.5932	-1443.22
0.4526,0.5474	-1443.65
0.4767,0.5233	-1443.49
0.5613,0.4387	-1443.97
0.5878,0.4122	-1444.56
0.6139,0.3861	-1437.88
0.4938,0.5062	-1443.23
0.4325,0.5675	-1443.99
0.4943,0.5057	-1443.45
0.5798,0.4202	-1442.98
0.6193,0.3807	-1438.28
0.6169,0.3831	-1444.50
0.4691,0.5309	-1443.87
0.4280,0.5720	-1444.14
0.4822,0.5178	-1443.49
0.5769,0.4231	-1443.24
0.6184,0.3816	-1442.64
0.5876,0.4124	-1441.72
0.5218,0.4782	-1443.39
0.4777,0.5223	-1444.10
0.4528,0.5472	-1443.27
0.5444,0.4556	-1442.68
0.6406,0.3594	-1441.62
0.5374,0.4626	-1443.01
0.5207,0.4793	-1442.96
0.4475,0.5525	-1444.63
0.4584,0.5416	-1443.53
0.5939,0.4061	-1438.72
0.6289,0.3711	-1436.09
0.5056,0.4944	-1443.34
0.4986,0.5014	-1443.36
0.4451,0.5549	-1443.63
0.4554,0.5446	-1442.70
0.5705,0.4295	-1443.68
0.6067,0.3933	-1438.46
0.5320,0.4680	-1443.77
0.5395,0.4605	-1445.07
0.4918,0.5082	-1443.38
0.4828,0.5172	-1443.27
0.5884,0.4116	-1441.72
0.5474,0.4526	-1443.06
0.5392,0.4608	-1443.80
0.5660,0.4340	-1442.78
0.4425,0.5575	-1443.23
0.4774,0.5226	-1444.57
0.5864,0.4136	-1443.46
0.4962,0.5038	-1443.18
0.5813,0.4187	-1442.02
0.5737,0.4263	-1442.88
0.4521,0.5479	-1443.28
0.4467,0.5533	-1443.59
0.6321,0.3679	-1441.97
0.4608,0.5392	-1443.80
0.5376,0.4624	-1444.82
0.5483,0.4517	-1442.29
0.4522,0.5478	-1441.94
0.4535,0.5465	-1443.07
0.6227,0.3773	-1440.75
0.3979,0.6021	-1441.06
0.4791,0.5209	-1443.20
0.5219,0.4781	-1443.13
0.4239,0.5761	-1441.85
0.4702,0.5298	-1443.12
0.6856,0.3144	-1436.32
0.3973,0.6027	-1443.57
0.4690,0.5310	-1443.50
0.5051,0.4949	-1443.39
0.4593,0.5407	-1443.52
0.4768,0.5232	-1443.49
0.7225,0.2775	-1439.87
0.3990,0.6010	-1443.09
0.5327,0.4673	-1443.13
0.4572,0.5428	-1444.24
0.4949,0.5051	-1443.33
0.4648,0.5352	-1442.02
0.7156,0.2844	-1437.74
0.4417,0.5583	-1443.95
0.6108,0.3892	-1442.45
0.4519,0.5481	-1443.86
0.5370,0.4630	-1444.78
0.3972,0.6028	-1443.15
0.7146,0.2854	-1438.63
0.4851,0.5149	-1443.51
0.5898,0.4102	-1443.18
0.4734,0.5266	-1443.75
0.6089,0.3911	-1439.31
0.4436,0.5564	-1442.98
0.7160,0.2840	-1445.15
0.5095,0.4905	-1443.35
0.5701,0.4299	-1440.29
0.5009,0.4991	-1443.29
0.5931,0.4069	-1443.27
0.4455,0.5545	-1440.99
0.7227,0.2773	-1443.71
0.5532,0.4468	-1442.05
0.5605,0.4395	-1442.73
0.5275,0.4725	-1442.24
0.5313,0.4687	-1443.63
0.4558,0.5442	-1443.23
0.7142,0.2858	-1430.37
0.6021,0.3979	-1443.10
0.5532,0.4468	-1442.26
0.5130,0.4870	-1443.33
0.5411,0.4589	-1443.02
0.4791,0.5209	-1442.62
0.6633,0.3367	-1441.67
0.5653,0.4347	-1440.14
0.5776,0.4224	-1444.81
0.4643,0.5357	-1442.43
0.5541,0.4459	-1443.13
0.5287,0.4713	-1443.81
0.6502,0.3498	-1439.42
0.6479,0.3521	-1435.12
0.5696,0.4304	-1441.14
0.4430,0.5570	-1442.07
0.5435,0.4565	-1442.51
0.6020,0.3980	-1441.44
0.6682,0.3318	-1448.14
0.6022,0.3978	-1441.45
0.5285,0.4715	-1443.24
0.4653,0.5347	-1443.14
0.5716,0.4284	-1442.56
0.5745,0.4255	-1439.89
0.6726,0.3274	-1440.56
0.6040,0.3960	-1438.51
0.5328,0.4672	-1442.21
0.4333,0.5667	-1444.77
0.5827,0.4173	-1443.03
0.5664,0.4336	-1440.38
0.6575,0.3425	-1440.83
0.5964,0.4036	-1441.01
0.5297,0.4703	-1442.29
0.4180,0.5820	-1444.88
0.5811,0.4189	-1441.36
0.5859,0.4141	-1441.71
0.5931,0.4069	-1442.89
0.5988,0.4012	-1440.62
0.4996,0.5004	-1443.32
0.4859,0.5141	-1443.72
0.5801,0.4199	-1443.31
0.5626,0.4374	-1444.01
0.6041,0.3959	-1440.62
0.6185,0.3815	-1439.74
0.5162,0.4838	-1443.21
0.4901,0.5099	-1443.51
0.6151,0.3849	-1438.80
0.5725,0.4275	-1441.11
0.6354,0.3646	-1444.28
0.6152,0.3848	-1439.74
0.5060,0.4940	-1443.17
0.4409,0.5591	-1445.63
0.6499,0.3501	-1436.94
0.5906,0.4094	-1442.47
0.6285,0.3715	-1439.25
0.5877,0.4123	-1441.72
0.5442,0.4558	-1444.10
0.4441,0.5559	-1442.98
0.6304,0.3696	-1442.99
0.5334,0.4666	-1443.00
0.5926,0.4074	-1442.13
0.6022,0.3978	-1443.11
0.5935,0.4065	-1441.01
0.4480,0.5520	-1443.35
0.6612,0.3388	-1439.59
0.5691,0.4309	-1443.93
0.6224,0.3776	-1442.25
0.5596,0.4404	-1445.12
0.5929,0.4071	-1443.64
0.4551,0.5449	-1444.14
0.6454,0.3546	-1436.96
0.5910,0.4090	-1440.27
0.6418,0.3582	-1438.74
0.5352,0.4648	-1443.99
0.6392,0.3608	-1443.88
0.4287,0.5713	-1443.26
0.6793,0.3207	-1439.27
0.6355,0.3645	-1442.06
0.5548,0.4452	-1442.04
0.5425,0.4575	-1442.35
0.6584,0.3416	-1437.57
0.4554,0.5446	-1443.24
0.6590,0.3410	-1439.55
0.6908,0.3092	-1437.17
0.5805,0.4195	-1442.34
0.5294,0.4706	-1442.89
0.6580,0.3420	-1441.50
0.3992,0.6008	-1442.27
0.6760,0.3240	-1443.61
0.6491,0.3509	-1439.40
0.6169,0.3831	-1439.74
0.5891,0.4109	-1440.29
0.6343,0.3657	-1443.13
0.3903,0.6097	-1443.88
0.6184,0.3816	-1442.15
0.6492,0.3508	-1443.10
0.5742,0.4258	-1441.69
0.5409,0.4591	-1443.51
0.6017,0.3983	-1441.03
0.4429,0.5571	-1442.76
0.6015,0.3985	-1437.74
0.6178,0.3822	-1439.26
0.5778,0.4222	-1442.94
0.5179,0.4821	-1443.00
0.6188,0.3812	-1441.19
0.4349,0.5651	-1445.22
0.6190,0.3810	-1448.48
0.5886,0.4114	-1443.16
0.5746,0.4254	-1442.89
0.4707,0.5293	-1443.71
0.6482,0.3518	-1438.78
0.4624,0.5376	-1443.91
0.6106,0.3894	-1440.20
0.5917,0.4083	-1441.00
0.5353,0.4647	-1443.85
0.4931,0.5069	-1443.12
0.6333,0.3667	-1439.27
0.4989,0.5011	-1443.31
0.6324,0.3676	-1439.81
0.5631,0.4369	-1442.24
0.5611,0.4389	-1443.96
0.4883,0.5117	-1443.41
0.6123,0.3877	-1441.11
0.4505,0.5495	-1442.71
0.6710,0.3290	-1436.95
0.5213,0.4787	-1442.53
0.5696,0.4304	-1443.94
0.5646,0.4354	-1443.28
0.6069,0.3931	-1444.54
0.4630,0.5370	-1442.56
0.6930,0.3070	-1441.28
0.5394,0.4606	-1442.85
0.5680,0.4320	-1443.62
0.5721,0.4279	-1440.53
0.6223,0.3777	-1442.24
0.4650,0.5350	-1443.56
0.7039,0.2961	-1437.43
0.4959,0.5041	-1443.26
0.5893,0.4107	-1444.62
0.5941,0.4059	-1441.01
0.5944,0.4056	-1442.92
0.5159,0.4841	-1443.09
0.7262,0.2738	-1433.21
0.4660,0.5340	-1443.55
0.5557,0.4443	-1440.01
0.5684,0.4316	-1439.78
0.5912,0.4088	-1441.74
0.5255,0.4745	-1443.22
0.7540,0.2460	-1431.47
0.4180,0.5820	-1441.57
0.5785,0.4215	-1440.10
0.5966,0.4034	-1440.23
0.6025,0.3975	-1442.70
0.5398,0.4602	-1443.33
0.7507,0.2493	-1443.55
0.4042,0.5958	-1442.92
0.5112,0.4888	-1443.55
0.5795,0.4205	-1442.01
0.5752,0.4248	-1443.20
0.5294,0.4706	-1443.48
0.7380,0.2620	-1430.26
0.4385,0.5615	-1443.30
0.5185,0.4815	-1442.69
0.5869,0.4131	-1439.26
0.5151,0.4849	-1443.03
0.5555,0.4445	-1442.70
0.6600,0.3400	-1436.92
0.4710,0.5290	-1442.30
0.5267,0.4733	-1444.19
0.5731,0.4269	-1441.69
0.4807,0.5193	-1443.28
0.5917,0.4083	-1441.38
0.6404,0.3596	-1436.43
0.4997,0.5003	-1443.33
0.5240,0.4760	-1443.31
0.5906,0.4094	-1441.37
0.4401,0.5599	-1443.27
0.6354,0.3646	-1438.17
0.6739,0.3261	-1441.33
0.5025,0.4975	-1443.33
0.5519,0.4481	-1443.10
0.5766,0.4234	-1442.92
0.4097,0.5903	-1444.58
0.5913,0.4087	-1441.37
0.6390,0.3610	-1443.87
0.4927,0.5073	-1443.37
0.6001,0.3999	-1442.24
0.5865,0.4135	-1444.51
0.4127,0.5873	-1443.04
0.5834,0.4166	-1441.70
0.6324,0.3676	-1439.26
0.5102,0.4898	-1443.24
0.5565,0.4435	-1442.93
0.5378,0.4622	-1443.01
0.5071,0.4929	-1443.51
0.6664,0.3336	-1438.31
0.6536,0.3464	-1447.72
0.5233,0.4767	-1443.96
0.5884,0.4116	-1444.94
0.5337,0.4663	-1443.41
0.5358,0.4642	-1442.72
0.6333,0.3667	-1437.63
0.6553,0.3447	-1439.49
0.4649,0.5351	-1443.57
0.6135,0.3865	-1445.29
0.5117,0.4883	-1443.09
0.4807,0.5193	-1442.66
0.6560,0.3440	-1436.27
0.7121,0.2879	-1434.92
0.4946,0.5054	-1443.14
0.6492,0.3508	-1437.56
0.5530,0.4470	-1443.54
0.4340,0.5660	-1442.35
0.6364,0.3636	-1443.76
0.6498,0.3502	-1438.17
0.4910,0.5090	-1443.38
0.6411,0.3589	-1443.38
0.5271,0.4729	-1443.01
0.4523,0.5477	-1443.28
0.6153,0.3847	-1435.98
0.6700,0.3300	-1444.03
0.4531,0.5469	-1442.70
0.6359,0.3641	-1438.72
0.5479,0.4521	-1443.64
0.4445,0.5555	-1442.97
0.5885,0.4115	-1439.22
0.6631,0.3369	-1437.60
0.4917,0.5083	-1443.51
0.5943,0.4057	-1438.33
0.5217,0.4783	-1443.21
0.5248,0.4752	-1443.32
0.6029,0.3971	-1441.45
0.6872,0.3128	-1433.18
0.4616,0.5384	-1442.40
0.5647,0.4353	-1440.68
0.5119,0.4881	-1442.99
0.4999,0.5001	-1443.33
0.5525,0.4475	-1444.80
0.6438,0.3562	-1440.53
0.4961,0.5039	-1443.26
0.5571,0.4429	-1444.54
0.5299,0.4701	-1443.36
0.5421,0.4579	-1443.87
0.5465,0.4535	-1441.37
0.5801,0.4199	-1441.37
0.5496,0.4504	-1443.88
0.5772,0.4228	-1442.93
0.5208,0.4792	-1442.63
0.5748,0.4252	-1441.99
0.5368,0.4632	-1442.86
0.5740,0.4260	-1439.90
0.5484,0.4516	-1443.46
0.5109,0.4891	-1443.01
0.5061,0.4939	-1443.41
0.6214,0.3786	-1440.24
0.5598,0.4402	-1443.21
0.5864,0.4136	-1440.66
0.5614,0.4386	-1442.74
0.5503,0.4497	-1443.09
0.5426,0.4574	-1443.54
0.6630,0.3370	-1439.63
0.5674,0.4326	-1445.51
0.6298,0.3702	-1440.85
0.5707,0.4293	-1440.27
0.4842,0.5158	-1443.90
0.5217,0.4783	-1442.52
0.6601,0.3399	-1444.88
0.5727,0.4273	-1442.28
0.6017,0.3983	-1443.51
0.6231,0.3769	-1442.77
0.4031,0.5969	-1443.35
0.5223,0.4777	-1442.95
0.6716,0.3284	-1439.10
0.5929,0.4071	-1442.88
0.5916,0.4084	-1444.34
0.5884,0.4116	-1444.94
0.4165,0.5835	-1443.27
0.5431,0.4569	-1442.34
0.6656,0.3344	-1436.24
0.5779,0.4221	-1443.57
0.5621,0.4379	-1441.24
0.5783,0.4217	-1441.69
0.4401,0.5599	-1445.44
0.5538,0.4462	-1443.99
0.6332,0.3668	-1440.36
0.5343,0.4657	-1442.31
0.5719,0.4281	-1441.69
0.5797,0.4203	-1442.97
0.3920,0.6080	-1443.36
0.6291,0.3709	-1441.89
0.6176,0.3824	-1440.22
0.5549,0.4451	-1443.36
0.5388,0.4612	-1443.17
0.4696,0.5304	-1443.37
0.4228,0.5772	-1443.41
0.6248,0.3752	-1439.76
0.5651,0.4349	-1442.51
0.5332,0.4668	-1443.67
0.5164,0.4836	-1443.48
0.5197,0.4803	-1442.34
0.4590,0.5410	-1443.85
0.6041,0.3959	-1440.20
0.5686,0.4314	-1441.98
0.4890,0.5110	-1443.05
0.5165,0.4835	-1443.54
0.5157,0.4843	-1443.53
0.5510,0.4490	-1442.27
0.6387,0.3613	-1442.15
0.5627,0.4373	-1441.74
0.5248,0.4752	-1443.52
0.5967,0.4033	-1440.62
0.5585,0.4415	-1440.84
0.5060,0.4940	-1443.31
0.6077,0.3923	-1439.76
0.6273,0.3727	-1442.89
0.5516,0.4484	-1443.93
0.5640,0.4360	-1442.76
0.5667,0.4333	-1443.32
0.5357,0.4643	-1442.00
0.6380,0.3620	-1442.69
0.6698,0.3302	-1438.36
0.5605,0.4395	-1444.19
0.5628,0.4372	-1444.26
0.5829,0.4171	-1445.04
0.5033,0.4967	-1443.34
0.7013,0.2987	-1432.25
0.6491,0.3509	-1446.78
0.5858,0.4142	-1441.36
0.6402,0.3598	-1443.34
0.6247,0.3753	-1441.28
0.4819,0.5181	-1443.42
0.6965,0.3035	-1433.12
0.6612,0.3388	-1436.92
0.5527,0.4473	-1441.42
0.6091,0.3909	-1441.97
0.6085,0.3915	-1442.40
0.4997,0.5003	-1443.32
0.7057,0.2943	-1434.85
0.6584,0.3416	-1437.57
0.6266,0.3734	-1442.35
0.6095,0.3905	-1440.64
0.5723,0.4277	-1442.57
0.5344,0.4656	-1442.86
0.7000,0.3000	-1443.27
0.6077,0.3923	-1445.45
0.5600,0.4400	-1443.45
0.5561,0.4439	-1444.05
0.5208,0.4792	-1443.13
0.5600,0.4400	-1441.52
0.6907,0.3093	-1434.76
0.5831,0.4169	-1441.03
0.5841,0.4159	-1437.28
0.5746,0.4254	-1441.09
0.5927,0.4073	-1444.76
0.5785,0.4215	-1443.27
0.6966,0.3034	-1439.77
0.5641,0.4359	-1444.57
0.5330,0.4670	-1443.53
0.5462,0.4538	-1441.94
0.5671,0.4329	-1441.98
0.6474,0.3526	-1445.46
0.6908,0.3092	-1434.76
0.5637,0.4363	-1443.01
0.4881,0.5119	-1443.46
0.5768,0.4232	-1442.92
0.6018,0.3982	-1443.51
0.6193,0.3807	-1442.66
0.6781,0.3219	-1434.03
0.5882,0.4118	-1445.29
0.4709,0.5291	-1443.70
0.5942,0.4058	-1440.62
0.5878,0.4122	-1441.36
0.6186,0.3814	-1441.67
0.6964,0.3036	-1439.76
0.6407,0.3593	-1438.16
0.5006,0.4994	-1443.31
0.5756,0.4244	-1440.16
0.5812,0.4188	-1442.02
0.6314,0.3686	-1439.80
0.6867,0.3133	-1433.19
0.6091,0.3909	-1442.86
0.5970,0.4030	-1445.33
0.5179,0.4821	-1443.21
0.5867,0.4133	-1439.96
0.6611,0.3389	-1439.59
0.5972,0.4028	-1438.25
0.6038,0.3962	-1438.93
0.5540,0.4460	-1440.96
0.5618,0.4382	-1444.48
0.5955,0.4045	-1443.33
0.6910,0.3090	-1437.18
0.5825,0.4175	-1439.70
0.5979,0.4021	-1443.00
0.5723,0.4277	-1444.89
0.6020,0.3980	-1441.03
0.6011,0.3989	-1442.26
0.6725,0.3275	-1440.56
0.6087,0.3913	-1439.31
0.5807,0.4193	-1440.71
0.5282,0.4718	-1442.67
0.5682,0.4318	-1443.08
0.5860,0.4140	-1443.45
0.7135,0.2865	-1434.94
0.5991,0.4009	-1441.42
0.6111,0.3889	-1441.55
0.5193,0.4807	-1443.44
0.5907,0.4093	-1441.74
0.6057,0.3943	-1441.91
0.6768,0.3232	-1444.39
0.5624,0.4376	-1440.99
0.5858,0.4142	-1442.75
0.4849,0.5151	-1443.51
0.5768,0.4232	-1442.00
0.6126,0.3874	-1438.82
0.6502,0.3498	-1438.80
0.5807,0.4193	-1445.27
0.5983,0.4017	-1442.21
0.4867,0.5133	-1443.48
0.5217,0.4783	-1442.95
0.6235,0.3765	-1442.27
0.6323,0.3677	-1440.89
0.5923,0.4077	-1442.87
0.6099,0.3901	-1443.32
0.4912,0.5088	-1443.35
0.4894,0.5106	-1443.74
0.6380,0.3620	-1440.43
0.6959,0.3041	-1445.54
0.5630,0.4370	-1438.95
0.5744,0.4256	-1443.19
0.4787,0.5213	-1443.72
0.5091,0.4909	-1443.21
0.6259,0.3741	-1443.88
0.6741,0.3259	-1440.61
0.5592,0.4408	-1443.67
0.5106,0.4894	-1443.36
0.4864,0.5136	-1443.54
0.5191,0.4809	-1442.83
0.5999,0.4001	-1443.45
0.6547,0.3453	-1436.28
0.5122,0.4878	-1443.42
0.5264,0.4736	-1443.65
0.5382,0.4618	-1441.48
0.4736,0.5264	-1442.80
0.6146,0.3854	-1439.74
0.6712,0.3288	-1432.67
0.5265,0.4735	-1443.33
0.5256,0.4744	-1443.22
0.5455,0.4545	-1444.32
0.4520,0.5480	-1443.67
0.5877,0.4123	-1443.14
0.6917,0.3083	-1438.00
0.5317,0.4683	-1443.00
0.5308,0.4692	-1442.76
0.5656,0.4344	-1442.78
0.4604,0.5396	-1443.66
0.5888,0.4112	-1438.13
0.7557,0.2443	-1434.88
0.4613,0.5387	-1443.17
0.5316,0.4684	-1442.75
0.5771,0.4229	-1441.06
0.4571,0.5429	-1443.90
0.5352,0.4648	-1443.28
0.7265,0.2735	-1435.17
0.4829,0.5171	-1443.27
0.5708,0.4292	-1441.70
0.5504,0.4496	-1443.09
0.4971,0.5029	-1443.35
0.5193,0.4807	-1443.21
0.6783,0.3217	-1440.74
0.5379,0.4621	-1442.10
0.4861,0.5139	-1443.83
0.5456,0.4544	-1443.59
0.4617,0.5383	-1443.47
0.5192,0.4808	-1442.75
0.6033,0.3967	-1442.30
0.5301,0.4699	-1442.40
0.4538,0.5462	-1444.18
0.5782,0.4218	-1444.21
0.4780,0.5220	-1443.12
0.4859,0.5141	-1443.49
0.6110,0.3890	-1439.74
0.5167,0.4833	-1443.21
0.4611,0.5389	-1442.08
0.5944,0.4056	-1439.86
0.4952,0.5048	-1443.27
0.4269,0.5731	-1444.78
0.6074,0.3926	-1441.50
0.5318,0.4682	-1443.51
0.4861,0.5139	-1443.38
0.5370,0.4630	-1442.86
0.4870,0.5130	-1443.48
0.4286,0.5714	-1441.82
0.6149,0.3851	-1440.21
0.5521,0.4479	-1444.57
0.5199,0.4801	-1443.53
0.5463,0.4537	-1444.54
0.4963,0.5037	-1443.41
0.4313,0.5687	-1445.97
0.6437,0.3563	-1439.93
0.5822,0.4178	-1442.36
0.5244,0.4756	-1442.93
0.6392,0.3608	-1435.87
0.4416,0.5584	-1443.24
0.4159,0.5841	-1443.63
0.5939,0.4061	-1440.63
0.5928,0.4072	-1443.26
0.5066,0.4934	-1443.34
0.6328,0.3672	-1441.44
0.4871,0.5129	-1443.37
0.4250,0.5750	-1442.75
0.6192,0.3808	-1442.66
0.6139,0.3861	-1439.74
0.5363,0.4637	-1441.70
0.6059,0.3941	-1442.34
0.4823,0.5177	-1443.70
0.4276,0.5724	-1445.33
0.5741,0.4259	-1443.18
0.5904,0.4096	-1441.74
0.5528,0.4472	-1442.90
0.5832,0.4168	-1442.37
0.4719,0.5281	-1444.58
0.4431,0.5569	-1443.22
0.5491,0.4509	-1442.68
0.6069,0.3931	-1442.80
0.5221,0.4779	-1442.77
0.5235,0.4765	-1443.50
0.4449,0.5551	-1443.85
0.4373,0.5627	-1442.83
0.5465,0.4535	-1443.61
0.6012,0.3988	-1441.03
0.5239,0.4761	-1443.12
0.5536,0.4464	-1442.91
0.4815,0.5185	-1443.43
0.4402,0.5598	-1443.75
0.5583,0.4417	-1442.25
0.5822,0.4178	-1444.02
0.5161,0.4839	-1443.41
0.4980,0.5020	-1443.40
0.5103,0.4897	-1443.11
0.4512,0.5488	-1443.69
0.5269,0.4731	-1442.80
0.5936,0.4064	-1441.01
0.5428,0.4572	-1443.54
0.4649,0.5351	-1443.99
0.5323,0.4677	-1442.48
0.4671,0.5329	-1444.32
0.5400,0.4600	-1444.14
0.6336,0.3664	-1439.27
0.5780,0.4220	-1444.20
0.4959,0.5041	-1443.28
0.5644,0.4356	-1441.73
0.4679,0.5321	-1442.87
0.5599,0.4401	-1442.97
0.6344,0.3656	-1438.17
0.5788,0.4212	-1441.05
0.4465,0.5535	-1445.96
0.5805,0.4195	-1440.72
0.4744,0.5256	-1442.70
0.4989,0.5011	-1443.32
0.5727,0.4273	-1443.15
0.5855,0.4145	-1442.74
0.4771,0.5229	-1443.67
0.6128,0.3872	-1443.41
0.5208,0.4792	-1443.63
0.5476,0.4524	-1442.30
0.6323,0.3677	-1440.35
0.5934,0.4066	-1441.01
0.4998,0.5002	-1443.33
0.5984,0.4016	-1441.41
0.5643,0.4357	-1442.76
0.5240,0.4760	-1442.16
0.6598,0.3402	-1445.53
0.6657,0.3343	-1442.44
0.4849,0.5151	-1443.63
0.6100,0.3900	-1441.54
0.5484,0.4516	-1444.04
0.5081,0.4919	-1443.02
0.7192,0.2808	-1438.79
0.6365,0.3635	-1439.28
0.4982,0.5018	-1443.32
0.6083,0.3917	-1440.19
0.6025,0.3975	-1443.94
0.5599,0.4401	-1442.00
0.7032,0.2968	-1434.83
0.6556,0.3444	-1434.35
0.4724,0.5276	-1443.56
0.6686,0.3314	-1443.26
0.5104,0.4896	-1443.23
0.6018,0.3982	-1440.62
0.6835,0.3165	-1438.61
0.6675,0.3325	-1436.24
0.4359,0.5641	-1444.14
0.6944,0.3056	-1441.34
0.5336,0.4664	-1443.14
0.5977,0.4023	-1439.43
0.7188,0.2812	-1437.84
0.6911,0.3089	-1436.37
0.4655,0.5345	-1443.28
0.6558,0.3442	-1440.79
0.5570,0.4430	-1441.33
0.6171,0.3829	-1439.74
0.6747,0.3253	-1443.54
0.6661,0.3339	-1434.86
0.4864,0.5136	-1443.43
0.6936,0.3064	-1434.77
0.5401,0.4599	-1443.34
0.6350,0.3650	-1443.15
0.7104,0.2896	-1432.21
0.7025,0.2975	-1437.40
0.4963,0.5037	-1443.30
0.6634,0.3366	-1435.57
0.5137,0.4863	-1443.28
0.6358,0.3642	-1442.06
0.7065,0.2935	-1440.13
0.7333,0.2667	-1432.28
0.4562,0.5438	-1442.87
0.6566,0.3434	-1434.97
0.4875,0.5125	-1443.47
0.6477,0.3523	-1442.43
0.6521,0.3479	-1438.19
0.6661,0.3339	-1439.69
0.4209,0.5791	-1441.55
0.6138,0.3862	-1441.59
0.5015,0.4985	-1443.37
0.6346,0.3654	-1440.38
0.6451,0.3549	-1441.15
0.6407,0.3593	-1438.74
0.4386,0.5614	-1441.82
0.6220,0.3780	-1437.75
0.5086,0.4914	-1443.35
0.6058,0.3942	-1442.34
0.6374,0.3626	-1439.85
0.6928,0.3072	-1438.83
0.4120,0.5880	-1443.41
0.5701,0.4299	-1442.26
0.5072,0.4928	-1443.26
0.6056,0.3944	-1441.48
0.6562,0.3438	-1444.03
0.6505,0.3495	-1438.80
0.4562,0.5438	-1443.58
0.6239,0.3761	-1441.78
0.5035,0.4965	-1443.41
0.6115,0.3885	-1442.01
0.7263,0.2737	-1441.01
0.6674,0.3326	-1441.11
0.4434,0.5566	-1442.08
0.5913,0.4087	-1442.11
0.5354,0.4646	-1442.01
0.6123,0.3877	-1442.03
0.7403,0.2597	-1443.89
0.6419,0.3581	-1443.41
0.4133,0.5867	-1441.27
0.5939,0.4061	-1442.15
0.5373,0.4627	-1442.56
0.6411,0.3589	-1438.16
0.7274,0.2726	-1436.16
0.6498,0.3502	-1441.88
0.4347,0.5653	-1443.39
0.6333,0.3667	-1438.72
0.4989,0.5011	-1443.34
0.6607,0.3393	-1443.58
0.7134,0.2866	-1436.76
0.6391,0.3609	-1444.44
0.5220,0.4780	-1443.04
0.6091,0.3909	-1441.08
0.5541,0.4459	-1442.69
0.6299,0.3701	-1441.91
0.6522,0.3478	-1438.19
0.6087,0.3913	-1441.96
0.4784,0.5216	-1443.55
0.5503,0.4497	-1441.87
0.5517,0.4483	-1442.89
0.6254,0.3746	-1438.73
0.7315,0.2685	-1433.27
0.5630,0.4370	-1442.24
0.5015,0.4985	-1443.35
0.5675,0.4325	-1442.80
0.5796,0.4204	-1441.05
0.6454,0.3546	-1439.96
0.7195,0.2805	-1432.21
0.5158,0.4842	-1443.34
0.4989,0.5011	-1443.31
0.5346,0.4654	-1442.72
0.5232,0.4768	-1443.31
0.6804,0.3196	-1438.54
0.6862,0.3138	-1436.32
0.5203,0.4797	-1443.94
0.5336,0.4664	-1443.00
0.5848,0.4152	-1443.42
0.5233,0.4767	-1442.47
0.6968,0.3032	-1441.44
0.6653,0.3347	-1443.11
0.5477,0.4523	-1444.40
0.5430,0.4570	-1442.17
0.5977,0.4023	-1442.60
0.5684,0.4316	-1444.46
0.6949,0.3051	-1434.77
0.6801,0.3199	-1440.80
0.4905,0.5095	-1443.62
0.5502,0.4498	-1442.48
0.5913,0.4087	-1441.74
0.5582,0.4418	-1442.01
0.6765,0.3235	-1439.21
0.6259,0.3741	-1438.73
0.4086,0.5914	-1443.16
0.5728,0.4272	-1441.98
0.6040,0.3960	-1443.57
0.5801,0.4199	-1441.69
0.7062,0.2938	-1437.49
0.6550,0.3450	-1445.90
0.4263,0.5737	-1441.83
0.5066,0.4934	-1443.39
0.6198,0.3802	-1443.65
0.5476,0.4524	-1443.83
0.6809,0.3191	-1440.83
0.6390,0.3610	-1438.73
0.4318,0.5682	-1443.74
0.4948,0.5052	-1443.39
0.6339,0.3661	-1442.56
0.5068,0.4932	-1443.15
0.6947,0.3053	-1436.42
0.6483,0.3517	-1442.45
0.4440,0.5560	-1444.33
0.5001,0.4999	-1443.32
0.6230,0.3770	-1442.26
0.5273,0.4727	-1442.25
0.7351,0.2649	-1431.28
0.5695,0.4305	-1442.82
0.4566,0.5434	-1444.44
0.4787,0.5213	-1442.44
0.6301,0.3699	-1449.38
0.4789,0.5211	-1444.22
0.6849,0.3151	-1436.31
0.6214,0.3786	-1442.22
0.4456,0.5544	-1441.21
0.4718,0.5282	-1442.44
0.5856,0.4144	-1442.40
0.4665,0.5335	-1444.21
0.6490,0.3510	-1437.56
0.6188,0.3812	-1437.80
0.4669,0.5331	-1443.27
0.4404,0.5596	-1442.79
0.5371,0.4629	-1441.07
0.5239,0.4761	-1442.64
0.6487,0.3513	-1441.24
0.5954,0.4046	-1440.62
0.4188,0.5812	-1444.19
0.4736,0.5264	-1443.33
0.5466,0.4534	-1442.68
0.5008,0.4992	-1443.32
0.6198,0.3802	-1439.74
0.5641,0.4359	-1443.02
0.4419,0.5581	-1442.77
0.4543,0.5457	-1443.07
0.5335,0.4665	-1443.54
0.5371,0.4629	-1441.52
0.5866,0.4134	-1443.46
0.5324,0.4676	-1442.74
0.4483,0.5517	-1441.89
0.4414,0.5586	-1444.43
0.5399,0.4601	-1443.17
0.5254,0.4746	-1443.32
0.5815,0.4185	-1439.72
0.5975,0.4025	-1441.01
0.5017,0.4983	-1443.32
0.4147,0.5853	-1441.95
0.5454,0.4546	-1443.04
0.5556,0.4444	-1441.36
0.6021,0.3979	-1443.52
0.6355,0.3645	-1443.17
0.4309,0.5691	-1444.32
0.4461,0.5539	-1445.12
0.5578,0.4422	-1444.34
0.5175,0.4825	-1443.56
0.6264,0.3736	-1443.90
0.6724,0.3276	-1436.24
0.4711,0.5289	-1442.65
0.4617,0.5383	-1443.32
0.5338,0.4662	-1444.35
0.5313,0.4687	-1442.37
0.5955,0.4045	-1439.46
0.6402,0.3598	-1439.89
0.5026,0.4974	-1443.36
0.4560,0.5440	-1442.17
0.5396,0.4604	-1443.17
0.5142,0.4858	-1443.11
0.5477,0.4523	-1440.76
0.6598,0.3402	-1441.55
0.5245,0.4755	-1443.41
0.4314,0.5686	-1444.30
0.5634,0.4366	-1444.03
0.4997,0.5003	-1443.33
0.5687,0.4313	-1444.19
0.6376,0.3624	-1440.42
0.5513,0.4487	-1441.66
0.5052,0.4948	-1443.29
0.5349,0.4651	-1443.98
0.4618,0.5382	-1443.32
0.5358,0.4642	-1442.43
0.6265,0.3735	-1438.73
0.6189,0.3811	-1442.65
0.5462,0.4538	-1443.79
0.4759,0.5241	-1442.82
0.5075,0.4925	-1443.22
0.4713,0.5287	-1444.15
0.6020,0.3980	-1441.03
0.6260,0.3740	-1443.37
0.5145,0.4855	-1443.04
0.4836,0.5164	-1443.47
0.4597,0.5403	-1442.86
0.4962,0.5038	-1443.22
0.5815,0.4185	-1442.02
0.6306,0.3694	-1443.53
0.5546,0.4454	-1442.91
0.4761,0.5239	-1442.64
0.3822,0.6178	-1447.17
0.5048,0.4952	-1443.47
0.5615,0.4385	-1442.74
0.5723,0.4277	-1441.98
0.5710,0.4290	-1439.69
0.5193,0.4807	-1443.37
0.4174,0.5826	-1439.58
0.5516,0.4484	-1444.96
0.5849,0.4151	-1444.45
0.4846,0.5154	-1443.76
0.5876,0.4124	-1441.01
0.5193,0.4807	-1443.21
0.4414,0.5586	-1441.36
0.5773,0.4227	-1441.37
0.6208,0.3792	-1442.21
0.5481,0.4519	-1442.29
0.5582,0.4418	-1442.01
0.5373,0.4627	-1444.20
0.4937,0.5063	-1443.28
0.5661,0.4339	-1440.12
0.6341,0.3659	-1439.27
0.5983,0.4017	-1442.61
0.5456,0.4544	-1443.60
0.5366,0.4634	-1443.74
0.5302,0.4698	-1443.97
0.5938,0.4062	-1442.52
0.5837,0.4163	-1440.01
0.5721,0.4279	-1441.69
0.5248,0.4752	-1443.72
0.5455,0.4545	-1441.95
0.5370,0.4630	-1442.27
0.6113,0.3887	-1442.01
0.6528,0.3472	-1438.82
0.5258,0.4742	-1442.91
0.5417,0.4583	-1442.19
0.5700,0.4300	-1443.39
0.5233,0.4767	-1442.66
0.6039,0.3961	-1442.73
0.6606,0.3394	-1436.92
0.4924,0.5076	-1443.28
0.5656,0.4344	-1441.46
0.6430,0.3570	-1444.63
0.5116,0.4884	-1443.60
0.5664,0.4336	-1442.52
0.6643,0.3357	-1436.92
0.5451,0.4549	-1442.68
0.5835,0.4165	-1442.71
0.6429,0.3571	-1444.62
0.4795,0.5205	-1442.96
0.5764,0.4236	-1444.46
0.6341,0.3659	-1439.27
0.5744,0.4256	-1441.99
0.5309,0.4691	-1443.87
0.6442,0.3558	-1442.31
0.4867,0.5133	-1443.38
0.5829,0.4171	-1441.70
0.6019,0.3981	-1443.92
0.5793,0.4207	-1440.41
0.5774,0.4226	-1441.06
0.6155,0.3845	-1442.56
0.5106,0.4894	-1443.36
0.5809,0.4191	-1443.00
0.5668,0.4332	-1442.25
0.5967,0.4033	-1444.54
0.5624,0.4376	-1442.49
0.6086,0.3914	-1437.55
0.4818,0.5182	-1444.01
0.6146,0.3854	-1442.54
0.5554,0.4446	-1443.37
0.6299,0.3701	-1437.66
0.5329,0.4671	-1443.00
0.5470,0.4530	-1443.25
0.4377,0.5623	-1443.57
0.6235,0.3765	-1441.77
0.5191,0.4809	-1443.29
0.6269,0.3731	-1442.36
0.5395,0.4605	-1443.33
0.5721,0.4279	-1444.31
0.5049,0.4951	-1443.31
0.6137,0.3863	-1441.59
0.5353,0.4647	-1441.73
0.5803,0.4197	-1439.75
0.5566,0.4434	-1443.16
0.5222,0.4778	-1443.39
0.5105,0.4895	-1443.19
0.6635,0.3365	-1436.24
0.5469,0.4531	-1444.19
0.5911,0.4089	-1441.01
0.5527,0.4473	-1440.57
0.5602,0.4398	-1444.18
0.4937,0.5063	-1443.41
0.6844,0.3156	-1443.27
0.5990,0.4010	-1441.82
0.6362,0.3638	-1443.20
0.5400,0.4600	-1442.37
0.5601,0.4399	-1439.10
0.5484,0.4516	-1441.51
0.6239,0.3761	-1440.26
0.5416,0.4584	-1443.52
0.6319,0.3681	-1440.88
0.5040,0.4960	-1443.12
0.5765,0.4235	-1441.07
0.5039,0.4961	-1443.21
0.5520,0.4480	-1442.69
0.4635,0.5365	-1444.62
0.6279,0.3721	-1436.63
0.4471,0.5529	-1443.79
0.5631,0.4369	-1440.97
0.5608,0.4392	-1442.73
0.5753,0.4247	-1442.29
0.4699,0.5301	-1443.24
0.5643,0.4357	-1440.95
0.4563,0.5437	-1444.10
0.5456,0.4544	-1441.95
0.5871,0.4129	-1438.55
0.5545,0.4455	-1442.69
0.5078,0.4922	-1443.28
0.5409,0.4591	-1441.54
0.4646,0.5354	-1443.15
0.5247,0.4753	-1444.11
0.5353,0.4647	-1443.14
0.5952,0.4048	-1443.32
0.4566,0.5434	-1443.57
0.5482,0.4518	-1443.26
0.4154,0.5846	-1442.96
0.5478,0.4522	-1443.45
0.5254,0.4746	-1443.02
