#isoforms=['ENSG00000186575.SE.4.A.up_ENSG00000186575.SE.4.A.SE1_ENSG00000186575.SE.4.A.dn','ENSG00000186575.SE.4.B.up_ENSG00000186575.SE.4.B.dn']	exon_lens=('ENSG00000186575.SE.4.A.up',128),('ENSG00000186575.SE.4.A.SE1',163),('ENSG00000186575.SE.4.A.dn',3847),('ENSG00000186575.SE.4.B.up',128),('ENSG00000186575.SE.4.B.dn',194)	iters=5000	burn_in=500	lag=10	percent_accept=92.18	proposal_type=drift	counts=(0,0):34,(1,0):274,(1,1):52	assigned_counts=0:293,1:33	chrom=chr22	strand=+	mRNA_starts=29678196,29678196	mRNA_ends=29698598,29694945
sampled_psi	log_score
0.3553,0.6447	-2730.65
0.4482,0.5518	-2735.04
0.4866,0.5134	-2734.43
0.4374,0.5626	-2731.76
0.3975,0.6025	-2733.30
0.3703,0.6297	-2729.00
0.4067,0.5933	-2730.96
0.4663,0.5337	-2734.06
0.4889,0.5111	-2734.48
0.4623,0.5377	-2734.64
0.4282,0.5718	-2732.63
0.4266,0.5734	-2733.50
0.3681,0.6319	-2734.91
0.4567,0.5433	-2733.84
0.4775,0.5225	-2734.25
0.4636,0.5364	-2734.04
0.4891,0.5109	-2734.35
0.3413,0.6587	-2733.46
0.3983,0.6017	-2732.05
0.3913,0.6087	-2733.37
0.4927,0.5073	-2734.33
0.4077,0.5923	-2733.97
0.3724,0.6276	-2733.20
0.3731,0.6269	-2733.19
0.3998,0.6002	-2734.09
0.3715,0.6285	-2734.27
0.5232,0.4768	-2734.34
0.4218,0.5782	-2730.99
0.3587,0.6413	-2736.43
0.3858,0.6142	-2729.73
0.3606,0.6394	-2732.90
0.3471,0.6529	-2732.63
0.4791,0.5209	-2734.68
0.4103,0.5897	-2730.67
0.4024,0.5976	-2732.07
0.3436,0.6564	-2732.08
0.3803,0.6197	-2730.13
0.3378,0.6622	-2731.57
0.4505,0.5495	-2733.40
0.4210,0.5790	-2731.92
0.3900,0.6100	-2731.15
0.3141,0.6859	-2727.69
0.3798,0.6202	-2730.62
0.3572,0.6428	-2731.81
0.4450,0.5550	-2732.23
0.4172,0.5828	-2733.19
0.3826,0.6174	-2731.59
0.3126,0.6874	-2735.59
0.3964,0.6036	-2729.95
0.3675,0.6325	-2731.13
0.4628,0.5372	-2733.44
0.4096,0.5904	-2733.21
0.4220,0.5780	-2732.88
0.3269,0.6731	-2730.44
0.3924,0.6076	-2732.92
0.3617,0.6383	-2734.58
0.3915,0.6085	-2731.61
0.4373,0.5627	-2734.53
0.4209,0.5791	-2731.92
0.3148,0.6852	-2731.56
0.4225,0.5775	-2732.88
0.3336,0.6664	-2729.60
0.3914,0.6086	-2729.84
0.3853,0.6147	-2731.13
0.4239,0.5761	-2732.58
0.3189,0.6811	-2730.66
0.4408,0.5592	-2733.30
0.3471,0.6529	-2733.90
0.3510,0.6490	-2734.99
0.3992,0.6008	-2732.47
0.4336,0.5664	-2733.51
0.3145,0.6855	-2730.80
0.4165,0.5835	-2733.19
0.3449,0.6551	-2734.62
0.3832,0.6168	-2732.55
0.4132,0.5868	-2732.15
0.4573,0.5427	-2733.84
0.3094,0.6906	-2729.38
0.3828,0.6172	-2733.51
0.3195,0.6805	-2734.42
0.4505,0.5495	-2733.21
0.4301,0.5699	-2732.09
0.5250,0.4750	-2735.24
0.2856,0.7144	-2732.18
0.3843,0.6157	-2731.59
0.3405,0.6595	-2732.82
0.4110,0.5890	-2735.01
0.3882,0.6118	-2732.51
0.5543,0.4457	-2735.06
0.3006,0.6994	-2731.36
0.3713,0.6287	-2733.75
0.3681,0.6319	-2734.37
0.4414,0.5586	-2732.83
0.3762,0.6238	-2730.60
0.5509,0.4491	-2735.40
0.2807,0.7193	-2732.50
0.3530,0.6470	-2731.27
0.3779,0.6221	-2731.61
0.4289,0.5711	-2734.07
0.3711,0.6289	-2736.39
0.5483,0.4517	-2734.95
0.3118,0.6882	-2732.47
0.3595,0.6405	-2730.62
0.3795,0.6205	-2735.04
0.4204,0.5796	-2734.80
0.3695,0.6305	-2729.52
0.5550,0.4450	-2736.39
0.3575,0.6425	-2731.21
0.3833,0.6167	-2732.07
0.3705,0.6295	-2733.77
0.3967,0.6033	-2737.08
0.4095,0.5905	-2732.85
0.5563,0.4437	-2734.64
0.3579,0.6421	-2730.04
0.3761,0.6239	-2732.63
0.3724,0.6276	-2734.77
0.3721,0.6279	-2733.21
0.4433,0.5567	-2732.64
0.5636,0.4364	-2734.22
0.3518,0.6482	-2730.07
0.4325,0.5675	-2732.69
0.3847,0.6153	-2730.65
0.3784,0.6216	-2733.09
0.4696,0.5304	-2734.45
0.4935,0.5065	-2734.30
0.3522,0.6478	-2730.07
0.3990,0.6010	-2731.24
0.4273,0.5727	-2735.55
0.3755,0.6245	-2733.14
0.4413,0.5587	-2734.72
0.5016,0.4984	-2734.53
0.3573,0.6427	-2730.04
0.3820,0.6180	-2733.04
0.4340,0.5660	-2732.98
0.3208,0.6792	-2730.60
0.4196,0.5804	-2735.14
0.4445,0.5555	-2732.22
0.4076,0.5924	-2732.47
0.3659,0.6341	-2731.69
0.4423,0.5577	-2732.61
0.3640,0.6360	-2730.04
0.4368,0.5632	-2734.28
0.4699,0.5301	-2734.81
0.4472,0.5528	-2733.15
0.3762,0.6238	-2731.11
0.3964,0.6036	-2731.63
0.3728,0.6272	-2730.59
0.4421,0.5579	-2732.61
0.5044,0.4956	-2734.55
0.4732,0.5268	-2734.55
0.3869,0.6131	-2733.90
0.3915,0.6085	-2734.69
0.3375,0.6625	-2731.58
0.4467,0.5533	-2735.50
0.4382,0.5618	-2732.53
0.5137,0.4863	-2734.60
0.4152,0.5848	-2735.25
0.3597,0.6403	-2727.73
0.3121,0.6879	-2734.83
0.4274,0.5726	-2734.38
0.3560,0.6440	-2729.45
0.4652,0.5348	-2733.50
0.3875,0.6125	-2734.34
0.3586,0.6414	-2732.95
0.3506,0.6494	-2733.16
0.4400,0.5600	-2733.77
0.3748,0.6252	-2731.62
0.4710,0.5290	-2733.63
0.3381,0.6619	-2731.56
0.3964,0.6036	-2730.37
0.3325,0.6675	-2730.31
0.4083,0.5917	-2733.59
0.4041,0.5959	-2734.80
0.4148,0.5852	-2733.20
0.3508,0.6492	-2731.92
0.3454,0.6546	-2726.92
0.3123,0.6877	-2729.29
0.4517,0.5483	-2732.84
0.4484,0.5516	-2732.55
0.3919,0.6081	-2731.17
0.3514,0.6486	-2731.30
0.3280,0.6720	-2731.85
0.3338,0.6662	-2735.13
0.4447,0.5553	-2732.67
0.4159,0.5841	-2731.84
0.4216,0.5784	-2730.03
0.3930,0.6070	-2735.96
0.3883,0.6117	-2731.60
0.4133,0.5867	-2730.40
0.4491,0.5509	-2734.82
0.4526,0.5474	-2733.05
0.4324,0.5676	-2733.23
0.4339,0.5661	-2731.38
0.3772,0.6228	-2735.12
0.4587,0.5413	-2734.85
0.4160,0.5840	-2732.18
0.4531,0.5469	-2734.00
0.4230,0.5770	-2731.95
0.4371,0.5629	-2733.77
0.4318,0.5682	-2733.23
0.4890,0.5110	-2734.39
0.4513,0.5487	-2734.00
0.4254,0.5746	-2732.30
0.4231,0.5769	-2731.96
0.4073,0.5927	-2734.35
0.4686,0.5314	-2734.08
0.4656,0.5344	-2733.78
0.4131,0.5869	-2731.44
0.4511,0.5489	-2733.21
0.4382,0.5618	-2734.02
0.4007,0.5993	-2733.67
0.4292,0.5708	-2731.22
0.4754,0.5246	-2733.25
0.4203,0.5797	-2734.48
0.4562,0.5438	-2734.36
0.4432,0.5568	-2732.86
0.4633,0.5367	-2734.04
0.4435,0.5565	-2732.19
0.4501,0.5499	-2734.20
0.4274,0.5726	-2734.09
0.4419,0.5581	-2733.07
0.5084,0.4916	-2734.92
0.4716,0.5284	-2733.87
0.4777,0.5223	-2734.16
0.4368,0.5632	-2732.75
0.4895,0.5105	-2734.10
0.3991,0.6009	-2734.51
0.4677,0.5323	-2733.81
0.4773,0.5227	-2734.25
0.4452,0.5548	-2734.22
0.3768,0.6232	-2731.61
0.5073,0.4927	-2734.54
0.4051,0.5949	-2732.08
0.4373,0.5627	-2733.01
0.4121,0.5879	-2731.43
0.4753,0.5247	-2734.83
0.3945,0.6055	-2730.33
0.4990,0.5010	-2734.49
0.4144,0.5856	-2730.43
0.4865,0.5135	-2734.38
0.4526,0.5474	-2732.86
0.4687,0.5313	-2734.20
0.4187,0.5813	-2732.87
0.4985,0.5015	-2734.47
0.3692,0.6308	-2733.27
0.4654,0.5346	-2734.05
0.4287,0.5713	-2732.64
0.4130,0.5870	-2732.50
0.4375,0.5625	-2732.76
0.5571,0.4429	-2733.50
0.4211,0.5789	-2733.83
0.3975,0.6025	-2731.64
0.4353,0.5647	-2731.95
0.4191,0.5809	-2732.54
0.4888,0.5112	-2734.12
0.5222,0.4778	-2734.26
0.4215,0.5785	-2731.61
0.3961,0.6039	-2732.89
0.3932,0.6068	-2732.91
0.3975,0.6025	-2732.47
0.4712,0.5288	-2733.41
0.4177,0.5823	-2733.53
0.4754,0.5246	-2733.84
0.3869,0.6131	-2730.21
0.4039,0.5961	-2733.63
0.3809,0.6191	-2730.63
0.4213,0.5787	-2733.51
0.4168,0.5832	-2733.19
0.4760,0.5240	-2733.86
0.3950,0.6050	-2731.19
0.4402,0.5598	-2732.81
0.3887,0.6113	-2728.88
0.4692,0.5308	-2733.71
0.4267,0.5733	-2733.50
0.4670,0.5330	-2734.46
0.4683,0.5317	-2733.44
0.4050,0.5950	-2732.08
0.4376,0.5624	-2733.52
0.4625,0.5375	-2734.04
0.3865,0.6135	-2734.83
0.3848,0.6152	-2731.12
0.3987,0.6013	-2731.23
0.4112,0.5888	-2735.00
0.3979,0.6021	-2732.05
0.4090,0.5910	-2734.32
0.4070,0.5930	-2731.72
0.3991,0.6009	-2730.01
0.3601,0.6399	-2730.04
0.3933,0.6067	-2731.61
0.3784,0.6216	-2728.13
0.3863,0.6137	-2733.91
0.3592,0.6408	-2735.25
0.4173,0.5827	-2731.52
0.4292,0.5708	-2732.08
0.3721,0.6279	-2733.21
0.4222,0.5778	-2732.88
0.4353,0.5647	-2733.77
0.4282,0.5718	-2734.66
0.3857,0.6143	-2731.13
0.4485,0.5515	-2734.00
0.4625,0.5375	-2734.04
0.4110,0.5890	-2733.57
0.4130,0.5870	-2735.66
0.4763,0.5237	-2733.67
0.3922,0.6078	-2732.05
0.5763,0.4237	-2735.22
0.4488,0.5512	-2732.56
0.4568,0.5432	-2733.84
0.4624,0.5376	-2734.19
0.4496,0.5504	-2732.78
0.3463,0.6537	-2734.56
0.5689,0.4311	-2736.19
0.5196,0.4804	-2734.36
0.4678,0.5322	-2734.97
0.4247,0.5753	-2732.90
0.4221,0.5779	-2733.20
0.3789,0.6211	-2734.07
0.5951,0.4049	-2733.72
0.4719,0.5281	-2734.55
0.4886,0.5114	-2734.48
0.3901,0.6099	-2731.15
0.4161,0.5839	-2733.20
0.3543,0.6457	-2727.05
0.5199,0.4801	-2734.83
0.4792,0.5208	-2734.34
0.5168,0.4832	-2734.70
0.3836,0.6164	-2730.17
0.4074,0.5926	-2731.73
0.3791,0.6209	-2734.07
0.5536,0.4464	-2734.61
0.4194,0.5806	-2731.24
0.4921,0.5079	-2734.35
0.4004,0.5996	-2733.27
0.4132,0.5868	-2733.20
0.3141,0.6859	-2728.47
0.5286,0.4714	-2735.36
0.4352,0.5648	-2732.73
0.4585,0.5415	-2733.35
0.4290,0.5710	-2732.36
0.3989,0.6011	-2735.75
0.3054,0.6946	-2731.97
0.5526,0.4474	-2734.18
0.4235,0.5765	-2732.58
0.4323,0.5677	-2732.42
0.4373,0.5627	-2732.51
0.3515,0.6485	-2734.36
0.3552,0.6448	-2730.65
0.4540,0.5460	-2734.56
0.4591,0.5409	-2733.53
0.4147,0.5853	-2732.16
0.4168,0.5832	-2732.52
0.3456,0.6544	-2733.95
0.3402,0.6598	-2729.52
0.4378,0.5622	-2732.27
0.4485,0.5515	-2733.59
0.4516,0.5484	-2734.39
0.4437,0.5563	-2731.74
0.3729,0.6271	-2735.27
0.3647,0.6353	-2730.04
0.4175,0.5825	-2733.53
0.4175,0.5825	-2731.86
0.4223,0.5777	-2733.20
0.4438,0.5562	-2734.23
0.3435,0.6565	-2735.32
0.3606,0.6394	-2732.33
0.5125,0.4875	-2734.79
0.4148,0.5852	-2732.16
0.4615,0.5385	-2734.34
0.3963,0.6037	-2734.15
0.3191,0.6809	-2730.65
0.3878,0.6122	-2730.68
0.4736,0.5264	-2733.80
0.4140,0.5860	-2734.59
0.4677,0.5323	-2734.07
0.3769,0.6231	-2731.11
0.3356,0.6644	-2730.94
0.3926,0.6074	-2732.05
0.4284,0.5716	-2731.77
0.3540,0.6460	-2731.26
0.4889,0.5111	-2734.04
0.4281,0.5719	-2734.08
0.3018,0.6982	-2731.31
0.4212,0.5788	-2733.19
0.4080,0.5920	-2732.10
0.3533,0.6467	-2732.48
0.4776,0.5224	-2733.71
0.4628,0.5372	-2734.04
0.2850,0.7150	-2729.46
0.4300,0.5700	-2732.94
0.4310,0.5690	-2733.78
0.3908,0.6092	-2732.05
0.4331,0.5669	-2731.35
0.5340,0.4660	-2734.33
0.3191,0.6809	-2732.92
0.3776,0.6224	-2733.11
0.4726,0.5274	-2734.33
0.4486,0.5514	-2735.03
0.4291,0.5709	-2734.36
0.4823,0.5177	-2734.14
0.3150,0.6850	-2734.67
0.3470,0.6530	-2729.47
0.4617,0.5383	-2733.73
0.3944,0.6056	-2732.91
0.4120,0.5880	-2732.14
0.5170,0.4830	-2734.77
0.3883,0.6117	-2731.60
0.3573,0.6427	-2732.98
0.4394,0.5606	-2733.77
0.3901,0.6099	-2729.81
0.5122,0.4878	-2734.83
0.4613,0.5387	-2734.19
0.4047,0.5953	-2732.08
0.3977,0.6023	-2730.39
0.3987,0.6013	-2733.29
0.3336,0.6664	-2728.91
0.5206,0.4794	-2734.52
0.4846,0.5154	-2734.12
0.3953,0.6047	-2733.75
0.4170,0.5830	-2732.52
0.4001,0.5999	-2735.30
0.3236,0.6764	-2732.73
0.4868,0.5132	-2734.12
0.4974,0.5026	-2734.39
0.3877,0.6123	-2729.77
0.4137,0.5863	-2734.59
0.4427,0.5573	-2734.00
0.3679,0.6321	-2729.51
0.3915,0.6085	-2730.72
0.5085,0.4915	-2734.52
0.4074,0.5926	-2732.85
0.4163,0.5837	-2732.86
0.3688,0.6312	-2737.04
0.3836,0.6164	-2731.12
0.4300,0.5700	-2733.50
0.4956,0.5044	-2734.32
0.3887,0.6113	-2732.50
0.3643,0.6357	-2734.49
0.3316,0.6684	-2730.33
0.4077,0.5923	-2733.60
0.3996,0.6004	-2731.24
0.4791,0.5209	-2734.01
0.3707,0.6293	-2732.18
0.3554,0.6446	-2731.84
0.3814,0.6186	-2731.60
0.4005,0.5995	-2732.47
0.4560,0.5440	-2734.01
0.4741,0.5259	-2733.81
0.4408,0.5592	-2732.58
0.3491,0.6509	-2730.71
0.3703,0.6297	-2733.77
0.3850,0.6150	-2732.53
0.4908,0.5092	-2734.15
0.5181,0.4819	-2734.72
0.3907,0.6093	-2732.49
0.3846,0.6154	-2731.59
0.3566,0.6434	-2731.23
0.4155,0.5845	-2733.54
0.5068,0.4932	-2734.59
0.4810,0.5190	-2734.28
0.3734,0.6266	-2731.63
0.4265,0.5735	-2733.21
0.3711,0.6289	-2730.59
0.3693,0.6307	-2731.12
0.5398,0.4602	-2735.46
0.5046,0.4954	-2734.70
0.3203,0.6797	-2732.12
0.4263,0.5737	-2733.80
0.3901,0.6099	-2731.15
0.4054,0.5946	-2734.00
0.5321,0.4679	-2734.98
0.5349,0.4651	-2735.45
0.3051,0.6949	-2735.27
0.4171,0.5829	-2731.86
0.3919,0.6081	-2733.80
0.4110,0.5890	-2730.33
0.4642,0.5358	-2734.05
0.5133,0.4867	-2734.44
0.2945,0.7055	-2728.17
0.3590,0.6410	-2728.30
0.4102,0.5898	-2734.30
0.3916,0.6084	-2731.17
0.4443,0.5557	-2733.11
0.4674,0.5326	-2733.81
0.3458,0.6542	-2733.94
0.3443,0.6557	-2728.20
0.4034,0.5966	-2733.25
0.3921,0.6079	-2730.29
0.3873,0.6127	-2732.51
0.5065,0.4935	-2734.56
0.3293,0.6707	-2733.23
0.3060,0.6940	-2732.76
0.4114,0.5886	-2733.92
0.3690,0.6310	-2732.20
0.4014,0.5986	-2729.67
0.5053,0.4947	-2734.44
0.3091,0.6909	-2734.21
0.2992,0.7008	-2729.72
0.3921,0.6079	-2734.24
0.4098,0.5902	-2732.85
0.4195,0.5805	-2731.25
0.4551,0.5449	-2734.19
0.3254,0.6746	-2731.20
0.2636,0.7364	-2726.66
0.3665,0.6335	-2732.23
0.4176,0.5824	-2731.20
0.3956,0.6044	-2735.02
0.4323,0.5677	-2733.50
0.3398,0.6602	-2733.51
0.2626,0.7374	-2726.72
0.3640,0.6360	-2729.48
0.4466,0.5534	-2733.36
0.4114,0.5886	-2733.92
0.4262,0.5738	-2732.61
0.3393,0.6607	-2730.20
0.2434,0.7566	-2731.46
0.4083,0.5917	-2733.96
0.4285,0.5715	-2732.93
0.3631,0.6369	-2731.16
0.4532,0.5468	-2733.44
0.3178,0.6822	-2726.87
0.2783,0.7217	-2729.81
0.3863,0.6137	-2732.06
0.4871,0.5129	-2734.38
0.3883,0.6117	-2731.60
0.4160,0.5840	-2732.18
0.3119,0.6881	-2726.14
0.3044,0.6956	-2727.88
0.4115,0.5885	-2732.85
0.4310,0.5690	-2732.67
0.4006,0.5994	-2732.87
0.4484,0.5516	-2733.79
0.3348,0.6652	-2733.70
0.2973,0.7027	-2725.50
0.3993,0.6007	-2735.32
0.4440,0.5560	-2733.55
0.3714,0.6286	-2735.32
0.4999,0.5001	-2734.48
0.3368,0.6632	-2734.98
0.3147,0.6853	-2727.68
0.3658,0.6342	-2733.89
0.4518,0.5482	-2734.19
0.3584,0.6416	-2729.46
0.4254,0.5746	-2732.60
0.3607,0.6393	-2728.32
0.3126,0.6874	-2726.14
0.3409,0.6591	-2730.18
0.4778,0.5222	-2733.99
0.3874,0.6126	-2735.26
0.4239,0.5761	-2734.43
0.4138,0.5862	-2731.46
0.3513,0.6487	-2727.62
0.3210,0.6790	-2729.84
0.4292,0.5708	-2731.79
0.4030,0.5970	-2731.29
0.4456,0.5544	-2734.22
0.4254,0.5746	-2733.80
0.3251,0.6749	-2726.83
0.2953,0.7047	-2727.27
0.3915,0.6085	-2728.96
0.3829,0.6171	-2733.03
0.4076,0.5924	-2730.60
0.3826,0.6174	-2732.55
0.3381,0.6619	-2731.56
0.3526,0.6474	-2732.49
0.3925,0.6075	-2729.86
0.4029,0.5971	-2734.43
0.3615,0.6385	-2730.04
0.3349,0.6651	-2732.33
0.3285,0.6715	-2733.97
0.3751,0.6249	-2729.58
0.3259,0.6741	-2726.10
0.4283,0.5717	-2734.08
0.3966,0.6034	-2731.63
0.3462,0.6538	-2729.48
0.2903,0.7097	-2731.90
0.3733,0.6267	-2730.59
0.3730,0.6270	-2730.07
0.4378,0.5622	-2733.52
0.3855,0.6145	-2735.32
0.3545,0.6455	-2728.26
0.3140,0.6860	-2728.47
0.3944,0.6056	-2732.48
0.3188,0.6812	-2733.69
0.4088,0.5912	-2732.48
0.3634,0.6366	-2733.40
0.4022,0.5978	-2732.86
0.3132,0.6868	-2733.98
0.3833,0.6167	-2730.17
0.3182,0.6818	-2731.44
0.4100,0.5900	-2732.85
0.4047,0.5953	-2732.47
0.3592,0.6408	-2730.04
0.2687,0.7313	-2728.40
0.3950,0.6050	-2732.05
0.3317,0.6683	-2730.33
0.3876,0.6124	-2733.43
0.3439,0.6561	-2728.85
0.3571,0.6429	-2731.81
0.2762,0.7238	-2739.57
0.4225,0.5775	-2733.51
0.3616,0.6384	-2730.61
0.3256,0.6744	-2731.92
0.3103,0.6897	-2730.15
0.3429,0.6571	-2733.40
0.3437,0.6563	-2733.38
0.4818,0.5182	-2734.72
0.3233,0.6767	-2732.01
0.2978,0.7022	-2737.50
0.3366,0.6634	-2730.24
0.3387,0.6613	-2728.87
0.3153,0.6847	-2728.44
0.4692,0.5308	-2733.96
0.3576,0.6424	-2728.87
0.2952,0.7048	-2729.02
0.3247,0.6753	-2731.96
0.3217,0.6783	-2729.83
0.3793,0.6207	-2732.59
0.4588,0.5412	-2733.85
0.3254,0.6746	-2726.10
0.3648,0.6352	-2732.81
0.3620,0.6380	-2731.17
0.2944,0.7056	-2729.05
0.3480,0.6520	-2729.47
0.4666,0.5334	-2733.93
0.3957,0.6043	-2732.90
0.2988,0.7012	-2733.15
0.3695,0.6305	-2737.00
0.3029,0.6971	-2732.92
0.3255,0.6745	-2732.66
0.5128,0.4872	-2734.95
0.3731,0.6269	-2730.59
0.2882,0.7118	-2732.93
0.4134,0.5866	-2731.80
0.3365,0.6635	-2727.53
0.2889,0.7111	-2726.57
0.4950,0.5050	-2734.38
0.3853,0.6147	-2733.00
0.3618,0.6382	-2732.31
0.3816,0.6184	-2730.63
0.3724,0.6276	-2730.59
0.3017,0.6983	-2728.79
0.5308,0.4692	-2735.19
0.4183,0.5817	-2733.19
0.4090,0.5910	-2732.85
0.3482,0.6518	-2731.35
0.3859,0.6141	-2731.59
0.3370,0.6630	-2732.26
0.5048,0.4952	-2734.62
0.4499,0.5501	-2735.21
0.4366,0.5634	-2733.26
0.3606,0.6394	-2732.33
0.4021,0.5979	-2732.86
0.3488,0.6512	-2729.47
0.4968,0.5032	-2734.42
0.4195,0.5805	-2732.54
0.4357,0.5643	-2733.25
0.4112,0.5888	-2735.36
0.3519,0.6481	-2735.56
0.3676,0.6324	-2730.05
0.4442,0.5558	-2734.90
0.3979,0.6021	-2730.40
0.3983,0.6017	-2732.47
0.4115,0.5885	-2731.42
0.4187,0.5813	-2733.85
0.3957,0.6043	-2733.32
0.4228,0.5772	-2732.89
0.3980,0.6020	-2732.05
0.4357,0.5643	-2733.00
0.4227,0.5773	-2732.57
0.4512,0.5488	-2733.61
0.4332,0.5668	-2734.04
0.4477,0.5523	-2734.42
0.3958,0.6042	-2732.47
0.4389,0.5611	-2732.54
0.4092,0.5908	-2732.85
0.4206,0.5794	-2731.59
0.3910,0.6090	-2729.39
0.4283,0.5717	-2733.21
0.3944,0.6056	-2733.33
0.4655,0.5345	-2733.50
0.4405,0.5595	-2733.53
0.4291,0.5709	-2734.07
0.4173,0.5827	-2731.52
0.4167,0.5833	-2734.88
0.4728,0.5272	-2734.00
0.4757,0.5243	-2734.04
0.3787,0.6213	-2733.09
0.4422,0.5578	-2733.54
0.4814,0.5186	-2733.98
0.4544,0.5456	-2732.91
0.4510,0.5490	-2733.61
0.4735,0.5265	-2734.33
0.4642,0.5358	-2734.19
0.4309,0.5691	-2733.22
0.4965,0.5035	-2734.47
0.4553,0.5447	-2733.83
0.4669,0.5331	-2734.46
0.4910,0.5090	-2734.30
0.3927,0.6073	-2730.74
0.4707,0.5293	-2733.74
0.5048,0.4952	-2734.75
0.4349,0.5651	-2733.25
0.4515,0.5485	-2734.97
0.4346,0.5654	-2730.62
0.4286,0.5714	-2734.36
0.5001,0.4999	-2734.49
0.4801,0.5199	-2733.71
0.4352,0.5648	-2731.95
0.4385,0.5615	-2732.53
0.4476,0.5524	-2733.58
0.3889,0.6111	-2732.50
0.4547,0.5453	-2733.64
0.4659,0.5341	-2733.51
0.4468,0.5532	-2733.14
0.4272,0.5728	-2731.74
0.4504,0.5496	-2733.40
0.4135,0.5865	-2731.80
0.4975,0.5025	-2734.41
0.4496,0.5504	-2733.39
0.4143,0.5857	-2730.43
0.4444,0.5556	-2732.21
0.4750,0.5250	-2733.33
0.3495,0.6505	-2733.19
0.4338,0.5662	-2733.24
0.4456,0.5544	-2732.03
0.3687,0.6313	-2730.59
0.4477,0.5523	-2732.74
0.5158,0.4842	-2734.62
0.3716,0.6284	-2733.22
0.3907,0.6093	-2731.60
0.4222,0.5778	-2733.20
0.3535,0.6465	-2734.28
0.4357,0.5643	-2733.51
0.5538,0.4462	-2735.91
0.4035,0.5965	-2735.59
0.3952,0.6048	-2732.05
0.4330,0.5670	-2733.51
0.3623,0.6377	-2732.30
0.4517,0.5483	-2733.23
0.5481,0.4519	-2734.75
0.4534,0.5466	-2733.82
0.4027,0.5973	-2734.44
0.4822,0.5178	-2734.57
0.4010,0.5990	-2732.87
0.4359,0.5641	-2731.97
0.5106,0.4894	-2734.87
0.4330,0.5670	-2732.43
0.3355,0.6645	-2728.21
0.4709,0.5291	-2733.75
0.4157,0.5843	-2731.15
0.3680,0.6320	-2733.83
0.4903,0.5097	-2734.36
0.4898,0.5102	-2734.40
0.3549,0.6451	-2729.45
0.4999,0.5001	-2734.49
0.4439,0.5561	-2733.55
0.4055,0.5945	-2733.23
0.4300,0.5700	-2731.25
0.4754,0.5246	-2733.45
0.3406,0.6594	-2725.56
0.4339,0.5661	-2732.98
0.4568,0.5432	-2733.32
0.3839,0.6161	-2731.12
0.4260,0.5740	-2732.01
0.4997,0.5003	-2734.48
0.3230,0.6770	-2732.02
0.4094,0.5906	-2732.48
0.4732,0.5268	-2733.58
0.2993,0.7007	-2733.12
0.4615,0.5385	-2733.88
0.4786,0.5214	-2734.34
0.4087,0.5913	-2733.59
0.4100,0.5900	-2736.85
0.4733,0.5267	-2734.01
0.3996,0.6004	-2734.50
0.4927,0.5073	-2734.39
0.5126,0.4874	-2734.74
0.4520,0.5480	-2733.42
0.3983,0.6017	-2734.53
0.4475,0.5525	-2733.16
0.3944,0.6056	-2730.76
0.4980,0.5020	-2734.49
0.4939,0.5061	-2734.48
0.4592,0.5408	-2733.86
0.3415,0.6585	-2728.20
0.4472,0.5528	-2734.64
0.4132,0.5868	-2731.80
0.4395,0.5605	-2733.77
0.4280,0.5720	-2733.50
0.4247,0.5753	-2734.41
0.3714,0.6286	-2733.22
0.4766,0.5234	-2733.78
0.4208,0.5792	-2733.83
0.4376,0.5624	-2734.02
0.3760,0.6240	-2730.09
0.4215,0.5785	-2732.24
0.3428,0.6572	-2733.40
0.3953,0.6047	-2732.90
0.4822,0.5178	-2734.00
0.4038,0.5962	-2733.64
0.3451,0.6549	-2728.20
0.4099,0.5901	-2732.85
0.3856,0.6144	-2730.66
0.3928,0.6072	-2732.92
0.5186,0.4814	-2734.58
0.3984,0.6016	-2730.82
0.3634,0.6366	-2734.52
0.3668,0.6332	-2732.77
0.3974,0.6026	-2730.80
0.3728,0.6272	-2732.67
0.5365,0.4635	-2734.77
0.3937,0.6063	-2729.46
0.3597,0.6403	-2731.19
0.3962,0.6038	-2730.79
0.4522,0.5478	-2733.81
0.3582,0.6418	-2731.21
0.5847,0.4153	-2736.77
0.3955,0.6045	-2731.20
0.4207,0.5793	-2732.55
0.3823,0.6177	-2731.60
0.4087,0.5913	-2732.48
0.3198,0.6802	-2732.14
0.6403,0.3597	-2735.33
0.3700,0.6300	-2730.59
0.3844,0.6156	-2728.77
0.3767,0.6233	-2733.12
0.4230,0.5770	-2732.89
0.3350,0.6650	-2728.21
0.6626,0.3374	-2736.61
0.3844,0.6156	-2732.54
0.3819,0.6181	-2731.60
0.3545,0.6455	-2737.25
0.4003,0.5997	-2732.47
0.3611,0.6389	-2734.03
0.6597,0.3403	-2737.18
0.4354,0.5646	-2734.03
0.4442,0.5558	-2734.00
0.3187,0.6813	-2730.66
0.3456,0.6544	-2729.48
0.4120,0.5880	-2732.14
0.6073,0.3927	-2734.23
0.4609,0.5391	-2733.25
0.4241,0.5759	-2734.12
0.3134,0.6866	-2727.70
0.3085,0.6915	-2730.21
0.4834,0.5166	-2734.30
0.5926,0.4074	-2734.46
0.4789,0.5211	-2733.67
0.4108,0.5892	-2732.13
0.3072,0.6928	-2735.14
0.3315,0.6685	-2729.63
0.4919,0.5081	-2734.41
0.6019,0.3981	-2735.00
0.5239,0.4761	-2735.30
0.4058,0.5942	-2732.09
0.3062,0.6938	-2731.11
0.3525,0.6475	-2730.06
0.4801,0.5199	-2734.59
0.5950,0.4050	-2735.26
0.5009,0.4991	-2734.50
0.3946,0.6054	-2734.19
0.2984,0.7016	-2730.61
0.3221,0.6779	-2736.51
0.5198,0.4802	-2734.83
0.6108,0.3892	-2735.18
0.4735,0.5265	-2733.91
0.4338,0.5662	-2732.18
0.3659,0.6341	-2733.89
0.3482,0.6518	-2731.98
0.5371,0.4629	-2736.27
0.5731,0.4269	-2736.33
0.4888,0.5112	-2734.26
0.4791,0.5209	-2734.01
0.4119,0.5881	-2732.85
0.3696,0.6304	-2732.19
0.4562,0.5438	-2733.66
0.5515,0.4485	-2735.63
0.4972,0.5028	-2734.39
0.5129,0.4871	-2734.75
0.3936,0.6064	-2734.21
0.3742,0.6258	-2734.19
0.4389,0.5611	-2731.56
0.6205,0.3795	-2736.38
0.4883,0.5117	-2734.06
0.5068,0.4932	-2734.56
0.4960,0.5040	-2734.45
0.3633,0.6367	-2728.91
0.4108,0.5892	-2731.77
0.6062,0.3938	-2736.81
0.4797,0.5203	-2734.35
0.3964,0.6036	-2732.05
0.4923,0.5077	-2734.33
0.3734,0.6266	-2731.11
0.4376,0.5624	-2731.26
0.5635,0.4365	-2736.00
0.4250,0.5750	-2734.11
0.3671,0.6329	-2732.22
0.4524,0.5476	-2733.81
0.3552,0.6448	-2733.03
0.3837,0.6163	-2731.12
0.5085,0.4915	-2734.62
0.4173,0.5827	-2733.86
0.4037,0.5963	-2732.47
0.5062,0.4938	-2734.53
0.3677,0.6323	-2733.84
0.3976,0.6024	-2734.13
0.4987,0.5013	-2734.45
0.4192,0.5808	-2733.19
0.3699,0.6301	-2734.32
0.4856,0.5144	-2734.20
0.3860,0.6140	-2732.52
0.3979,0.6021	-2731.64
0.4995,0.5005	-2734.48
0.4024,0.5976	-2731.28
0.3417,0.6583	-2732.79
0.5534,0.4466	-2735.47
0.3751,0.6249	-2731.11
0.4282,0.5718	-2732.35
0.4654,0.5346	-2734.06
0.4567,0.5433	-2732.62
0.3802,0.6198	-2737.46
0.5190,0.4810	-2734.36
0.3340,0.6660	-2730.29
0.4361,0.5639	-2733.00
0.4828,0.5172	-2734.22
0.4420,0.5580	-2733.07
0.3627,0.6373	-2731.16
0.4815,0.5185	-2734.06
0.4052,0.5948	-2730.55
0.3554,0.6446	-2731.84
0.4626,0.5374	-2733.29
0.4276,0.5724	-2732.92
0.4093,0.5907	-2731.38
0.4426,0.5574	-2732.85
0.4046,0.5954	-2732.47
0.3561,0.6439	-2734.19
0.4814,0.5186	-2734.05
0.4702,0.5298	-2733.85
0.3939,0.6061	-2730.75
0.4707,0.5293	-2733.63
0.4007,0.5993	-2731.26
0.3149,0.6851	-2730.78
0.4277,0.5723	-2733.50
0.4509,0.5491	-2734.00
0.3795,0.6205	-2733.57
0.5008,0.4992	-2734.51
0.3978,0.6022	-2732.47
0.3084,0.6916	-2730.21
0.3942,0.6058	-2733.77
0.4259,0.5741	-2732.61
0.3627,0.6373	-2731.73
0.5342,0.4658	-2734.61
0.3488,0.6512	-2731.34
0.3137,0.6863	-2733.96
0.3880,0.6120	-2732.51
0.3371,0.6629	-2733.61
0.4133,0.5867	-2732.50
0.5212,0.4788	-2734.43
0.3021,0.6979	-2730.45
0.3604,0.6396	-2732.33
0.4177,0.5823	-2734.19
0.3456,0.6544	-2728.84
0.4506,0.5494	-2734.20
0.5361,0.4639	-2734.48
0.3420,0.6580	-2733.43
0.3869,0.6131	-2731.60
0.4301,0.5699	-2731.53
0.3006,0.6994	-2733.05
0.4602,0.5398	-2733.55
0.5224,0.4776	-2734.79
0.3737,0.6263	-2730.59
0.3911,0.6089	-2733.82
0.4087,0.5913	-2733.22
0.3557,0.6443	-2732.42
0.4707,0.5293	-2733.86
0.4735,0.5265	-2734.44
0.3765,0.6235	-2731.11
0.3672,0.6328	-2735.49
0.4255,0.5745	-2732.60
0.3945,0.6055	-2735.90
0.4020,0.5980	-2729.29
0.4467,0.5533	-2733.14
0.3549,0.6451	-2730.05
0.4128,0.5872	-2733.20
0.4156,0.5844	-2734.22
0.3985,0.6015	-2732.88
0.3910,0.6090	-2733.38
0.3736,0.6264	-2731.11
0.3517,0.6483	-2730.07
0.4083,0.5917	-2732.48
0.4440,0.5560	-2732.65
0.3675,0.6325	-2729.50
0.3745,0.6255	-2731.11
0.3611,0.6389	-2728.90
0.3567,0.6433	-2731.81
0.4046,0.5954	-2732.85
0.4197,0.5803	-2733.19
0.4231,0.5769	-2732.89
0.3529,0.6471	-2728.85
0.4250,0.5750	-2731.99
0.3593,0.6407	-2730.62
0.4319,0.5681	-2733.23
0.4684,0.5316	-2732.81
0.3837,0.6163	-2731.12
0.3587,0.6413	-2733.52
0.4515,0.5485	-2734.00
0.3851,0.6149	-2732.53
0.4270,0.5730	-2733.21
0.4668,0.5332	-2733.40
0.3843,0.6157	-2731.59
0.3759,0.6241	-2732.63
0.3990,0.6010	-2732.06
0.3304,0.6696	-2732.48
0.4410,0.5590	-2733.77
0.4686,0.5314	-2733.45
0.3821,0.6179	-2731.60
0.4154,0.5846	-2733.54
0.4111,0.5889	-2734.64
0.3396,0.6604	-2732.86
0.4076,0.5924	-2730.61
0.4314,0.5686	-2733.23
0.3800,0.6200	-2736.01
0.4251,0.5749	-2732.90
0.4165,0.5835	-2734.54
0.3416,0.6584	-2728.85
0.3886,0.6114	-2731.60
0.4447,0.5553	-2733.11
0.4174,0.5826	-2732.53
0.4333,0.5667	-2734.04
0.4206,0.5794	-2734.48
0.3623,0.6377	-2732.86
0.3478,0.6522	-2728.84
0.4902,0.5098	-2734.09
0.4363,0.5637	-2733.51
0.4760,0.5240	-2733.86
0.3938,0.6062	-2734.20
0.3335,0.6665	-2729.60
0.3090,0.6910	-2733.41
0.4138,0.5862	-2732.50
0.4648,0.5352	-2734.61
0.5284,0.4716	-2735.58
0.4279,0.5721	-2733.79
0.3256,0.6744	-2731.93
0.3404,0.6596	-2725.55
0.4357,0.5643	-2731.96
0.4340,0.5660	-2732.98
0.4739,0.5261	-2734.02
0.4731,0.5269	-2734.44
0.3338,0.6662	-2731.67
0.3909,0.6091	-2731.60
0.4242,0.5758	-2733.20
0.4136,0.5864	-2734.60
0.4918,0.5082	-2734.54
0.4468,0.5532	-2734.43
0.3518,0.6482	-2731.29
0.4149,0.5851	-2735.95
0.4326,0.5674	-2732.69
0.4339,0.5661	-2732.44
0.4995,0.5005	-2734.48
0.3939,0.6061	-2732.91
0.3235,0.6765	-2728.31
0.3509,0.6491	-2730.07
0.4312,0.5688	-2732.95
0.3891,0.6109	-2731.60
0.4925,0.5075	-2734.39
0.4067,0.5933	-2731.34
0.4069,0.5931	-2732.85
0.3571,0.6429	-2734.75
0.3980,0.6020	-2732.05
0.4869,0.5131	-2734.22
0.4523,0.5477	-2733.43
0.4155,0.5845	-2733.20
0.3886,0.6114	-2732.50
0.4218,0.5782	-2732.56
0.4261,0.5739	-2730.82
0.4192,0.5808	-2733.52
0.4558,0.5442	-2733.30
0.4408,0.5592	-2732.58
0.4188,0.5812	-2731.88
0.3782,0.6218	-2729.62
0.4153,0.5847	-2732.51
0.4389,0.5611	-2732.30
0.4029,0.5971	-2732.86
0.4278,0.5722	-2734.37
0.3966,0.6034	-2732.05
0.3095,0.6905	-2724.56
0.3682,0.6318	-2730.05
0.3728,0.6272	-2730.59
0.3817,0.6183	-2732.08
0.4552,0.5448	-2731.67
0.4033,0.5967	-2731.29
0.3086,0.6914	-2731.82
0.3826,0.6174	-2729.20
0.4188,0.5812	-2733.19
0.4365,0.5635	-2734.03
0.3990,0.6010	-2731.65
0.4613,0.5387	-2733.72
0.3548,0.6452	-2732.44
0.3883,0.6117	-2730.69
0.3752,0.6248	-2733.15
0.4421,0.5579	-2733.31
0.3636,0.6364	-2730.60
0.4882,0.5118	-2734.34
0.3238,0.6762	-2731.99
0.4131,0.5869	-2734.61
0.4097,0.5903	-2731.75
0.4186,0.5814	-2733.19
0.4005,0.5995	-2733.68
0.4757,0.5243	-2733.17
0.3384,0.6616	-2730.21
0.4437,0.5563	-2733.32
0.4299,0.5701	-2734.07
0.4256,0.5744	-2732.00
0.4073,0.5927	-2732.47
0.4166,0.5834	-2732.18
0.2973,0.7027	-2734.96
0.3767,0.6233	-2731.61
0.4600,0.5400	-2733.38
0.4210,0.5790	-2731.60
0.4414,0.5586	-2734.48
0.4595,0.5405	-2733.37
0.2949,0.7051	-2726.41
0.3761,0.6239	-2731.61
0.4486,0.5514	-2734.21
0.3894,0.6106	-2730.25
0.4294,0.5706	-2733.22
0.4241,0.5759	-2731.97
0.3416,0.6584	-2732.13
0.3635,0.6365	-2733.96
0.4043,0.5957	-2735.57
0.3485,0.6515	-2731.97
0.3826,0.6174	-2729.68
0.4271,0.5729	-2732.03
0.4043,0.5957	-2734.02
0.3959,0.6041	-2733.32
0.3607,0.6393	-2730.61
0.3839,0.6161	-2730.18
0.3981,0.6019	-2733.29
0.3905,0.6095	-2732.94
0.3893,0.6107	-2733.85
0.3935,0.6065	-2731.61
0.3339,0.6661	-2730.98
0.4262,0.5738	-2735.58
0.4485,0.5515	-2733.79
0.4405,0.5595	-2733.77
0.4468,0.5532	-2732.93
0.3519,0.6481	-2730.07
0.3581,0.6419	-2730.62
0.4245,0.5755	-2732.29
0.4286,0.5714	-2731.78
0.4608,0.5392	-2733.40
0.4150,0.5850	-2733.20
0.3463,0.6537	-2728.84
0.3623,0.6377	-2733.43
0.4212,0.5788	-2732.88
0.4216,0.5784	-2732.56
0.4269,0.5731	-2731.74
0.4343,0.5657	-2733.77
0.3540,0.6460	-2726.45
0.3651,0.6349	-2733.36
0.4388,0.5612	-2733.28
0.3797,0.6203	-2733.56
0.4468,0.5532	-2732.72
0.3981,0.6019	-2733.71
0.4026,0.5974	-2734.44
0.3698,0.6302	-2731.12
0.4565,0.5435	-2733.84
0.3678,0.6322	-2734.92
0.4737,0.5263	-2733.28
0.3830,0.6170	-2735.41
0.4020,0.5980	-2734.85
0.3786,0.6214	-2731.60
0.5083,0.4917	-2734.58
0.3858,0.6142	-2732.52
0.4690,0.5310	-2733.71
0.3082,0.6918	-2735.88
0.4102,0.5898	-2734.30
0.4251,0.5749	-2732.60
0.5146,0.4854	-2734.84
0.3707,0.6293	-2731.12
0.4594,0.5406	-2733.21
0.3621,0.6379	-2734.57
0.5015,0.4985	-2734.48
0.3755,0.6245	-2729.58
0.4741,0.5259	-2734.54
0.3625,0.6375	-2732.86
0.5432,0.4568	-2735.73
0.3309,0.6691	-2730.35
0.4695,0.5305	-2733.47
0.3742,0.6258	-2735.22
0.4987,0.5013	-2734.45
0.3165,0.6835	-2729.96
0.5505,0.4495	-2734.99
0.3506,0.6494	-2731.92
0.4832,0.5168	-2734.23
0.3667,0.6333	-2733.87
0.5319,0.4681	-2735.35
0.2824,0.7176	-2733.32
0.5564,0.4436	-2735.55
0.3560,0.6440	-2734.79
0.4719,0.5281	-2733.65
0.4098,0.5902	-2731.02
0.5286,0.4714	-2735.14
0.2959,0.7041	-2730.73
0.5258,0.4742	-2734.85
0.3771,0.6229	-2732.11
0.4738,0.5262	-2733.81
0.3520,0.6480	-2729.46
0.5273,0.4727	-2734.99
0.2828,0.7172	-2727.71
0.5345,0.4655	-2734.75
0.3710,0.6290	-2732.17
0.4828,0.5172	-2733.74
0.3670,0.6330	-2731.68
0.4961,0.5039	-2734.32
0.2842,0.7158	-2734.11
0.5496,0.4504	-2733.98
0.3780,0.6220	-2732.10
0.4820,0.5180	-2734.14
0.3794,0.6206	-2733.08
0.4739,0.5261	-2734.12
0.2945,0.7055	-2734.28
0.5076,0.4924	-2734.60
0.3661,0.6339	-2731.69
0.4688,0.5312	-2733.70
0.3983,0.6017	-2734.53
0.4369,0.5631	-2733.26
0.2942,0.7058	-2731.68
0.4591,0.5409	-2733.53
0.4030,0.5970	-2732.86
0.4298,0.5702	-2734.07
0.4441,0.5559	-2731.98
0.4592,0.5408	-2733.86
0.3399,0.6601	-2735.50
0.4835,0.5165	-2734.03
0.4019,0.5981	-2733.26
0.4043,0.5957	-2733.24
0.3713,0.6287	-2732.17
0.4668,0.5332	-2733.27
0.3666,0.6334	-2735.51
0.4776,0.5224	-2733.71
0.4114,0.5886	-2733.92
0.4011,0.5989	-2730.46
0.3889,0.6111	-2727.53
0.4806,0.5194	-2734.04
0.4289,0.5711	-2732.93
0.4774,0.5226	-2733.98
0.4101,0.5899	-2731.76
0.4077,0.5923	-2731.73
0.4162,0.5838	-2732.86
0.4737,0.5263	-2734.33
0.3746,0.6254	-2732.65
0.4294,0.5706	-2732.36
0.4285,0.5715	-2732.64
0.3976,0.6024	-2731.22
0.4238,0.5762	-2731.05
0.4309,0.5691	-2733.50
0.3264,0.6736	-2731.17
0.4113,0.5887	-2730.70
0.4446,0.5554	-2732.00
0.3447,0.6553	-2732.70
0.4495,0.5505	-2734.61
0.4359,0.5641	-2733.26
0.3741,0.6259	-2729.05
0.4019,0.5981	-2731.27
0.4026,0.5974	-2732.07
0.3296,0.6704	-2729.67
0.4758,0.5242	-2734.34
0.4586,0.5414	-2733.19
0.3649,0.6351	-2729.48
0.4209,0.5791	-2734.79
0.3399,0.6601	-2735.50
0.2767,0.7233	-2732.79
0.4915,0.5085	-2734.31
0.4206,0.5794	-2732.87
0.3412,0.6588	-2730.83
0.4778,0.5222	-2734.61
0.3372,0.6628	-2727.53
0.3277,0.6723	-2729.70
0.4238,0.5762	-2733.51
0.3989,0.6011	-2731.65
0.3713,0.6287	-2732.17
0.4619,0.5381	-2734.03
0.3154,0.6846	-2732.32
0.3607,0.6393	-2730.61
0.3845,0.6155	-2733.48
0.4984,0.5016	-2734.45
0.3814,0.6186	-2730.15
0.4833,0.5167	-2733.76
0.3052,0.6948	-2731.98
0.3530,0.6470	-2732.48
0.3537,0.6463	-2729.45
0.4834,0.5166	-2734.16
0.2910,0.7090	-2730.97
0.4405,0.5595	-2733.29
0.3269,0.6731	-2731.16
0.3702,0.6298	-2736.43
0.3390,0.6610	-2732.21
0.5253,0.4747	-2735.05
0.2923,0.7077	-2731.78
0.4123,0.5877	-2735.33
0.3629,0.6371	-2731.72
0.3845,0.6155	-2732.06
0.3046,0.6954	-2732.83
0.5041,0.4959	-2734.55
0.3296,0.6704	-2730.38
0.5557,0.4443	-2736.42
0.3431,0.6569	-2731.45
0.4200,0.5800	-2733.84
0.2909,0.7091	-2735.43
0.4877,0.5123	-2734.34
0.3453,0.6547	-2728.84
0.5757,0.4243	-2735.21
0.3522,0.6478	-2730.67
0.4417,0.5583	-2732.84
0.3283,0.6717	-2731.12
0.5210,0.4790	-2735.28
0.3332,0.6668	-2733.08
0.5557,0.4443	-2735.31
0.3727,0.6273	-2736.32
0.4247,0.5753	-2733.81
0.3629,0.6371	-2730.60
0.4535,0.5465	-2733.07
0.3425,0.6575	-2732.76
0.5460,0.4540	-2734.91
0.3487,0.6513	-2728.84
0.4234,0.5766	-2733.82
0.3922,0.6078	-2729.86
0.4738,0.5262	-2734.12
0.3255,0.6745	-2730.47
0.5594,0.4406	-2734.44
0.4090,0.5910	-2731.38
0.4652,0.5348	-2733.63
0.4199,0.5801	-2732.87
0.4736,0.5264	-2733.70
0.3292,0.6708	-2734.65
0.5684,0.4316	-2734.24
0.4270,0.5730	-2733.21
0.4555,0.5445	-2733.12
0.3737,0.6263	-2731.63
0.4797,0.5203	-2734.10
0.3395,0.6605	-2732.86
0.5687,0.4313	-2735.07
0.4589,0.5411	-2733.86
0.4368,0.5632	-2734.79
0.4154,0.5846	-2733.20
0.3850,0.6150	-2730.19
0.3368,0.6632	-2730.24
0.5566,0.4434	-2735.33
0.4162,0.5838	-2734.21
0.4834,0.5166	-2733.83
0.4095,0.5905	-2732.12
0.3701,0.6299	-2732.71
0.3694,0.6306	-2731.66
0.5744,0.4256	-2737.28
0.3612,0.6388	-2729.47
0.4998,0.5002	-2734.48
0.3765,0.6235	-2734.64
0.3921,0.6079	-2733.36
0.4041,0.5959	-2730.53
0.5254,0.4746	-2734.64
0.3767,0.6233	-2732.62
0.5197,0.4803	-2735.06
0.3779,0.6221	-2732.60
0.4340,0.5660	-2732.18
0.4524,0.5476	-2734.00
0.4980,0.5020	-2734.45
0.3456,0.6544	-2733.31
0.4687,0.5313	-2733.83
0.3953,0.6047	-2732.05
0.4351,0.5649	-2732.47
0.4153,0.5847	-2734.91
0.4896,0.5104	-2734.48
0.3519,0.6481	-2732.51
0.4228,0.5772	-2733.82
0.4173,0.5827	-2733.53
0.4436,0.5564	-2732.87
0.3384,0.6616	-2732.89
0.4911,0.5089	-2734.16
0.3865,0.6135	-2731.59
0.4365,0.5635	-2734.54
0.3560,0.6440	-2731.23
0.5373,0.4627	-2734.19
0.3416,0.6584	-2729.51
0.4805,0.5195	-2733.80
0.3656,0.6344	-2733.35
0.3828,0.6172	-2730.16
0.3718,0.6282	-2729.54
0.5057,0.4943	-2734.66
0.3555,0.6445	-2727.67
0.4811,0.5189	-2734.20
0.3966,0.6034	-2732.47
0.4064,0.5936	-2732.47
0.4092,0.5908	-2732.48
0.4326,0.5674	-2732.15
0.3414,0.6586	-2734.77
0.4471,0.5529	-2733.57
0.4451,0.5549	-2734.66
0.4270,0.5730	-2733.80
0.4194,0.5806	-2733.52
0.4834,0.5166	-2734.29
0.3931,0.6069	-2731.18
0.5000,0.5000	-2734.49
0.4399,0.5601	-2731.84
0.4497,0.5503	-2733.80
0.3566,0.6434	-2731.22
0.4570,0.5430	-2734.53
0.3546,0.6454	-2730.65
0.5521,0.4479	-2734.60
0.4346,0.5654	-2732.46
0.4605,0.5395	-2733.24
0.4138,0.5862	-2730.41
0.4595,0.5405	-2733.21
0.3568,0.6432	-2734.17
0.5702,0.4298	-2734.82
0.4465,0.5535	-2732.71
0.4878,0.5122	-2734.39
0.4155,0.5845	-2731.83
0.4894,0.5106	-2734.40
0.3630,0.6370	-2732.29
0.5943,0.4057	-2737.92
0.4171,0.5829	-2731.19
0.4476,0.5524	-2732.95
0.3561,0.6439	-2733.60
0.4524,0.5476	-2734.00
0.4174,0.5826	-2732.86
0.5936,0.4064	-2735.99
0.4073,0.5927	-2733.97
0.4128,0.5872	-2732.14
0.3840,0.6160	-2732.07
0.4425,0.5575	-2732.85
0.4470,0.5530	-2733.79
0.5732,0.4268	-2736.34
0.4182,0.5818	-2732.86
0.4270,0.5730	-2733.50
0.3784,0.6216	-2732.60
0.3986,0.6014	-2733.29
0.4181,0.5819	-2733.19
0.5808,0.4192	-2736.94
0.3947,0.6053	-2732.48
0.3993,0.6007	-2734.51
0.3867,0.6133	-2731.59
0.3888,0.6112	-2732.96
0.4289,0.5711	-2732.07
0.5784,0.4216	-2735.58
0.3642,0.6358	-2731.15
0.3886,0.6114	-2732.50
0.3946,0.6054	-2735.90
0.3592,0.6408	-2733.51
0.4689,0.5311	-2734.58
0.5883,0.4117	-2736.91
0.3077,0.6923	-2729.43
0.3956,0.6044	-2730.35
0.4335,0.5665	-2734.04
0.3849,0.6151	-2729.72
0.4393,0.5607	-2735.48
0.5674,0.4326	-2734.51
0.3492,0.6508	-2730.71
0.3829,0.6171	-2732.55
0.3899,0.6101	-2733.84
0.3732,0.6268	-2728.00
0.4001,0.5999	-2731.25
0.5673,0.4327	-2736.13
0.3682,0.6318	-2730.59
0.4323,0.5677	-2733.23
0.3762,0.6238	-2730.60
0.3752,0.6248	-2733.15
0.4679,0.5321	-2734.07
0.5630,0.4370	-2737.00
0.3619,0.6381	-2733.44
0.4291,0.5709	-2732.07
0.3441,0.6559	-2730.78
0.3553,0.6447	-2731.24
0.4616,0.5384	-2734.34
0.5202,0.4798	-2735.40
0.3487,0.6513	-2728.84
0.4427,0.5573	-2734.23
0.3665,0.6335	-2732.23
0.3486,0.6514	-2735.72
0.4789,0.5211	-2734.77
0.4716,0.5284	-2733.53
0.3909,0.6091	-2732.05
0.4707,0.5293	-2734.45
0.3503,0.6497	-2733.78
0.3266,0.6734	-2728.27
0.4751,0.5249	-2733.73
0.4690,0.5310	-2733.21
0.4174,0.5826	-2732.19
0.4655,0.5345	-2733.92
0.3451,0.6549	-2732.05
0.3176,0.6824	-2729.17
0.3882,0.6118	-2732.05
0.4655,0.5345	-2734.19
0.4128,0.5872	-2736.02
0.4594,0.5406	-2734.02
0.3554,0.6446	-2731.83
0.3848,0.6152	-2732.06
0.4323,0.5677	-2730.51
0.4279,0.5721	-2732.05
0.4014,0.5986	-2731.67
0.4217,0.5783	-2732.25
0.3419,0.6581	-2727.54
0.3903,0.6097	-2730.26
0.3653,0.6347	-2730.04
0.4288,0.5712	-2734.65
0.4058,0.5942	-2730.56
0.4059,0.5941	-2735.90
0.3322,0.6678	-2730.32
0.3702,0.6298	-2733.78
0.4368,0.5632	-2731.74
0.4377,0.5623	-2732.27
0.3718,0.6282	-2734.26
0.4167,0.5833	-2734.20
0.3426,0.6574	-2733.41
0.3875,0.6125	-2731.14
0.4755,0.5245	-2734.63
0.4047,0.5953	-2733.63
0.3902,0.6098	-2729.82
0.4089,0.5911	-2732.85
0.3681,0.6319	-2734.91
0.4478,0.5522	-2735.05
0.4362,0.5638	-2733.00
0.3950,0.6050	-2731.62
0.4008,0.5992	-2733.67
0.4039,0.5961	-2731.69
0.3816,0.6184	-2731.11
0.4423,0.5577	-2732.85
0.4085,0.5915	-2733.22
0.3812,0.6188	-2731.60
0.4027,0.5973	-2730.49
0.3870,0.6130	-2733.90
0.4031,0.5969	-2730.50
0.4869,0.5131	-2734.27
0.3536,0.6464	-2731.87
0.3700,0.6300	-2732.72
0.4258,0.5742	-2732.01
0.3791,0.6209	-2731.60
0.3274,0.6726	-2730.42
0.4774,0.5226	-2734.16
0.3725,0.6275	-2732.16
0.3655,0.6345	-2731.70
0.4369,0.5631	-2734.53
0.4115,0.5885	-2731.42
0.3561,0.6439	-2731.23
0.4731,0.5269	-2733.90
0.3931,0.6069	-2732.05
0.4261,0.5739	-2731.42
0.5137,0.4863	-2734.82
0.4006,0.5994	-2732.06
0.3670,0.6330	-2733.31
0.4823,0.5177	-2733.65
0.3885,0.6115	-2730.24
0.4159,0.5841	-2732.18
0.5446,0.4554	-2736.14
0.4266,0.5734	-2732.61
0.3462,0.6538	-2735.20
0.4808,0.5192	-2734.20
0.3705,0.6295	-2732.71
0.3928,0.6072	-2732.92
0.5144,0.4856	-2734.84
0.4599,0.5401	-2734.19
0.3726,0.6274	-2732.15
0.4720,0.5280	-2733.55
0.3143,0.6857	-2730.80
0.3995,0.6005	-2732.87
0.5280,0.4720	-2735.23
0.4275,0.5725	-2732.33
0.3773,0.6227	-2731.61
0.4836,0.5164	-2734.43
0.3676,0.6324	-2733.30
0.3958,0.6042	-2734.16
0.5662,0.4338	-2736.09
0.4170,0.5830	-2734.53
0.4093,0.5907	-2732.48
0.4180,0.5820	-2732.53
0.4028,0.5972	-2730.89
0.3764,0.6236	-2730.60
0.5538,0.4462	-2735.26
0.3980,0.6020	-2733.71
0.4040,0.5960	-2731.69
0.4021,0.5979	-2732.07
0.3904,0.6096	-2731.60
0.3351,0.6649	-2729.58
0.5600,0.4400	-2735.65
0.3888,0.6112	-2731.15
0.4347,0.5653	-2733.51
0.4033,0.5967	-2733.64
0.3532,0.6468	-2730.66
0.3398,0.6602	-2730.86
0.5646,0.4354	-2734.48
0.3800,0.6200	-2731.60
0.4556,0.5444	-2734.01
0.3859,0.6141	-2733.92
0.3443,0.6557	-2728.84
0.3729,0.6271	-2734.23
0.5415,0.4585	-2735.34
0.3417,0.6583	-2732.13
0.4900,0.5100	-2734.20
0.4199,0.5801	-2734.16
0.3823,0.6177	-2730.16
0.4049,0.5951	-2733.62
0.4976,0.5024	-2734.45
0.3508,0.6492	-2733.15
0.4838,0.5162	-2734.17
0.4875,0.5125	-2734.23
0.4033,0.5967	-2731.29
0.4195,0.5805	-2733.52
0.4338,0.5662	-2734.04
0.3661,0.6339	-2732.79
0.5002,0.4998	-2734.49
0.5124,0.4876	-2734.64
0.3945,0.6055	-2733.76
0.4543,0.5457	-2733.82
0.4243,0.5757	-2731.67
0.3719,0.6281	-2731.64
0.5507,0.4493	-2734.58
0.5203,0.4797	-2734.68
0.4275,0.5725	-2732.63
0.3661,0.6339	-2730.59
0.3769,0.6231	-2727.09
0.3962,0.6038	-2732.05
0.5189,0.4811	-2735.12
0.5426,0.4574	-2736.23
0.4291,0.5709	-2732.07
0.3553,0.6447	-2728.86
0.4141,0.5859	-2733.55
0.3301,0.6699	-2729.66
0.4972,0.5028	-2734.41
0.5451,0.4549	-2734.90
0.4268,0.5732	-2732.03
0.3962,0.6038	-2732.89
0.4006,0.5994	-2732.06
0.3038,0.6962	-2732.05
0.5240,0.4760	-2734.82
0.5397,0.4603	-2734.66
0.4193,0.5807	-2733.19
0.4243,0.5757	-2732.28
0.3963,0.6037	-2733.73
0.3929,0.6071	-2734.66
0.5007,0.4993	-2734.50
0.5099,0.4901	-2734.33
0.4151,0.5849	-2733.54
0.4347,0.5653	-2734.30
0.3912,0.6088	-2732.93
0.4042,0.5958	-2730.53
0.4816,0.5184	-2734.21
0.4756,0.5244	-2733.85
0.4044,0.5956	-2730.53
0.4404,0.5596	-2734.01
0.4243,0.5757	-2732.89
0.4029,0.5971	-2732.47
0.5321,0.4679	-2734.59
0.4945,0.5055	-2734.33
0.4058,0.5942	-2732.09
0.3903,0.6097	-2734.28
0.4559,0.5441	-2733.30
0.3861,0.6139	-2731.13
0.4896,0.5104	-2734.36
0.4784,0.5216	-2734.26
0.4241,0.5759	-2732.28
0.3941,0.6059	-2733.34
0.4223,0.5777	-2734.76
0.4064,0.5936	-2730.96
0.4691,0.5309	-2734.33
0.4549,0.5451	-2733.10
0.4078,0.5922	-2732.48
0.4018,0.5982	-2733.26
0.4328,0.5672	-2733.78
0.4059,0.5941	-2732.47
0.4692,0.5308	-2734.45
0.4050,0.5950	-2735.55
0.4035,0.5965	-2732.08
0.3659,0.6341	-2733.34
0.3733,0.6267	-2731.11
0.3686,0.6314	-2730.05
0.4866,0.5134	-2734.33
0.4530,0.5470	-2734.00
0.3586,0.6414	-2732.95
0.4192,0.5808	-2731.24
0.4283,0.5717	-2733.50
0.3785,0.6215	-2731.60
0.4704,0.5296	-2733.62
0.4429,0.5571	-2733.09
0.3759,0.6241	-2732.63
0.4028,0.5972	-2734.44
0.4086,0.5914	-2731.37
0.3808,0.6192	-2734.51
0.4719,0.5281	-2734.33
0.3767,0.6233	-2729.60
0.3699,0.6301	-2733.25
0.4021,0.5979	-2731.67
0.3463,0.6537	-2735.20
0.4148,0.5852	-2732.51
0.4889,0.5111	-2734.53
0.4461,0.5539	-2732.92
0.3891,0.6109	-2732.50
0.4307,0.5693	-2731.27
0.3502,0.6498	-2730.70
0.4955,0.5045	-2734.37
0.5037,0.4963	-2734.63
0.4451,0.5549	-2733.12
0.3541,0.6459	-2733.06
0.3900,0.6100	-2733.84
0.3658,0.6342	-2728.94
0.4478,0.5522	-2732.32
0.5500,0.4500	-2735.58
0.4851,0.5149	-2734.49
0.3682,0.6318	-2732.21
0.3848,0.6152	-2733.00
0.3642,0.6358	-2732.27
0.4582,0.5418	-2733.51
0.4578,0.5422	-2734.19
0.3959,0.6041	-2734.16
0.3429,0.6571	-2731.45
0.3811,0.6189	-2733.05
0.3681,0.6319	-2732.21
0.4846,0.5154	-2734.24
0.4623,0.5377	-2734.04
0.3801,0.6199	-2731.11
0.3455,0.6545	-2731.40
0.4416,0.5584	-2733.54
0.3685,0.6315	-2728.97
0.4661,0.5339	-2733.92
0.4383,0.5617	-2733.52
0.3559,0.6441	-2727.67
0.3689,0.6311	-2732.74
0.4685,0.5315	-2733.95
0.3490,0.6510	-2732.58
0.4974,0.5026	-2734.43
0.4298,0.5702	-2733.78
0.3655,0.6345	-2729.49
0.3844,0.6156	-2730.65
0.4318,0.5682	-2731.86
0.4121,0.5879	-2733.20
0.5131,0.4869	-2734.65
0.4256,0.5744	-2733.20
0.3526,0.6474	-2734.93
0.4046,0.5954	-2732.08
0.4276,0.5724	-2733.21
0.4141,0.5859	-2732.50
0.4579,0.5421	-2734.86
0.4060,0.5940	-2731.71
0.3798,0.6202	-2731.11
0.3774,0.6226	-2732.61
0.4017,0.5983	-2732.47
0.4146,0.5854	-2732.16
0.4259,0.5741	-2733.50
0.4055,0.5945	-2732.47
0.3553,0.6447	-2730.65
0.4113,0.5887	-2733.92
0.3808,0.6192	-2730.63
0.4138,0.5862	-2732.85
0.3738,0.6262	-2732.66
0.4742,0.5258	-2733.82
0.3971,0.6029	-2732.89
0.3871,0.6129	-2733.43
0.3732,0.6268	-2732.67
0.4041,0.5959	-2730.91
0.3389,0.6611	-2732.21
0.4913,0.5087	-2734.06
0.4569,0.5431	-2733.84
0.3811,0.6189	-2731.60
0.4194,0.5806	-2732.54
0.3993,0.6007	-2730.42
0.3576,0.6424	-2731.21
0.4188,0.5812	-2730.57
0.4373,0.5627	-2732.26
0.3659,0.6341	-2731.14
0.4250,0.5750	-2732.29
0.4158,0.5842	-2730.81
0.3800,0.6200	-2730.13
0.3680,0.6320	-2730.59
0.4592,0.5408	-2732.88
0.3574,0.6426	-2732.39
0.3867,0.6133	-2732.98
0.4179,0.5821	-2731.54
0.3733,0.6267	-2728.52
0.3878,0.6122	-2731.60
0.4561,0.5439	-2734.36
0.3514,0.6486	-2734.97
0.3614,0.6386	-2731.74
0.4586,0.5414	-2733.69
0.3675,0.6325	-2731.13
0.3798,0.6202	-2733.56
0.4488,0.5512	-2734.00
0.3458,0.6542	-2732.67
0.3940,0.6060	-2732.05
0.4929,0.5071	-2734.34
0.3986,0.6014	-2727.53
0.4691,0.5309	-2734.33
0.4644,0.5356	-2733.91
0.2813,0.7187	-2731.53
0.4139,0.5861	-2733.89
0.4972,0.5028	-2734.45
0.4161,0.5839	-2734.21
0.4052,0.5948	-2733.24
0.4406,0.5594	-2732.58
0.2997,0.7003	-2728.86
0.4107,0.5893	-2733.21
0.5097,0.4903	-2734.83
0.3777,0.6223	-2731.61
0.3841,0.6159	-2730.65
0.4453,0.5547	-2732.02
0.3222,0.6778	-2729.81
0.3810,0.6190	-2734.02
0.4661,0.5339	-2733.11
0.3663,0.6337	-2735.52
0.3637,0.6363	-2732.83
0.4897,0.5103	-2734.27
0.3441,0.6559	-2732.72
0.3430,0.6570	-2735.35
0.4418,0.5582	-2733.54
0.3638,0.6362	-2730.60
0.3692,0.6308	-2731.66
0.4883,0.5117	-2734.34
0.3881,0.6119	-2732.96
0.3659,0.6341	-2731.14
0.4241,0.5759	-2731.97
0.3526,0.6474	-2728.85
0.4221,0.5779	-2732.57
0.5172,0.4828	-2735.05
0.3748,0.6252	-2733.67
0.3959,0.6041	-2733.74
0.5036,0.4964	-2734.51
0.3502,0.6498	-2738.74
0.4153,0.5847	-2733.88
0.4755,0.5245	-2734.14
0.3862,0.6138	-2730.67
0.4302,0.5698	-2733.50
0.4918,0.5082	-2734.15
0.3397,0.6603	-2726.87
0.3686,0.6314	-2731.66
0.4698,0.5302	-2733.97
0.4194,0.5806	-2733.19
0.4284,0.5716	-2732.35
0.5134,0.4866	-2734.76
0.3375,0.6625	-2730.23
0.3689,0.6311	-2731.12
0.4369,0.5631	-2734.02
0.3750,0.6250	-2731.11
0.3921,0.6079	-2732.05
0.4746,0.5254	-2734.03
0.3192,0.6808	-2731.40
0.3373,0.6627	-2730.23
0.4828,0.5172	-2733.54
0.3772,0.6228	-2731.11
0.4236,0.5764	-2732.58
0.4563,0.5437	-2734.01
0.3044,0.6956	-2728.71
0.3436,0.6564	-2734.03
0.5656,0.4344	-2735.81
0.3967,0.6033	-2732.05
0.4374,0.5626	-2732.76
0.4022,0.5978	-2734.84
0.3056,0.6944	-2727.03
0.3581,0.6419	-2728.29
0.5275,0.4725	-2734.56
0.3873,0.6127	-2734.35
0.4370,0.5630	-2733.01
0.3964,0.6036	-2731.21
0.3532,0.6468	-2730.66
0.3401,0.6599	-2729.52
0.4623,0.5377	-2733.73
0.3831,0.6169	-2732.07
0.3487,0.6513	-2730.72
0.3745,0.6255	-2731.11
0.3889,0.6111	-2732.50
0.3510,0.6490	-2730.69
0.4502,0.5498	-2733.20
0.4360,0.5640	-2733.00
0.4420,0.5580	-2732.61
0.3758,0.6242	-2732.12
0.3982,0.6018	-2730.81
0.3883,0.6117	-2732.51
0.4532,0.5468	-2732.88
0.4135,0.5865	-2732.15
0.4604,0.5396	-2733.55
0.4233,0.5767	-2731.96
0.4223,0.5777	-2731.94
0.3779,0.6221	-2733.10
0.4787,0.5213	-2734.00
0.4387,0.5613	-2732.54
0.4718,0.5282	-2732.97
0.4142,0.5858	-2733.20
0.4625,0.5375	-2733.74
0.3593,0.6407	-2731.77
0.4535,0.5465	-2734.75
0.4752,0.5248	-2733.74
0.4338,0.5662	-2733.77
0.3713,0.6287	-2732.70
0.4265,0.5735	-2732.02
0.3681,0.6319	-2731.13
0.4763,0.5237	-2733.77
0.4115,0.5885	-2733.92
0.4458,0.5542	-2733.56
0.3839,0.6161	-2734.91
0.3303,0.6697	-2730.36
0.4213,0.5787	-2733.51
0.4205,0.5795	-2734.80
0.3988,0.6012	-2733.70
0.4340,0.5660	-2732.45
0.4087,0.5913	-2731.37
0.3002,0.6998	-2730.53
0.4818,0.5182	-2734.14
0.4645,0.5355	-2733.34
0.3935,0.6065	-2732.05
0.4476,0.5524	-2733.16
0.4066,0.5934	-2733.98
0.3113,0.6887	-2731.71
0.4576,0.5424	-2733.85
0.5074,0.4926	-2734.81
0.4138,0.5862	-2733.90
0.4044,0.5956	-2732.47
0.3719,0.6281	-2735.83
0.3600,0.6400	-2734.07
0.4325,0.5675	-2732.42
0.4698,0.5302	-2734.33
0.3995,0.6005	-2730.43
0.4247,0.5753	-2733.50
0.3949,0.6051	-2733.75
0.3718,0.6282	-2733.74
0.3863,0.6137	-2732.06
0.4617,0.5383	-2734.65
0.4060,0.5940	-2735.52
0.4048,0.5952	-2733.62
0.3647,0.6353	-2731.15
0.3673,0.6327	-2733.31
0.3998,0.6002	-2735.72
0.4145,0.5855	-2732.51
0.4143,0.5857	-2730.78
0.3779,0.6221	-2729.61
0.3916,0.6084	-2729.40
0.3802,0.6198	-2733.07
0.3950,0.6050	-2734.18
0.4818,0.5182	-2733.70
0.4622,0.5378	-2733.73
0.4016,0.5984	-2732.07
0.4425,0.5575	-2733.08
0.3709,0.6291	-2732.70
0.4151,0.5849	-2730.80
0.4734,0.5266	-2734.12
0.4644,0.5356	-2733.48
0.4415,0.5585	-2732.83
0.4678,0.5322	-2734.07
0.3267,0.6733	-2729.72
0.4352,0.5648	-2731.69
0.5048,0.4952	-2734.60
0.4777,0.5223	-2734.25
0.4309,0.5691	-2734.62
0.4825,0.5175	-2734.15
0.3676,0.6324	-2728.96
0.3643,0.6357	-2726.70
0.4186,0.5814	-2731.22
0.5082,0.4918	-2734.65
0.3876,0.6124	-2735.71
0.4704,0.5296	-2734.33
0.3357,0.6643	-2726.84
0.3683,0.6317	-2731.13
0.3827,0.6173	-2731.12
0.5150,0.4850	-2734.85
0.3618,0.6382	-2731.17
0.5029,0.4971	-2734.54
0.3296,0.6704	-2732.51
0.3458,0.6542	-2735.22
0.4063,0.5937	-2734.37
0.5136,0.4864	-2735.09
0.3917,0.6083	-2734.69
0.4520,0.5480	-2733.23
0.3492,0.6508	-2730.71
0.3375,0.6625	-2732.25
0.3840,0.6160	-2732.54
0.5495,0.4505	-2734.77
0.3753,0.6247	-2733.15
0.4674,0.5326	-2733.81
0.3542,0.6458	-2730.05
0.3694,0.6306	-2731.12
0.3789,0.6211	-2735.56
0.5620,0.4380	-2735.46
0.3423,0.6577	-2733.42
0.4662,0.5338	-2734.20
0.3669,0.6331	-2729.50
0.3490,0.6510	-2732.58
0.3535,0.6465	-2730.66
0.5505,0.4495	-2735.80
0.3175,0.6825	-2729.93
0.4625,0.5375	-2734.19
0.3312,0.6688	-2732.45
0.4174,0.5826	-2733.19
0.3834,0.6166	-2731.59
0.5563,0.4437	-2736.00
0.3468,0.6532	-2733.27
0.4442,0.5558	-2733.55
0.3735,0.6265	-2736.80
0.4563,0.5437	-2732.78
0.4350,0.5650	-2732.47
0.5674,0.4326	-2735.86
0.3330,0.6670	-2733.08
0.4098,0.5902	-2732.12
0.3483,0.6517	-2726.96
0.4018,0.5982	-2734.06
0.4514,0.5486	-2733.42
0.5647,0.4353	-2735.78
0.3336,0.6664	-2730.29
0.4186,0.5814	-2733.19
0.3243,0.6757	-2731.24
0.4063,0.5937	-2731.71
0.4753,0.5247	-2734.53
0.5577,0.4423	-2736.28
0.3599,0.6401	-2731.76
0.4256,0.5744	-2734.70
0.3103,0.6897	-2733.35
0.3974,0.6026	-2730.80
0.4315,0.5685	-2732.95
0.5297,0.4703	-2735.28
0.3610,0.6390	-2731.75
0.3801,0.6199	-2732.58
0.3472,0.6528	-2728.21
0.3904,0.6096	-2730.71
0.4561,0.5439	-2733.83
0.5471,0.4529	-2735.12
0.3535,0.6465	-2733.08
0.4066,0.5934	-2732.09
0.3664,0.6336	-2733.88
0.4336,0.5664	-2733.77
0.5014,0.4986	-2734.50
0.5671,0.4329	-2735.04
0.3868,0.6132	-2731.60
0.3899,0.6101	-2732.94
0.3604,0.6396	-2731.76
0.4285,0.5715	-2733.50
0.5007,0.4993	-2734.50
0.5139,0.4861	-2734.49
0.3607,0.6393	-2731.75
0.3753,0.6247	-2731.11
0.3742,0.6258	-2730.08
0.4419,0.5581	-2731.91
0.5358,0.4642	-2733.76
0.5023,0.4977	-2734.56
0.3502,0.6498	-2733.79
0.4041,0.5959	-2732.08
0.4000,0.6000	-2733.28
0.4771,0.5229	-2734.34
0.4922,0.5078	-2734.20
0.4643,0.5357	-2733.76
0.3469,0.6531	-2728.84
0.3941,0.6059	-2731.62
0.3639,0.6361	-2730.04
0.4411,0.5589	-2733.06
0.4760,0.5240	-2734.53
0.4803,0.5197	-2734.51
0.3462,0.6538	-2732.02
0.4084,0.5916	-2733.59
0.3718,0.6282	-2731.64
0.4749,0.5251	-2734.43
0.4598,0.5402	-2734.67
0.4906,0.5094	-2734.18
0.3689,0.6311	-2732.74
0.3921,0.6079	-2732.05
0.4213,0.5787	-2732.88
0.4314,0.5686	-2732.68
0.4787,0.5213	-2733.75
0.4728,0.5272	-2734.33
0.3626,0.6374	-2735.11
0.3507,0.6493	-2728.23
0.4974,0.5026	-2734.43
0.4310,0.5690	-2732.67
0.4359,0.5641	-2732.48
0.5071,0.4929	-2734.71
0.3862,0.6138	-2731.13
0.3426,0.6574	-2732.11
0.4915,0.5085	-2734.24
0.5160,0.4840	-2734.69
0.4518,0.5482	-2733.23
0.5089,0.4911	-2734.66
0.3041,0.6959	-2735.34
0.4210,0.5790	-2731.60
0.4902,0.5098	-2734.28
0.5151,0.4849	-2734.80
0.4615,0.5385	-2733.11
0.5500,0.4500	-2734.98
0.3233,0.6767	-2729.79
0.4257,0.5743	-2734.40
0.4870,0.5130	-2734.38
0.4707,0.5293	-2734.56
0.4720,0.5280	-2733.99
0.5517,0.4483	-2735.63
0.3369,0.6631	-2729.56
0.3702,0.6298	-2731.12
0.4514,0.5486	-2733.22
0.4339,0.5661	-2734.31
0.4251,0.5749	-2732.60
0.5147,0.4853	-2734.91
0.3131,0.6869	-2730.06
0.3615,0.6385	-2730.61
0.4224,0.5776	-2733.82
0.4907,0.5093	-2734.44
0.4081,0.5919	-2731.36
0.4614,0.5386	-2733.72
0.2921,0.7079	-2732.68
0.3959,0.6041	-2731.63
0.4199,0.5801	-2734.16
0.4313,0.5687	-2732.95
0.4051,0.5949	-2731.70
0.4548,0.5452	-2732.92
0.3104,0.6896	-2733.34
0.4697,0.5303	-2734.94
0.4237,0.5763	-2732.89
0.3704,0.6296	-2730.59
0.3694,0.6306	-2731.66
0.4789,0.5211	-2734.17
0.3683,0.6317	-2732.75
0.4790,0.5210	-2733.67
0.4568,0.5432	-2733.67
0.3758,0.6242	-2733.64
0.4042,0.5958	-2730.53
0.4353,0.5647	-2732.99
0.3418,0.6582	-2731.47
0.4685,0.5315	-2733.70
0.4341,0.5659	-2732.98
0.3409,0.6591	-2734.13
0.4165,0.5835	-2732.18
0.3984,0.6016	-2732.47
0.3531,0.6469	-2735.51
0.4761,0.5239	-2734.05
0.4377,0.5623	-2733.77
0.3573,0.6427	-2733.56
0.4176,0.5824	-2732.86
0.3799,0.6201	-2730.13
0.3359,0.6641	-2729.57
0.5042,0.4958	-2734.70
0.4327,0.5673	-2732.69
0.3789,0.6211	-2730.61
0.3744,0.6256	-2732.14
0.3664,0.6336	-2729.49
0.3807,0.6193	-2733.06
0.5097,0.4903	-2734.72
0.4739,0.5261	-2734.12
0.3935,0.6065	-2733.78
0.3579,0.6421	-2731.79
0.4028,0.5972	-2733.65
0.3509,0.6491	-2731.92
0.5257,0.4743	-2734.65
0.4771,0.5229	-2733.70
0.4169,0.5831	-2731.52
0.3506,0.6494	-2729.46
0.3388,0.6612	-2728.87
0.3832,0.6168	-2732.55
0.5073,0.4927	-2734.54
0.5177,0.4823	-2734.65
0.4163,0.5837	-2733.19
0.3750,0.6250	-2732.13
0.3671,0.6329	-2731.13
0.3965,0.6035	-2731.63
0.4818,0.5182	-2734.86
0.4682,0.5318	-2733.95
0.4539,0.5461	-2733.82
0.3856,0.6144	-2732.06
0.3262,0.6738	-2728.28
0.3943,0.6057	-2732.05
0.4856,0.5144	-2734.60
0.4609,0.5391	-2733.09
0.4601,0.5399	-2734.03
0.4236,0.5764	-2731.04
0.3527,0.6473	-2731.88
0.3803,0.6197	-2730.62
0.4245,0.5755	-2731.68
0.5141,0.4859	-2734.61
0.4543,0.5457	-2733.64
0.4147,0.5853	-2732.16
0.3126,0.6874	-2730.08
0.3634,0.6366	-2731.16
0.4186,0.5814	-2734.84
0.5871,0.4129	-2735.45
0.4640,0.5360	-2734.05
0.4439,0.5561	-2731.97
0.3491,0.6509	-2731.33
0.3938,0.6062	-2732.05
0.3659,0.6341	-2732.24
0.5923,0.4077	-2735.95
0.4408,0.5592	-2733.53
0.4144,0.5856	-2733.54
0.3553,0.6447	-2731.24
0.3903,0.6097	-2731.16
0.4121,0.5879	-2733.20
0.5690,0.4310	-2734.80
0.4613,0.5387	-2732.95
0.3993,0.6007	-2731.65
0.3127,0.6873	-2729.28
0.4178,0.5822	-2734.19
0.4107,0.5893	-2731.40
0.5397,0.4603	-2734.82
0.4565,0.5435	-2734.36
0.4175,0.5825	-2731.53
0.3284,0.6716	-2727.54
0.4149,0.5851	-2732.85
0.4270,0.5730	-2732.91
0.5538,0.4462	-2735.91
0.4641,0.5359	-2734.05
0.4275,0.5725	-2731.46
0.3731,0.6269	-2736.30
0.4008,0.5992	-2733.67
0.3520,0.6480	-2730.68
0.5667,0.4333	-2735.31
0.4394,0.5606	-2734.74
0.4468,0.5532	-2732.93
0.3028,0.6972	-2729.59
0.4110,0.5890	-2733.21
0.3906,0.6094	-2732.49
0.5789,0.4211	-2735.27
0.4395,0.5605	-2731.58
0.4144,0.5856	-2732.51
0.3107,0.6893	-2729.34
0.4356,0.5644	-2732.74
0.4414,0.5586	-2734.01
0.5193,0.4807	-2734.82
0.4398,0.5602	-2732.80
0.3853,0.6147	-2733.46
0.3345,0.6655	-2734.40
0.4144,0.5856	-2732.51
0.4708,0.5292	-2733.74
0.5557,0.4443	-2736.20
0.3904,0.6096	-2730.71
0.4158,0.5842	-2733.20
0.3561,0.6439	-2733.01
0.3747,0.6253	-2732.64
0.4690,0.5310	-2734.58
0.5794,0.4206	-2736.56
0.4070,0.5930	-2730.59
0.4512,0.5488	-2734.39
0.4168,0.5832	-2732.52
0.3510,0.6490	-2731.30
0.4544,0.5456	-2733.46
0.5710,0.4290	-2734.83
0.3833,0.6167	-2730.17
0.4507,0.5493	-2732.62
0.4387,0.5613	-2733.77
0.3724,0.6276	-2732.68
0.4768,0.5232	-2733.69
0.5813,0.4187	-2737.29
0.3506,0.6494	-2734.39
0.4377,0.5623	-2732.77
0.3918,0.6082	-2732.93
0.3655,0.6345	-2732.25
0.4607,0.5393	-2732.61
0.5460,0.4540	-2734.73
0.4369,0.5631	-2733.52
0.4724,0.5276	-2734.44
0.4127,0.5873	-2729.32
0.3569,0.6431	-2732.99
0.4233,0.5767	-2734.13
0.5546,0.4454	-2735.06
0.4178,0.5822	-2733.19
0.4354,0.5646	-2732.99
0.3901,0.6099	-2732.94
0.3557,0.6443	-2730.64
0.4132,0.5868	-2732.85
0.5310,0.4690	-2734.70
0.4470,0.5530	-2734.00
0.4377,0.5623	-2733.02
0.3942,0.6058	-2732.05
0.3972,0.6028	-2731.63
0.4019,0.5981	-2732.07
0.5564,0.4436	-2735.55
0.3981,0.6019	-2731.23
0.4020,0.5980	-2733.66
0.3988,0.6012	-2734.93
0.4212,0.5788	-2733.83
0.3949,0.6051	-2733.33
0.5296,0.4704	-2734.69
0.3494,0.6506	-2730.08
0.4576,0.5424	-2733.34
0.3584,0.6416	-2733.53
0.4284,0.5716	-2732.92
0.3656,0.6344	-2733.90
0.4689,0.5311	-2733.46
0.3961,0.6039	-2732.89
0.4652,0.5348	-2734.05
0.3993,0.6007	-2731.65
0.3981,0.6019	-2731.23
0.3801,0.6199	-2731.11
0.4959,0.5041	-2734.35
0.3751,0.6249	-2732.64
0.4712,0.5288	-2734.10
0.4408,0.5592	-2732.10
0.3766,0.6234	-2732.12
0.4036,0.5964	-2731.69
0.5283,0.4717	-2735.01
0.3576,0.6424	-2731.80
0.5197,0.4803	-2734.75
0.4395,0.5605	-2733.04
0.3406,0.6594	-2734.14
0.3841,0.6159	-2733.48
0.5067,0.4933	-2734.62
0.4244,0.5756	-2734.11
0.4849,0.5151	-2734.19
0.4826,0.5174	-2734.15
0.3544,0.6456	-2727.65
0.4508,0.5492	-2733.21
0.4383,0.5617	-2733.03
0.4082,0.5918	-2730.99
0.4772,0.5228	-2734.43
0.4792,0.5208	-2734.43
0.3667,0.6333	-2732.23
0.4195,0.5805	-2733.84
0.4453,0.5547	-2734.00
0.4008,0.5992	-2730.86
0.4710,0.5290	-2733.87
0.4877,0.5123	-2734.19
0.3954,0.6046	-2730.77
0.3632,0.6368	-2732.84
0.4283,0.5717	-2733.50
0.4124,0.5876	-2732.50
0.4268,0.5732	-2732.62
0.5394,0.4606	-2735.44
0.4253,0.5747	-2732.00
0.3822,0.6178	-2729.68
0.4928,0.5072	-2734.31
0.4530,0.5470	-2733.63
0.4541,0.5459	-2733.82
0.4941,0.5059	-2734.29
0.4628,0.5372	-2733.74
0.3076,0.6924	-2731.87
0.5143,0.4857	-2734.44
0.4322,0.5678	-2731.32
0.4103,0.5897	-2732.48
0.4731,0.5269	-2734.01
0.4316,0.5684	-2735.16
0.3288,0.6712	-2729.68
0.4917,0.5083	-2734.38
0.4708,0.5292	-2733.74
0.4266,0.5734	-2733.50
0.4575,0.5425	-2734.19
0.4785,0.5215	-2733.83
0.3660,0.6340	-2729.49
0.4767,0.5233	-2733.69
0.4314,0.5686	-2731.57
0.3990,0.6010	-2733.70
0.3930,0.6070	-2734.65
0.4281,0.5719	-2735.24
0.3367,0.6633	-2730.24
0.3998,0.6002	-2732.06
0.4289,0.5711	-2734.07
0.3858,0.6142	-2732.52
0.3831,0.6169	-2729.69
0.4432,0.5568	-2731.95
0.3452,0.6548	-2728.84
0.4088,0.5912	-2735.06
0.4155,0.5845	-2732.51
0.3775,0.6225	-2732.61
0.3823,0.6177	-2731.60
0.4877,0.5123	-2734.39
0.3326,0.6674	-2735.19
0.3427,0.6573	-2731.46
0.4264,0.5736	-2734.39
0.3200,0.6800	-2734.39
0.4254,0.5746	-2733.50
0.5126,0.4874	-2734.94
0.3733,0.6267	-2732.15
0.3567,0.6433	-2732.40
0.4321,0.5679	-2732.96
0.3117,0.6883	-2730.90
0.4009,0.5991	-2736.48
0.4426,0.5574	-2733.77
0.3358,0.6642	-2730.25
0.3443,0.6557	-2734.00
0.4194,0.5806	-2732.54
0.3294,0.6706	-2733.22
0.4234,0.5766	-2733.20
0.3598,0.6402	-2732.92
0.3417,0.6583	-2728.85
0.3376,0.6624	-2730.22
0.4182,0.5818	-2733.19
0.3257,0.6743	-2729.74
0.3987,0.6013	-2730.41
0.3659,0.6341	-2730.04
0.3194,0.6806	-2732.15
0.3810,0.6190	-2732.08
0.3986,0.6014	-2732.47
0.3343,0.6657	-2728.90
0.3465,0.6535	-2730.11
0.3685,0.6315	-2732.74
0.2977,0.7023	-2728.07
0.3511,0.6489	-2732.53
0.4091,0.5909	-2733.22
0.3684,0.6316	-2729.51
0.3259,0.6741	-2732.64
0.3010,0.6990	-2727.97
0.2976,0.7024	-2729.79
0.3447,0.6553	-2730.13
0.3987,0.6013	-2732.06
0.4663,0.5337	-2733.93
0.3079,0.6921	-2727.80
0.2934,0.7066	-2730.84
0.3418,0.6582	-2731.47
0.3114,0.6886	-2731.70
0.3963,0.6037	-2732.89
0.4510,0.5490	-2734.00
0.3249,0.6751	-2731.22
0.3045,0.6955	-2734.49
0.3073,0.6927	-2731.07
0.3383,0.6617	-2731.56
0.3708,0.6292	-2727.42
0.4627,0.5373	-2733.14
0.3767,0.6233	-2729.60
0.3102,0.6898	-2729.35
0.3137,0.6863	-2730.04
0.4311,0.5689	-2732.39
0.3660,0.6340	-2732.79
0.4491,0.5509	-2732.77
0.3647,0.6353	-2737.81
0.3714,0.6286	-2733.75
0.3040,0.6960	-2728.72
0.4132,0.5868	-2731.80
0.3778,0.6222	-2732.60
0.4734,0.5266	-2733.27
0.3347,0.6653	-2732.33
0.3554,0.6446	-2733.03
0.2986,0.7014	-2734.02
0.3938,0.6062	-2730.32
0.3664,0.6336	-2734.42
0.4494,0.5506	-2733.59
0.2868,0.7132	-2734.84
0.3067,0.6933	-2732.72
0.3478,0.6522	-2732.61
0.3890,0.6110	-2730.24
0.3305,0.6695	-2731.06
0.4550,0.5450	-2733.83
0.2772,0.7228	-2733.71
0.3247,0.6753	-2732.69
0.3680,0.6320	-2732.21
0.3560,0.6440	-2728.86
0.3389,0.6611	-2733.54
0.3724,0.6276	-2732.68
0.3016,0.6984	-2732.15
0.3554,0.6446	-2729.45
0.3557,0.6443	-2731.24
0.3710,0.6290	-2731.12
0.3615,0.6385	-2731.74
0.3603,0.6397	-2731.19
0.3591,0.6409	-2730.04
0.4113,0.5887	-2732.13
0.3506,0.6494	-2728.23
0.3932,0.6068	-2731.18
0.3086,0.6914	-2732.63
0.3606,0.6394	-2730.04
0.3700,0.6300	-2734.31
0.4019,0.5981	-2734.45
0.3818,0.6182	-2734.97
0.4192,0.5808	-2733.85
0.3304,0.6696	-2735.30
0.3577,0.6423	-2731.21
0.4326,0.5674	-2734.86
0.3444,0.6556	-2732.06
0.4406,0.5594	-2735.20
0.3953,0.6047	-2733.75
0.4375,0.5625	-2733.02
0.3913,0.6087	-2732.49
0.4183,0.5817	-2730.89
0.3912,0.6088	-2733.37
0.4575,0.5425	-2734.19
0.3762,0.6238	-2734.65
0.4665,0.5335	-2733.39
0.3983,0.6017	-2732.05
0.3691,0.6309	-2730.05
0.3942,0.6058	-2731.62
0.4856,0.5144	-2733.85
0.3961,0.6039	-2732.05
0.4898,0.5102	-2734.40
0.3751,0.6249	-2732.13
0.4052,0.5948	-2732.47
0.4152,0.5848	-2733.20
0.4494,0.5506	-2733.19
0.3803,0.6197	-2731.60
0.4708,0.5292	-2734.45
0.3791,0.6209	-2733.08
0.4629,0.5371	-2733.30
0.3862,0.6138	-2732.98
0.4385,0.5615	-2732.53
0.3749,0.6251	-2729.57
0.4404,0.5596	-2732.57
0.4193,0.5807	-2733.52
0.5057,0.4943	-2734.66
0.4174,0.5826	-2734.19
0.4121,0.5879	-2731.43
0.4089,0.5911	-2732.11
0.4020,0.5980	-2732.47
0.3866,0.6134	-2732.52
0.4958,0.5042	-2734.48
0.4013,0.5987	-2731.66
0.4352,0.5648	-2732.99
0.3879,0.6121	-2731.60
0.3699,0.6301	-2730.59
0.4077,0.5923	-2734.72
0.4455,0.5545	-2731.37
0.4469,0.5531	-2732.51
0.4190,0.5810	-2733.85
0.4015,0.5985	-2730.87
0.3142,0.6858	-2733.15
0.3917,0.6083	-2732.49
0.4826,0.5174	-2734.15
0.4060,0.5940	-2733.23
0.3698,0.6302	-2729.52
0.3628,0.6372	-2731.73
0.2892,0.7108	-2731.06
0.4069,0.5931	-2731.72
0.4269,0.5731	-2732.62
0.4225,0.5775	-2732.57
0.4009,0.5991	-2731.26
0.3918,0.6082	-2733.37
0.3022,0.6978	-2730.45
0.3757,0.6243	-2732.63
0.4413,0.5587	-2733.30
0.4606,0.5394	-2733.40
0.4186,0.5814	-2732.21
0.3834,0.6166	-2733.02
0.3439,0.6561	-2731.43
0.3500,0.6500	-2732.56
0.4192,0.5808	-2731.56
0.4334,0.5666	-2734.04
0.3799,0.6201	-2731.60
0.3523,0.6477	-2733.11
0.3206,0.6794	-2735.11
0.3720,0.6280	-2731.64
0.3607,0.6393	-2735.19
0.4388,0.5612	-2734.51
0.4416,0.5584	-2734.01
0.4298,0.5702	-2732.65
0.3333,0.6667	-2733.07
0.3863,0.6137	-2731.13
0.3076,0.6924	-2725.37
0.4547,0.5453	-2733.28
0.4259,0.5741	-2732.61
0.4158,0.5842	-2732.18
0.3294,0.6706	-2731.09
0.3491,0.6509	-2730.09
0.3684,0.6316	-2732.21
0.4147,0.5853	-2733.20
0.4577,0.5423	-2732.32
0.4027,0.5973	-2735.22
0.3575,0.6425	-2734.14
0.3828,0.6172	-2730.16
0.3133,0.6867	-2732.41
0.4117,0.5883	-2734.63
0.4771,0.5229	-2733.88
0.3995,0.6005	-2733.69
0.3743,0.6257	-2734.19
0.3691,0.6309	-2729.52
0.3662,0.6338	-2730.04
0.4311,0.5689	-2734.06
0.3848,0.6152	-2730.66
0.3777,0.6223	-2733.61
0.4129,0.5871	-2733.91
0.4118,0.5882	-2733.21
0.3502,0.6498	-2738.73
0.3888,0.6112	-2732.96
0.3895,0.6105	-2732.95
0.3885,0.6115	-2730.69
0.4173,0.5827	-2732.86
0.4110,0.5890	-2732.13
0.3353,0.6647	-2726.16
0.4301,0.5699	-2732.38
0.4716,0.5284	-2733.53
0.3471,0.6529	-2735.16
0.3786,0.6214	-2732.59
0.4021,0.5979	-2733.66
0.3876,0.6124	-2731.60
0.4604,0.5396	-2733.23
0.4737,0.5263	-2734.33
0.3859,0.6141	-2731.59
0.3786,0.6214	-2730.61
0.4511,0.5489	-2734.20
0.4547,0.5453	-2734.19
0.3776,0.6224	-2732.11
0.4428,0.5572	-2732.39
0.4537,0.5463	-2733.63
0.4235,0.5765	-2731.65
0.4540,0.5460	-2734.19
0.4878,0.5122	-2734.19
0.3826,0.6174	-2729.20
0.4524,0.5476	-2733.43
0.4471,0.5529	-2734.00
0.4082,0.5918	-2730.99
0.4051,0.5949	-2735.93
0.4810,0.5190	-2733.97
0.3699,0.6301	-2735.38
0.4227,0.5773	-2731.95
0.4100,0.5900	-2731.39
0.4970,0.5030	-2734.55
0.3634,0.6366	-2732.84
0.4990,0.5010	-2734.47
0.3221,0.6779	-2735.77
0.4540,0.5460	-2733.27
0.3833,0.6167	-2728.74
0.4759,0.5241	-2733.85
0.4135,0.5865	-2730.40
0.4232,0.5768	-2732.89
0.3241,0.6759	-2732.71
0.4536,0.5464	-2733.07
0.3271,0.6729	-2728.99
0.4889,0.5111	-2734.35
0.4167,0.5833	-2731.51
0.3897,0.6103	-2733.84
0.3577,0.6423	-2728.29
0.5005,0.4995	-2734.49
0.3269,0.6731	-2731.88
0.5121,0.4879	-2734.88
0.4237,0.5763	-2732.58
0.4239,0.5761	-2732.89
0.3443,0.6557	-2733.35
0.4636,0.5364	-2733.17
0.3215,0.6785	-2731.32
0.4375,0.5625	-2734.78
0.3949,0.6051	-2733.76
0.3941,0.6059	-2729.90
0.4184,0.5816	-2736.49
0.4457,0.5543	-2733.13
0.3442,0.6558	-2733.36
0.4523,0.5477	-2733.81
0.4481,0.5519	-2733.17
0.4541,0.5459	-2733.45
0.4143,0.5857	-2732.85
0.4086,0.5914	-2732.85
0.3782,0.6218	-2732.10
0.4242,0.5758	-2732.59
0.4321,0.5679	-2732.96
0.4565,0.5435	-2734.71
0.4844,0.5156	-2734.43
0.3762,0.6238	-2737.68
0.3896,0.6104	-2732.05
0.4334,0.5666	-2733.24
0.3957,0.6043	-2730.36
0.4491,0.5509	-2733.79
0.4711,0.5289	-2734.44
0.3645,0.6355	-2731.71
0.3773,0.6227	-2733.61
0.4066,0.5934	-2733.61
0.3666,0.6334	-2729.50
0.4575,0.5425	-2734.87
0.4732,0.5268	-2734.33
0.3365,0.6635	-2728.88
0.3929,0.6071	-2731.18
0.3677,0.6323	-2733.30
0.3950,0.6050	-2730.77
0.4060,0.5940	-2734.37
0.4829,0.5171	-2734.02
0.3423,0.6577	-2727.55
0.3262,0.6738	-2731.90
0.4152,0.5848	-2733.20
0.4122,0.5878	-2732.14
0.4134,0.5866	-2734.60
0.4743,0.5257	-2733.20
0.3751,0.6249	-2733.15
0.3096,0.6904	-2730.17
0.4648,0.5352	-2733.35
0.4271,0.5729	-2734.38
0.4078,0.5922	-2734.34
0.4609,0.5391	-2733.56
0.3784,0.6216	-2730.61
0.3034,0.6966	-2732.06
0.4210,0.5790	-2732.56
0.4426,0.5574	-2732.16
0.4207,0.5793	-2734.15
0.4249,0.5751	-2732.29
0.3877,0.6123	-2732.51
0.3250,0.6750	-2733.41
0.3810,0.6190	-2735.48
0.4207,0.5793	-2731.91
0.3857,0.6143	-2732.06
0.4435,0.5565	-2732.87
0.4064,0.5936	-2730.96
0.3416,0.6584	-2730.82
0.4146,0.5854	-2733.54
0.4257,0.5743	-2735.30
0.3653,0.6347	-2729.49
0.4598,0.5402	-2734.51
0.3595,0.6405	-2730.62
0.4034,0.5966	-2731.29
0.4357,0.5643	-2734.29
0.4245,0.5755	-2731.37
0.3692,0.6308	-2734.87
0.4548,0.5452	-2735.09
0.4358,0.5642	-2734.03
0.3987,0.6013	-2733.29
0.4412,0.5588	-2732.12
0.4252,0.5748	-2733.50
0.3725,0.6275	-2732.16
0.4310,0.5690	-2734.61
0.4818,0.5182	-2734.28
0.3465,0.6535	-2730.11
0.4730,0.5270	-2733.90
0.4108,0.5892	-2732.85
0.4138,0.5862	-2731.81
0.3794,0.6206	-2733.08
0.4990,0.5010	-2734.49
0.3199,0.6801	-2726.85
0.4920,0.5080	-2734.45
0.4157,0.5843	-2732.51
0.4172,0.5828	-2733.86
0.3697,0.6303	-2734.32
0.4574,0.5426	-2732.82
