#isoforms=['ENSG00000186575.SE.4.A.up_ENSG00000186575.SE.4.A.SE1_ENSG00000186575.SE.4.A.dn','ENSG00000186575.SE.4.B.up_ENSG00000186575.SE.4.B.dn']	exon_lens=('ENSG00000186575.SE.4.A.up',128),('ENSG00000186575.SE.4.A.SE1',163),('ENSG00000186575.SE.4.A.dn',3847),('ENSG00000186575.SE.4.B.up',128),('ENSG00000186575.SE.4.B.dn',194)	iters=5000	burn_in=500	lag=10	percent_accept=97.60	proposal_type=drift	counts=(0,0):44,(1,0):122,(1,1):8	assigned_counts=0:125,1:5	chrom=chr22	strand=+	mRNA_starts=29678196,29678196	mRNA_ends=29698598,29694945
sampled_psi	log_score
0.4523,0.5477	-1086.69
0.6218,0.3782	-1085.22
0.5099,0.4901	-1086.39
0.7055,0.2945	-1085.03
0.8564,0.1436	-1082.43
0.6184,0.3816	-1085.72
0.3806,0.6194	-1089.14
0.6652,0.3348	-1085.06
0.5767,0.4233	-1085.53
0.6631,0.3369	-1084.39
0.8762,0.1238	-1080.46
0.6316,0.3684	-1084.64
0.3463,0.6537	-1090.39
0.5916,0.4084	-1085.04
0.5670,0.4330	-1085.34
0.6585,0.3415	-1085.08
0.8739,0.1261	-1080.48
0.6189,0.3811	-1084.27
0.4317,0.5683	-1086.61
0.5772,0.4228	-1085.83
0.6113,0.3887	-1085.73
0.6257,0.3743	-1084.18
0.8683,0.1317	-1082.42
0.6735,0.3265	-1085.05
0.4126,0.5874	-1087.84
0.5841,0.4159	-1085.81
0.6269,0.3731	-1086.24
0.6291,0.3709	-1084.66
0.8730,0.1270	-1084.35
0.6765,0.3235	-1083.57
0.3871,0.6129	-1087.09
0.5459,0.4541	-1085.64
0.6621,0.3379	-1084.40
0.6423,0.3577	-1085.72
0.8975,0.1025	-1082.44
0.6979,0.3021	-1083.35
0.3536,0.6464	-1088.29
0.5649,0.4351	-1085.63
0.6117,0.3883	-1084.37
0.6225,0.3775	-1084.22
0.8918,0.1082	-1080.32
0.6939,0.3061	-1083.39
0.3215,0.6785	-1089.99
0.6061,0.3939	-1086.60
0.5472,0.4528	-1085.62
0.6458,0.3542	-1084.52
0.8773,0.1227	-1080.45
0.6754,0.3246	-1085.04
0.3429,0.6571	-1089.87
0.6609,0.3391	-1083.74
0.5168,0.4832	-1086.44
0.6841,0.3159	-1085.03
0.8953,0.1047	-1080.29
0.6851,0.3149	-1083.48
0.3111,0.6889	-1089.62
0.7016,0.2984	-1084.17
0.5710,0.4290	-1085.29
0.7073,0.2927	-1084.14
0.9040,0.0960	-1080.21
0.6720,0.3280	-1084.33
0.3388,0.6612	-1088.03
0.7706,0.2294	-1087.62
0.5508,0.4492	-1085.77
0.6905,0.3095	-1083.42
0.9143,0.0857	-1080.12
0.6143,0.3857	-1084.80
0.3416,0.6584	-1089.27
0.7223,0.2777	-1083.13
0.5324,0.4676	-1085.98
0.7390,0.2610	-1084.04
0.9169,0.0831	-1082.50
0.6525,0.3475	-1086.36
0.3287,0.6713	-1089.00
0.7201,0.2799	-1083.15
0.5957,0.4043	-1086.54
0.7337,0.2663	-1084.05
0.9194,0.0806	-1082.52
0.7251,0.2749	-1084.08
0.3654,0.6346	-1089.10
0.7166,0.2834	-1085.03
0.6188,0.3812	-1084.27
0.7516,0.2484	-1082.90
0.9154,0.0846	-1080.11
0.6698,0.3302	-1083.64
0.3132,0.6868	-1091.11
0.6971,0.3029	-1084.19
0.6581,0.3419	-1083.77
0.7827,0.2173	-1082.71
0.9097,0.0903	-1082.47
0.6663,0.3337	-1085.06
0.3466,0.6534	-1088.47
0.7105,0.2895	-1085.03
0.6487,0.3513	-1085.11
0.7403,0.2597	-1082.99
0.9154,0.0846	-1084.88
0.6754,0.3246	-1086.51
0.3090,0.6910	-1088.90
0.6467,0.3533	-1085.12
0.6547,0.3453	-1083.81
0.7346,0.2654	-1086.08
0.9226,0.0774	-1082.53
0.6811,0.3189	-1085.79
0.2961,0.7039	-1090.23
0.6345,0.3655	-1086.82
0.6601,0.3399	-1083.75
0.7228,0.2772	-1084.08
0.9106,0.0894	-1082.48
0.6687,0.3313	-1085.06
0.3550,0.6450	-1089.44
0.6444,0.3556	-1083.34
0.6725,0.3275	-1083.61
0.6787,0.3213	-1087.28
0.9144,0.0856	-1080.12
0.6319,0.3681	-1084.63
0.3690,0.6310	-1087.38
0.6443,0.3557	-1085.72
0.7063,0.2937	-1084.15
0.7142,0.2858	-1083.20
0.9151,0.0849	-1080.12
0.6320,0.3680	-1084.09
0.3750,0.6250	-1088.81
0.5454,0.4546	-1086.37
0.6951,0.3049	-1084.20
0.7466,0.2534	-1085.10
0.9136,0.0864	-1082.49
0.6142,0.3858	-1084.80
0.3647,0.6353	-1088.57
0.4659,0.5341	-1086.85
0.6712,0.3288	-1084.34
0.7898,0.2102	-1083.99
0.8989,0.1011	-1082.44
0.6289,0.3711	-1086.24
0.4263,0.5737	-1086.95
0.5114,0.4886	-1086.20
0.7111,0.2889	-1083.23
0.7789,0.2211	-1082.73
0.9062,0.0938	-1080.19
0.6153,0.3847	-1085.73
0.4211,0.5789	-1087.65
0.5655,0.4345	-1085.36
0.7309,0.2691	-1085.06
0.7825,0.2175	-1085.27
0.8988,0.1012	-1082.44
0.6403,0.3597	-1084.56
0.4953,0.5047	-1086.47
0.5266,0.4734	-1086.15
0.7460,0.2540	-1082.94
0.7877,0.2123	-1085.30
0.8857,0.1143	-1084.47
0.6592,0.3408	-1084.42
0.4713,0.5287	-1086.66
0.5179,0.4821	-1086.09
0.7202,0.2798	-1085.99
0.8428,0.1572	-1082.46
0.8833,0.1167	-1084.44
0.6444,0.3556	-1085.12
0.5190,0.4810	-1086.30
0.5005,0.4995	-1086.41
0.7462,0.2538	-1085.10
0.8555,0.1445	-1085.99
0.8935,0.1065	-1080.30
0.6565,0.3435	-1085.73
0.5510,0.4490	-1085.97
0.5045,0.4955	-1086.35
0.7696,0.2304	-1083.99
0.8688,0.1312	-1080.53
0.8950,0.1050	-1084.58
0.5829,0.4171	-1085.48
0.6182,0.3818	-1085.72
0.4943,0.5057	-1086.46
0.7886,0.2114	-1083.99
0.8534,0.1466	-1084.20
0.8820,0.1180	-1080.41
0.6233,0.3767	-1086.22
0.5756,0.4244	-1085.84
0.5854,0.4146	-1085.46
0.7957,0.2043	-1082.64
0.8249,0.1751	-1085.61
0.8511,0.1489	-1087.67
0.6343,0.3657	-1084.06
0.5383,0.4617	-1086.06
0.5930,0.4070	-1084.65
0.8066,0.1934	-1084.01
0.8588,0.1412	-1080.63
0.8652,0.1348	-1082.42
0.6733,0.3267	-1085.05
0.4970,0.5030	-1086.45
0.5993,0.4007	-1085.36
0.7938,0.2062	-1084.00
0.8355,0.1645	-1082.48
0.8840,0.1160	-1080.39
0.6592,0.3408	-1085.74
0.5031,0.4969	-1086.37
0.6559,0.3441	-1083.80
0.8015,0.1985	-1085.40
0.8582,0.1418	-1080.63
0.8559,0.1441	-1084.22
0.6928,0.3072	-1085.03
0.5219,0.4781	-1086.02
0.6511,0.3489	-1085.73
0.7801,0.2199	-1083.99
0.8507,0.1493	-1082.44
0.8744,0.1256	-1082.42
0.6933,0.3067	-1085.03
0.5607,0.4393	-1085.91
0.6566,0.3434	-1086.38
0.7845,0.2155	-1087.87
0.8653,0.1347	-1084.28
0.8845,0.1155	-1082.42
0.7145,0.2855	-1084.12
0.5867,0.4133	-1085.10
0.6599,0.3401	-1085.74
0.8380,0.1620	-1082.47
0.8697,0.1303	-1080.52
0.8881,0.1119	-1080.35
0.7144,0.2856	-1083.20
0.5924,0.4076	-1085.78
0.6639,0.3361	-1086.43
0.8123,0.1877	-1081.10
0.8769,0.1231	-1082.42
0.8971,0.1029	-1082.44
0.7327,0.2673	-1083.05
0.5004,0.4996	-1086.41
0.7021,0.2979	-1084.17
0.8382,0.1618	-1084.12
0.8840,0.1160	-1084.45
0.9158,0.0842	-1080.11
0.7082,0.2918	-1085.03
0.4886,0.5114	-1086.55
0.7297,0.2703	-1083.07
0.8291,0.1709	-1080.92
0.8812,0.1188	-1080.42
0.9036,0.0964	-1084.69
0.7515,0.2485	-1085.12
0.4801,0.5199	-1086.66
0.7494,0.2506	-1081.82
0.8335,0.1665	-1082.49
0.9036,0.0964	-1082.45
0.9024,0.0976	-1084.67
0.6976,0.3024	-1085.86
0.4788,0.5212	-1086.76
0.7923,0.2077	-1082.65
0.8433,0.1567	-1080.78
0.9035,0.0965	-1082.45
0.8974,0.1026	-1082.44
0.6810,0.3190	-1083.52
0.4648,0.5352	-1086.87
0.7553,0.2447	-1082.88
0.8014,0.1986	-1084.00
0.9144,0.0856	-1080.12
0.8959,0.1041	-1080.28
0.6967,0.3033	-1084.19
0.4589,0.5411	-1087.13
0.7619,0.2381	-1082.83
0.8362,0.1638	-1080.85
0.9206,0.0794	-1080.07
0.9221,0.0779	-1082.53
0.6824,0.3176	-1083.51
0.4649,0.5351	-1086.59
0.7524,0.2476	-1082.90
0.8829,0.1171	-1080.40
0.9184,0.0816	-1082.51
0.8955,0.1045	-1080.29
0.6382,0.3618	-1084.58
0.5188,0.4812	-1086.30
0.7822,0.2178	-1083.99
0.8688,0.1312	-1082.42
0.9079,0.0921	-1080.18
0.8680,0.1320	-1082.42
0.6428,0.3572	-1086.89
0.5242,0.4758	-1086.37
0.8172,0.1828	-1082.54
0.8481,0.1519	-1084.17
0.9184,0.0816	-1080.09
0.9031,0.0969	-1084.69
0.6068,0.3932	-1084.44
0.4714,0.5286	-1086.89
0.8361,0.1639	-1084.11
0.8707,0.1293	-1082.42
0.9271,0.0729	-1082.56
0.8766,0.1234	-1082.42
0.5300,0.4700	-1085.88
0.4885,0.5115	-1086.68
0.8070,0.1930	-1084.01
0.8296,0.1704	-1082.50
0.9336,0.0664	-1079.96
0.8834,0.1166	-1084.45
0.5749,0.4251	-1085.84
0.4926,0.5074	-1086.47
0.8069,0.1931	-1084.01
0.8146,0.1854	-1084.03
0.9243,0.0757	-1080.04
0.8850,0.1150	-1082.42
0.5634,0.4366	-1085.64
0.4843,0.5157	-1086.54
0.7545,0.2455	-1081.76
0.8593,0.1407	-1082.43
0.9225,0.0775	-1080.05
0.8994,0.1006	-1080.25
0.5103,0.4897	-1086.22
0.5607,0.4393	-1085.67
0.7310,0.2690	-1084.06
0.8726,0.1274	-1082.42
0.9137,0.0863	-1084.85
0.8882,0.1118	-1080.35
0.5503,0.4497	-1085.57
0.5827,0.4173	-1085.48
0.7252,0.2748	-1085.05
0.8704,0.1296	-1084.32
0.9070,0.0930	-1080.19
0.8906,0.1094	-1080.33
0.6146,0.3854	-1084.80
0.5987,0.4013	-1084.56
0.7068,0.2932	-1084.15
0.8867,0.1133	-1082.42
0.8981,0.1019	-1082.44
0.8904,0.1096	-1080.33
0.6391,0.3609	-1084.00
0.5506,0.4494	-1085.97
0.7060,0.2940	-1084.15
0.8574,0.1426	-1080.64
0.9073,0.0927	-1082.46
0.9040,0.0960	-1080.21
0.6527,0.3473	-1083.83
0.5276,0.4724	-1086.25
0.7052,0.2948	-1083.28
0.8638,0.1362	-1082.42
0.9200,0.0800	-1082.52
0.9099,0.0901	-1082.47
0.6941,0.3059	-1085.85
0.5059,0.4941	-1086.35
0.7197,0.2803	-1082.21
0.8532,0.1468	-1085.96
0.9056,0.0944	-1082.46
0.9188,0.0812	-1080.09
0.6980,0.3020	-1086.70
0.5707,0.4293	-1086.72
0.6843,0.3157	-1085.03
0.8508,0.1492	-1084.18
0.9041,0.0959	-1082.46
0.9355,0.0645	-1079.95
0.6711,0.3289	-1085.76
0.5016,0.4984	-1086.38
0.7096,0.2904	-1085.03
0.8295,0.1705	-1084.08
0.8872,0.1128	-1080.36
0.9347,0.0653	-1082.62
0.6357,0.3643	-1085.16
0.4924,0.5076	-1086.53
0.7468,0.2532	-1084.02
0.8293,0.1707	-1084.08
0.8952,0.1048	-1084.58
0.9484,0.0516	-1079.84
0.6516,0.3484	-1085.73
0.5015,0.4985	-1086.39
0.7545,0.2455	-1084.01
0.8668,0.1332	-1080.55
0.9011,0.0989	-1082.45
0.9467,0.0533	-1079.86
0.6646,0.3354	-1084.38
0.4863,0.5137	-1086.63
0.7106,0.2894	-1086.83
0.8727,0.1273	-1082.42
0.9114,0.0886	-1084.81
0.9462,0.0538	-1079.86
0.6961,0.3039	-1084.20
0.4645,0.5355	-1086.73
0.7045,0.2955	-1085.03
0.8947,0.1053	-1080.29
0.9150,0.0850	-1080.12
0.9466,0.0534	-1079.86
0.6318,0.3682	-1084.64
0.4798,0.5202	-1086.74
0.7083,0.2917	-1085.03
0.8949,0.1051	-1080.29
0.9085,0.0915	-1080.17
0.9489,0.0511	-1079.84
0.5922,0.4078	-1085.03
0.5269,0.4731	-1086.15
0.6516,0.3484	-1086.35
0.8781,0.1219	-1082.42
0.9092,0.0908	-1082.47
0.9680,0.0320	-1083.10
0.5518,0.4482	-1086.38
0.5704,0.4296	-1085.86
0.6518,0.3482	-1084.47
0.8924,0.1076	-1082.43
0.9225,0.0775	-1080.05
0.9677,0.0323	-1079.69
0.5043,0.4957	-1086.38
0.6038,0.3962	-1085.33
0.6462,0.3538	-1085.12
0.8867,0.1133	-1080.37
0.9394,0.0606	-1082.66
0.9687,0.0313	-1079.69
0.5135,0.4865	-1086.27
0.6017,0.3983	-1085.34
0.7061,0.2939	-1085.03
0.9015,0.0985	-1082.45
0.9415,0.0585	-1079.90
0.9588,0.0412	-1079.76
0.5070,0.4930	-1086.37
0.5833,0.4167	-1085.47
0.6862,0.3138	-1085.03
0.8986,0.1014	-1080.26
0.9343,0.0657	-1079.96
0.9676,0.0324	-1079.69
0.5483,0.4517	-1085.99
0.5754,0.4246	-1086.45
0.6735,0.3265	-1083.60
0.8782,0.1218	-1082.42
0.9480,0.0520	-1079.85
0.9677,0.0323	-1086.49
0.5415,0.4585	-1086.04
0.5629,0.4371	-1085.90
0.5979,0.4021	-1085.76
0.8787,0.1213	-1084.40
0.9470,0.0530	-1085.62
0.9693,0.0307	-1079.68
0.5335,0.4665	-1086.10
0.5826,0.4174	-1085.14
0.5991,0.4009	-1085.36
0.8725,0.1275	-1082.42
0.9435,0.0565	-1079.88
0.9710,0.0290	-1079.67
0.4674,0.5326	-1086.57
0.5596,0.4404	-1085.44
0.6207,0.3793	-1085.72
0.8437,0.1563	-1080.77
0.9412,0.0588	-1082.67
0.9713,0.0287	-1086.71
0.4679,0.5321	-1086.95
0.5649,0.4351	-1085.37
0.5957,0.4043	-1085.38
0.8474,0.1526	-1082.45
0.9353,0.0647	-1079.95
0.9726,0.0274	-1079.66
0.4943,0.5057	-1086.50
0.6220,0.3780	-1085.22
0.6395,0.3605	-1084.57
0.8781,0.1219	-1082.42
0.9258,0.0742	-1080.03
0.9731,0.0269	-1079.65
0.4551,0.5449	-1087.20
0.5830,0.4170	-1085.48
0.6157,0.3843	-1085.73
0.8479,0.1521	-1080.73
0.9330,0.0670	-1079.97
0.9747,0.0253	-1079.64
0.4689,0.5311	-1086.69
0.5956,0.4044	-1085.38
0.6241,0.3759	-1085.21
0.8583,0.1417	-1082.43
0.9391,0.0609	-1079.92
0.9766,0.0234	-1079.63
0.4733,0.5267	-1086.96
0.6200,0.3800	-1085.23
0.6461,0.3539	-1083.91
0.8533,0.1467	-1082.44
0.9344,0.0656	-1082.61
0.9757,0.0243	-1079.63
0.4909,0.5091	-1086.52
0.6617,0.3383	-1084.40
0.5791,0.4209	-1085.83
0.8800,0.1200	-1082.42
0.9242,0.0758	-1080.04
0.9777,0.0223	-1079.62
0.5157,0.4843	-1086.25
0.6745,0.3255	-1083.59
0.5814,0.4186	-1085.82
0.8803,0.1197	-1082.42
0.9138,0.0862	-1080.13
0.9754,0.0246	-1079.64
0.5470,0.4530	-1085.62
0.6837,0.3163	-1083.49
0.5768,0.4232	-1085.53
0.8771,0.1229	-1080.45
0.9024,0.0976	-1082.45
0.9772,0.0228	-1079.62
0.5455,0.4545	-1085.64
0.6535,0.3465	-1085.09
0.5221,0.4779	-1086.10
0.8491,0.1509	-1082.45
0.8897,0.1103	-1086.60
0.9709,0.0291	-1083.18
0.4781,0.5219	-1086.51
0.7192,0.2808	-1083.16
0.5039,0.4961	-1086.34
0.8250,0.1750	-1084.06
0.8980,0.1020	-1082.44
0.9689,0.0311	-1079.69
0.4923,0.5077	-1086.47
0.6976,0.3024	-1084.19
0.5176,0.4824	-1086.09
0.8353,0.1647	-1082.48
0.9028,0.0972	-1084.68
0.9711,0.0289	-1083.18
0.5321,0.4679	-1085.98
0.6892,0.3108	-1085.03
0.5195,0.4805	-1086.06
0.8440,0.1560	-1084.15
0.8980,0.1020	-1084.61
0.9735,0.0265	-1079.65
0.5738,0.4262	-1085.25
0.7454,0.2546	-1085.10
0.5193,0.4807	-1086.22
0.8271,0.1729	-1080.94
0.8997,0.1003	-1082.44
0.9688,0.0312	-1079.69
0.5619,0.4381	-1085.41
0.7688,0.2312	-1083.99
0.5484,0.4516	-1086.18
0.8626,0.1374	-1084.26
0.8822,0.1178	-1080.41
0.9645,0.0355	-1079.72
0.5804,0.4196	-1086.14
0.7385,0.2615	-1083.00
0.5321,0.4679	-1086.11
0.8848,0.1152	-1082.42
0.8846,0.1154	-1084.46
0.9666,0.0334	-1079.70
0.5875,0.4125	-1085.44
0.7409,0.2591	-1084.03
0.5402,0.4598	-1086.05
0.8728,0.1272	-1084.35
0.9056,0.0944	-1082.46
0.9671,0.0329	-1079.70
0.6106,0.3894	-1085.29
0.7376,0.2624	-1083.01
0.5177,0.4823	-1086.23
0.8574,0.1426	-1082.43
0.9052,0.0948	-1082.46
0.9643,0.0357	-1079.72
0.5977,0.4023	-1085.37
0.7397,0.2603	-1084.04
0.4563,0.5437	-1086.83
0.8508,0.1492	-1084.18
0.9053,0.0947	-1082.46
0.9515,0.0485	-1082.80
0.5667,0.4333	-1085.08
0.7229,0.2771	-1084.08
0.4844,0.5156	-1086.54
0.8387,0.1613	-1084.12
0.9026,0.0974	-1082.45
0.9536,0.0464	-1082.83
0.5025,0.4975	-1086.40
0.7145,0.2855	-1082.28
0.5432,0.4568	-1086.54
0.8188,0.1812	-1082.54
0.8980,0.1020	-1082.44
0.9521,0.0479	-1082.80
0.5117,0.4883	-1086.15
0.7471,0.2529	-1085.10
0.5565,0.4435	-1085.94
0.8106,0.1894	-1082.57
0.9140,0.0860	-1082.49
0.9378,0.0622	-1085.36
0.5058,0.4942	-1086.35
0.7657,0.2343	-1083.99
0.6258,0.3742	-1085.20
0.8384,0.1616	-1082.47
0.9060,0.0940	-1082.46
0.9456,0.0544	-1082.72
0.5374,0.4626	-1085.77
0.6956,0.3044	-1083.37
0.6621,0.3379	-1085.74
0.8625,0.1375	-1087.93
0.9032,0.0968	-1080.22
0.9338,0.0662	-1082.61
0.5227,0.4773	-1086.19
0.6895,0.3105	-1085.03
0.6804,0.3196	-1084.28
0.8692,0.1308	-1082.42
0.9073,0.0927	-1084.75
0.9319,0.0681	-1079.98
0.5231,0.4769	-1086.00
0.6826,0.3174	-1083.50
0.6462,0.3538	-1084.52
0.8747,0.1253	-1082.42
0.9093,0.0907	-1082.47
0.9272,0.0728	-1080.02
0.5489,0.4511	-1086.18
0.7085,0.2915	-1084.14
0.6538,0.3462	-1083.82
0.8436,0.1564	-1082.46
0.8994,0.1006	-1086.83
0.9024,0.0976	-1080.23
0.5476,0.4524	-1085.61
0.6617,0.3383	-1083.73
0.6632,0.3368	-1083.71
0.8390,0.1610	-1082.47
0.8964,0.1036	-1080.28
0.9177,0.0823	-1084.92
0.6158,0.3842	-1085.26
0.6691,0.3309	-1086.46
0.6345,0.3655	-1085.16
0.8256,0.1744	-1080.96
0.9209,0.0791	-1080.07
0.9136,0.0864	-1080.13
0.6280,0.3720	-1085.19
0.6980,0.3020	-1085.03
0.7012,0.2988	-1085.03
0.8295,0.1705	-1085.66
0.9223,0.0777	-1085.00
0.9198,0.0802	-1082.52
0.6897,0.3103	-1085.83
0.6583,0.3417	-1084.42
0.7253,0.2747	-1085.05
0.8180,0.1820	-1082.54
0.9437,0.0563	-1079.88
0.9059,0.0941	-1084.73
0.7224,0.2776	-1084.09
0.6828,0.3172	-1082.73
0.6633,0.3367	-1083.71
0.8245,0.1755	-1080.97
0.9372,0.0628	-1085.34
0.8929,0.1071	-1080.31
0.7434,0.2566	-1084.03
0.7014,0.2986	-1084.17
0.6727,0.3273	-1085.05
0.8317,0.1683	-1084.09
0.9379,0.0621	-1079.93
0.8699,0.1301	-1080.52
0.7212,0.2788	-1085.99
0.6734,0.3266	-1085.05
0.7013,0.2987	-1085.03
0.8086,0.1914	-1084.02
0.9531,0.0469	-1082.82
0.8797,0.1203	-1080.43
0.6737,0.3263	-1082.87
0.6803,0.3197	-1084.28
0.6401,0.3599	-1086.29
0.8314,0.1686	-1087.28
0.9512,0.0488	-1079.82
0.8845,0.1155	-1080.39
0.6821,0.3179	-1085.03
0.6183,0.3817	-1084.28
0.6639,0.3361	-1085.07
0.8252,0.1748	-1082.51
0.9553,0.0447	-1082.85
0.8721,0.1279	-1080.50
0.7054,0.2946	-1085.03
0.6588,0.3412	-1083.11
0.6026,0.3974	-1085.33
0.8488,0.1512	-1080.72
0.9625,0.0375	-1079.73
0.8373,0.1627	-1082.48
0.7002,0.2998	-1085.03
0.6286,0.3714	-1084.14
0.6221,0.3779	-1084.22
0.8388,0.1612	-1082.47
0.9642,0.0358	-1079.72
0.8513,0.1487	-1084.19
0.7043,0.2957	-1084.16
0.6186,0.3814	-1084.76
0.5942,0.4058	-1085.39
0.8633,0.1367	-1082.43
0.9650,0.0350	-1079.71
0.8503,0.1497	-1080.71
0.7073,0.2927	-1085.03
0.5794,0.4206	-1085.50
0.5516,0.4484	-1085.97
0.8873,0.1127	-1082.42
0.9613,0.0387	-1082.96
0.8250,0.1750	-1084.06
0.7581,0.2419	-1085.14
0.5969,0.4031	-1086.16
0.5061,0.4939	-1086.40
0.8867,0.1133	-1080.37
0.9590,0.0410	-1079.76
0.8300,0.1700	-1082.50
0.7612,0.2388	-1085.16
0.6185,0.3815	-1084.76
0.5026,0.4974	-1086.40
0.9036,0.0964	-1084.69
0.9552,0.0448	-1082.85
0.8326,0.1674	-1080.88
0.7855,0.2145	-1082.69
0.6655,0.3345	-1084.38
0.4932,0.5068	-1086.52
0.9172,0.0828	-1087.31
0.9548,0.0452	-1079.79
0.8199,0.1801	-1082.53
0.7955,0.2045	-1081.28
0.6935,0.3065	-1085.84
0.4904,0.5096	-1086.49
0.8978,0.1022	-1082.44
0.9564,0.0436	-1079.78
0.8137,0.1863	-1082.56
0.8091,0.1909	-1084.02
0.7212,0.2788	-1084.09
0.4873,0.5127	-1086.51
0.9066,0.0934	-1080.19
0.9664,0.0336	-1079.70
0.8527,0.1473	-1080.68
0.8453,0.1547	-1082.46
0.6956,0.3044	-1085.03
0.5392,0.4608	-1085.90
0.9021,0.0979	-1080.23
0.9700,0.0300	-1079.68
0.8778,0.1222	-1080.45
0.8449,0.1551	-1084.15
0.7012,0.2988	-1085.03
0.5216,0.4784	-1086.28
0.9019,0.0981	-1080.23
0.9680,0.0320	-1083.10
0.8962,0.1038	-1080.28
0.8545,0.1455	-1080.67
0.7161,0.2839	-1083.18
0.5489,0.4511	-1086.38
0.8940,0.1060	-1084.56
0.9710,0.0290	-1079.67
0.9087,0.0913	-1080.17
0.8480,0.1520	-1080.73
0.7491,0.2509	-1081.83
0.4963,0.5037	-1086.45
0.8925,0.1075	-1080.31
0.9678,0.0322	-1079.69
0.8833,0.1167	-1086.47
0.8710,0.1290	-1082.42
0.7659,0.2341	-1083.99
0.5435,0.4565	-1086.02
0.8918,0.1082	-1080.32
0.9696,0.0304	-1079.68
0.8872,0.1128	-1084.49
0.8549,0.1451	-1080.66
0.7422,0.2578	-1082.97
0.5308,0.4692	-1085.99
0.8576,0.1424	-1080.64
0.9681,0.0319	-1079.69
0.8884,0.1116	-1084.50
0.8718,0.1282	-1088.17
0.7528,0.2472	-1084.01
0.5019,0.4981	-1086.38
0.8787,0.1213	-1082.42
0.9732,0.0268	-1079.65
0.8963,0.1037	-1086.75
0.8906,0.1094	-1084.52
0.7609,0.2391	-1084.00
0.5220,0.4780	-1086.28
0.8829,0.1171	-1082.42
0.9738,0.0262	-1079.65
0.9140,0.0860	-1080.13
0.8837,0.1163	-1082.42
0.8059,0.1941	-1084.01
0.4874,0.5126	-1086.56
0.8637,0.1363	-1084.27
0.9664,0.0336	-1079.70
0.9199,0.0801	-1084.96
0.8962,0.1038	-1082.44
0.7848,0.2152	-1085.28
0.4482,0.5518	-1086.51
0.8785,0.1215	-1084.40
0.9594,0.0406	-1079.76
0.9400,0.0600	-1079.91
0.8742,0.1258	-1080.48
0.7746,0.2254	-1086.46
0.4676,0.5324	-1086.83
0.8742,0.1258	-1082.42
0.9541,0.0459	-1079.80
0.9443,0.0557	-1079.88
0.8764,0.1236	-1082.42
0.8023,0.1977	-1081.20
0.4784,0.5216	-1086.59
0.8858,0.1142	-1082.42
0.9556,0.0444	-1079.79
0.9488,0.0512	-1079.84
0.8699,0.1301	-1080.52
0.8168,0.1832	-1085.53
0.5090,0.4910	-1086.35
0.8895,0.1105	-1080.34
0.9502,0.0498	-1079.83
0.9579,0.0421	-1079.77
0.8726,0.1274	-1084.34
0.8028,0.1972	-1084.01
0.5493,0.4507	-1085.78
0.8879,0.1121	-1082.42
0.9526,0.0474	-1082.81
0.9499,0.0501	-1079.83
0.8919,0.1081	-1080.32
0.7734,0.2266	-1083.99
0.5722,0.4278	-1085.57
0.8870,0.1130	-1082.42
0.9590,0.0410	-1079.76
0.9461,0.0539	-1079.86
0.8823,0.1177	-1082.42
0.7631,0.2369	-1085.17
0.5858,0.4142	-1085.11
0.8838,0.1162	-1082.42
0.9708,0.0292	-1079.67
0.9455,0.0545	-1079.87
0.9153,0.0847	-1082.50
0.7636,0.2364	-1081.65
0.6298,0.3702	-1084.65
0.9064,0.0936	-1080.19
0.9685,0.0315	-1079.69
0.9519,0.0481	-1079.82
0.9287,0.0713	-1087.71
0.7940,0.2060	-1085.34
0.6136,0.3864	-1084.34
0.9115,0.0885	-1080.15
0.9704,0.0296	-1079.67
0.9585,0.0415	-1079.76
0.9124,0.0876	-1080.14
0.7975,0.2025	-1084.00
0.5740,0.4260	-1085.55
0.9096,0.0904	-1082.47
0.9732,0.0268	-1079.65
0.9613,0.0387	-1079.74
0.9058,0.0942	-1080.20
0.8061,0.1939	-1084.01
0.5578,0.4422	-1085.23
0.9269,0.0731	-1082.56
0.9677,0.0323	-1079.69
0.9571,0.0429	-1082.88
0.9279,0.0721	-1082.56
0.7897,0.2103	-1085.31
0.6200,0.3800	-1085.23
0.9243,0.0757	-1082.54
0.9649,0.0351	-1083.03
0.9556,0.0444	-1079.79
0.9314,0.0686	-1079.98
0.7461,0.2539	-1086.18
0.6704,0.3296	-1085.05
0.9170,0.0830	-1082.50
0.9732,0.0268	-1079.65
0.9617,0.0383	-1079.74
0.9328,0.0672	-1079.97
0.7938,0.2062	-1081.30
0.6497,0.3503	-1086.34
0.9103,0.0897	-1080.16
0.9719,0.0281	-1079.66
0.9596,0.0404	-1079.76
0.9157,0.0843	-1082.50
0.8045,0.1955	-1085.43
0.6678,0.3322	-1085.06
0.9213,0.0787	-1082.53
0.9675,0.0325	-1079.70
0.9535,0.0465	-1079.80
0.9185,0.0815	-1082.51
0.8043,0.1957	-1082.60
0.6127,0.3873	-1084.35
0.9311,0.0689	-1079.98
0.9662,0.0338	-1079.71
0.9617,0.0383	-1082.96
0.9141,0.0859	-1080.13
0.8232,0.1768	-1080.98
0.6091,0.3909	-1085.29
0.9295,0.0705	-1080.00
0.9708,0.0292	-1079.67
0.9578,0.0422	-1079.77
0.9181,0.0819	-1084.93
0.7793,0.2207	-1082.73
0.5312,0.4688	-1085.99
0.9131,0.0869	-1087.19
0.9709,0.0291	-1079.67
0.9679,0.0321	-1079.69
0.9230,0.0770	-1080.05
0.7733,0.2267	-1086.44
0.5521,0.4479	-1086.17
0.9241,0.0759	-1080.04
0.9668,0.0332	-1079.70
0.9655,0.0345	-1079.71
0.9246,0.0754	-1082.54
0.7581,0.2419	-1084.00
0.5605,0.4395	-1085.43
0.9155,0.0845	-1080.11
0.9724,0.0276	-1083.22
0.9700,0.0300	-1079.68
0.9247,0.0753	-1082.54
0.7881,0.2119	-1083.99
0.5686,0.4314	-1085.87
0.9122,0.0878	-1082.48
0.9761,0.0239	-1083.34
0.9681,0.0319	-1079.69
0.9162,0.0838	-1082.50
0.7684,0.2316	-1083.99
0.6448,0.3552	-1084.53
0.9094,0.0906	-1084.78
0.9734,0.0266	-1079.65
0.9612,0.0388	-1079.74
0.9246,0.0754	-1080.04
0.7595,0.2405	-1085.15
0.7008,0.2992	-1085.03
0.9111,0.0889	-1084.80
0.9780,0.0220	-1079.62
0.9684,0.0316	-1079.69
0.9372,0.0628	-1082.64
0.7700,0.2300	-1085.20
0.7239,0.2761	-1083.12
0.9043,0.0957	-1082.46
0.9704,0.0296	-1079.67
0.9655,0.0345	-1079.71
0.9297,0.0703	-1080.00
0.8001,0.1999	-1082.62
0.7190,0.2810	-1083.16
0.9123,0.0877	-1082.48
0.9677,0.0323	-1079.69
0.9632,0.0368	-1082.99
0.9362,0.0638	-1085.31
0.8199,0.1801	-1082.53
0.7351,0.2649	-1084.05
0.9291,0.0709	-1080.00
0.9697,0.0303	-1079.68
0.9681,0.0319	-1079.69
0.9228,0.0772	-1080.05
0.8429,0.1571	-1082.46
0.7478,0.2522	-1084.02
0.9258,0.0742	-1082.55
0.9669,0.0331	-1079.70
0.9719,0.0281	-1083.20
0.9200,0.0800	-1082.52
0.7867,0.2133	-1082.68
0.7458,0.2542	-1084.02
0.9157,0.0843	-1080.11
0.9644,0.0356	-1083.02
0.9772,0.0228	-1079.62
0.9272,0.0728	-1080.02
0.7880,0.2120	-1083.99
0.7385,0.2615	-1081.96
0.9085,0.0915	-1082.47
0.9719,0.0281	-1079.66
0.9798,0.0202	-1083.49
0.9231,0.0769	-1082.53
0.8304,0.1696	-1082.50
0.7578,0.2422	-1084.00
0.8857,0.1143	-1080.38
0.9775,0.0225	-1079.62
0.9774,0.0226	-1079.62
0.9296,0.0704	-1080.00
0.8344,0.1656	-1084.10
0.7993,0.2007	-1084.00
0.8611,0.1389	-1087.90
0.9724,0.0276	-1079.66
0.9750,0.0250	-1079.64
0.9351,0.0649	-1079.95
0.8230,0.1770	-1085.59
0.8168,0.1832	-1082.54
0.8797,0.1203	-1084.41
0.9707,0.0293	-1079.67
0.9673,0.0327	-1079.70
0.9249,0.0751	-1080.03
0.8256,0.1744	-1082.51
0.7998,0.2002	-1081.23
0.8821,0.1179	-1082.42
0.9721,0.0279	-1079.66
0.9748,0.0252	-1079.64
0.9171,0.0829	-1084.91
0.8044,0.1956	-1085.42
0.8083,0.1917	-1081.14
0.8612,0.1388	-1082.43
0.9690,0.0310	-1079.68
0.9719,0.0281	-1083.21
0.9200,0.0800	-1082.52
0.8270,0.1730	-1080.94
0.7874,0.2126	-1085.30
0.8491,0.1509	-1080.72
0.9674,0.0326	-1083.09
0.9759,0.0241	-1079.63
0.8991,0.1009	-1084.63
0.7890,0.2110	-1085.31
0.8006,0.1994	-1084.00
0.8724,0.1276	-1080.50
0.9655,0.0345	-1079.71
0.9742,0.0258	-1079.64
0.9033,0.0967	-1082.45
0.7861,0.2139	-1083.99
0.7913,0.2087	-1083.99
0.8727,0.1273	-1080.49
0.9603,0.0397	-1079.75
0.9768,0.0232	-1079.63
0.9155,0.0845	-1082.50
0.7777,0.2223	-1082.74
0.8086,0.1914	-1082.58
0.8688,0.1312	-1082.42
0.9554,0.0446	-1079.79
0.9756,0.0244	-1083.32
0.9193,0.0807	-1080.08
0.7890,0.2110	-1083.99
0.8133,0.1867	-1084.03
0.8802,0.1198	-1084.41
0.9496,0.0504	-1082.77
0.9715,0.0285	-1083.19
0.9270,0.0730	-1080.02
0.8118,0.1882	-1082.56
0.8132,0.1868	-1085.50
0.8781,0.1219	-1080.44
0.9415,0.0585	-1082.68
0.9736,0.0264	-1079.65
0.9284,0.0716	-1080.01
0.8070,0.1930	-1086.88
0.8721,0.1279	-1082.42
0.8853,0.1147	-1084.47
0.9446,0.0554	-1079.87
0.9756,0.0244	-1079.63
0.9410,0.0590	-1079.90
0.8444,0.1556	-1082.46
0.8516,0.1484	-1080.70
0.9024,0.0976	-1080.23
0.9346,0.0654	-1079.95
0.9713,0.0287	-1079.67
0.9283,0.0717	-1080.01
0.8592,0.1408	-1082.43
0.8366,0.1634	-1084.11
0.8642,0.1358	-1080.57
0.9282,0.0718	-1082.57
0.9742,0.0258	-1079.64
0.9381,0.0619	-1079.93
0.8787,0.1213	-1084.40
0.8414,0.1586	-1082.46
0.8508,0.1492	-1082.44
0.9203,0.0797	-1082.52
0.9721,0.0279	-1083.21
0.9361,0.0639	-1079.94
0.8602,0.1398	-1087.88
0.8791,0.1209	-1082.42
0.8204,0.1796	-1081.01
0.9068,0.0932	-1082.46
0.9665,0.0335	-1079.70
0.9237,0.0763	-1085.03
0.8997,0.1003	-1082.44
0.8676,0.1324	-1082.42
0.8215,0.1785	-1081.00
0.9078,0.0922	-1084.75
0.9650,0.0350	-1079.71
0.9509,0.0491	-1082.79
0.8993,0.1007	-1082.44
0.8577,0.1423	-1082.43
0.7928,0.2072	-1085.34
0.8746,0.1254	-1080.48
0.9656,0.0344	-1083.05
0.9506,0.0494	-1079.83
0.8997,0.1003	-1080.25
0.8063,0.1937	-1084.01
0.8160,0.1840	-1084.04
0.8575,0.1425	-1086.02
0.9734,0.0266	-1079.65
0.9553,0.0447	-1079.79
0.9276,0.0724	-1080.01
0.8338,0.1662	-1085.71
0.8488,0.1512	-1085.90
0.8500,0.1500	-1080.71
0.9698,0.0302	-1083.15
0.9602,0.0398	-1079.75
0.9344,0.0656	-1082.61
0.8268,0.1732	-1082.51
0.8505,0.1495	-1084.18
0.8121,0.1879	-1082.56
0.9719,0.0281	-1083.21
0.9588,0.0412	-1079.76
0.9278,0.0722	-1080.01
0.8125,0.1875	-1082.56
0.8616,0.1384	-1089.74
0.7586,0.2414	-1084.00
0.9735,0.0265	-1079.65
0.9607,0.0393	-1079.75
0.9325,0.0675	-1082.60
0.8232,0.1768	-1084.06
0.8642,0.1358	-1082.42
0.7952,0.2048	-1085.35
0.9748,0.0252	-1079.64
0.9564,0.0436	-1079.78
0.9273,0.0727	-1080.01
0.8448,0.1552	-1082.46
0.8859,0.1141	-1082.42
0.7962,0.2038	-1084.00
0.9716,0.0284	-1079.66
0.9564,0.0436	-1079.78
0.9321,0.0679	-1082.59
0.8489,0.1511	-1089.35
0.8487,0.1513	-1082.45
0.7724,0.2276	-1083.99
0.9720,0.0280	-1079.66
0.9536,0.0464	-1085.85
0.9464,0.0536	-1082.73
0.8430,0.1570	-1085.82
0.8660,0.1340	-1080.56
0.7298,0.2702	-1083.07
0.9698,0.0302	-1079.68
0.9592,0.0408	-1082.92
0.9447,0.0553	-1079.87
0.8432,0.1568	-1080.78
0.8525,0.1475	-1082.44
0.7387,0.2613	-1084.04
0.9710,0.0290	-1079.67
0.9664,0.0336	-1079.70
0.9429,0.0571	-1079.89
0.8163,0.1837	-1084.04
0.8716,0.1284	-1080.50
0.7451,0.2549	-1085.10
0.9678,0.0322	-1079.69
0.9643,0.0357	-1079.72
0.9407,0.0593	-1079.91
0.7988,0.2012	-1082.62
0.8773,0.1227	-1084.39
0.7443,0.2557	-1086.16
0.9627,0.0373	-1079.73
0.9661,0.0339	-1079.71
0.9449,0.0551	-1079.87
0.8376,0.1624	-1082.47
0.8904,0.1096	-1084.52
0.7523,0.2477	-1086.23
0.9665,0.0335	-1083.06
0.9685,0.0315	-1079.69
0.9599,0.0401	-1082.93
0.8595,0.1405	-1080.62
0.8897,0.1103	-1080.34
0.7655,0.2345	-1082.81
0.9589,0.0411	-1079.76
0.9640,0.0360	-1079.72
0.9512,0.0488	-1079.82
0.8743,0.1257	-1084.36
0.9143,0.0857	-1082.49
0.7992,0.2008	-1084.00
0.9567,0.0433	-1082.87
0.9640,0.0360	-1083.01
0.9485,0.0515	-1082.76
0.8682,0.1318	-1082.42
0.9281,0.0719	-1080.01
0.8103,0.1897	-1082.57
0.9660,0.0340	-1083.05
0.9657,0.0343	-1079.71
0.9510,0.0490	-1079.82
0.8546,0.1454	-1084.21
0.9371,0.0629	-1079.93
0.7851,0.2149	-1083.99
0.9611,0.0389	-1079.74
0.9680,0.0320	-1079.69
0.9424,0.0576	-1079.89
0.8577,0.1423	-1084.23
0.9401,0.0599	-1079.91
0.7594,0.2406	-1084.00
0.9670,0.0330	-1079.70
0.9638,0.0362	-1083.01
0.9432,0.0568	-1079.88
0.8854,0.1146	-1082.42
0.9222,0.0778	-1080.06
0.7525,0.2475	-1082.90
0.9700,0.0300	-1079.68
0.9674,0.0326	-1079.70
0.9249,0.0751	-1080.03
0.8947,0.1053	-1084.57
0.9243,0.0757	-1085.04
0.7502,0.2498	-1082.91
0.9690,0.0310	-1079.68
0.9689,0.0311	-1079.68
0.9201,0.0799	-1082.52
0.8914,0.1086	-1080.32
0.9067,0.0933	-1080.19
0.7822,0.2178	-1081.43
0.9641,0.0359	-1079.72
0.9711,0.0289	-1083.18
0.9192,0.0808	-1080.08
0.9094,0.0906	-1084.78
0.9198,0.0802	-1080.08
0.7798,0.2202	-1085.25
0.9662,0.0338	-1083.06
0.9759,0.0241	-1079.63
0.9281,0.0719	-1080.01
0.9164,0.0836	-1082.50
0.8967,0.1033	-1082.44
0.7909,0.2091	-1083.99
0.9701,0.0299	-1083.16
0.9797,0.0203	-1079.60
0.9311,0.0689	-1079.98
0.9263,0.0737	-1082.55
0.8933,0.1067	-1080.31
0.7414,0.2586	-1082.98
0.9658,0.0342	-1079.71
0.9810,0.0190	-1083.54
0.9395,0.0605	-1079.92
0.9219,0.0781	-1080.06
0.9028,0.0972	-1082.45
0.7022,0.2978	-1084.17
0.9636,0.0364	-1079.73
0.9779,0.0221	-1079.62
0.9455,0.0545	-1082.72
0.9086,0.0914	-1080.17
0.9068,0.0932	-1080.19
0.6883,0.3117	-1085.82
0.9583,0.0417	-1082.90
0.9801,0.0199	-1083.50
0.9477,0.0523	-1079.85
0.9191,0.0809	-1080.08
0.9159,0.0841	-1082.50
0.7563,0.2437	-1085.14
0.9420,0.0580	-1079.89
0.9734,0.0266	-1079.65
0.9319,0.0681	-1079.98
0.9323,0.0677	-1079.97
0.9318,0.0682	-1079.98
0.7033,0.2967	-1086.75
0.9371,0.0629	-1079.93
0.9817,0.0183	-1083.57
0.9441,0.0559	-1079.88
0.9220,0.0780	-1085.00
0.9393,0.0607	-1082.66
0.7113,0.2887	-1084.13
0.9141,0.0859	-1082.49
0.9813,0.0187	-1083.55
0.9507,0.0493	-1082.78
0.9287,0.0713	-1082.57
0.9428,0.0572	-1079.89
0.7034,0.2966	-1083.30
0.9112,0.0888	-1082.48
0.9764,0.0236	-1079.63
0.9529,0.0471	-1079.81
0.9171,0.0829	-1082.50
0.9394,0.0606	-1082.66
0.7639,0.2361	-1082.82
0.8851,0.1149	-1082.42
0.9808,0.0192	-1079.60
0.9393,0.0607	-1082.66
0.9385,0.0615	-1082.65
0.9451,0.0549	-1079.87
0.7690,0.2310	-1082.79
0.8757,0.1243	-1080.47
0.9836,0.0164	-1079.57
0.9179,0.0821	-1084.92
0.9433,0.0567	-1079.88
0.9237,0.0763	-1082.54
0.7376,0.2624	-1084.04
0.8706,0.1294	-1080.51
0.9832,0.0168	-1079.58
0.9226,0.0774	-1082.53
0.9465,0.0535	-1079.86
0.9204,0.0796	-1080.07
0.7430,0.2570	-1082.97
0.8557,0.1443	-1080.66
0.9829,0.0171	-1079.58
0.9166,0.0834	-1082.50
0.9359,0.0641	-1082.63
0.9217,0.0783	-1082.53
0.7217,0.2783	-1085.99
0.8588,0.1412	-1084.24
0.9848,0.0152	-1079.57
0.9236,0.0764	-1080.05
0.9265,0.0735	-1082.56
0.9280,0.0720	-1082.57
0.6846,0.3154	-1087.36
0.8488,0.1512	-1080.72
0.9841,0.0159	-1079.57
0.9280,0.0720	-1080.01
0.9203,0.0797	-1082.52
0.9377,0.0623	-1082.64
0.6717,0.3283	-1086.48
0.8217,0.1783	-1082.53
0.9846,0.0154	-1083.73
0.9273,0.0727	-1080.01
0.9065,0.0935	-1080.19
0.9329,0.0671	-1079.97
0.6844,0.3156	-1085.03
0.8439,0.1561	-1082.46
0.9873,0.0127	-1083.90
0.9541,0.0459	-1079.80
0.8995,0.1005	-1080.25
0.9339,0.0661	-1079.96
0.6479,0.3521	-1085.72
0.8340,0.1660	-1084.10
0.9870,0.0130	-1083.88
0.9447,0.0553	-1079.87
0.8883,0.1117	-1080.35
0.9406,0.0594	-1079.91
0.6535,0.3465	-1086.36
0.8167,0.1833	-1085.53
0.9866,0.0134	-1079.55
0.9316,0.0684	-1082.59
0.8805,0.1195	-1080.42
0.9312,0.0688	-1082.59
0.6363,0.3637	-1085.72
0.8577,0.1423	-1080.64
0.9825,0.0175	-1083.61
0.9291,0.0709	-1087.72
0.8541,0.1459	-1082.44
0.9401,0.0599	-1079.91
0.6144,0.3856	-1085.73
0.8604,0.1396	-1082.43
0.9801,0.0199	-1083.50
0.9312,0.0688	-1082.59
0.8434,0.1566	-1080.78
0.9466,0.0534	-1079.86
0.5982,0.4018	-1086.16
0.8169,0.1831	-1084.04
0.9812,0.0188	-1079.59
0.9218,0.0782	-1082.53
0.8665,0.1335	-1080.55
0.9567,0.0433	-1079.78
0.5571,0.4429	-1085.70
0.8337,0.1663	-1082.49
0.9870,0.0130	-1079.55
0.9227,0.0773	-1082.53
0.8526,0.1474	-1084.20
0.9644,0.0356	-1079.72
0.6042,0.3958	-1085.32
0.8311,0.1689	-1082.49
0.9869,0.0131	-1083.87
0.9270,0.0730	-1080.02
0.8447,0.1553	-1080.76
0.9688,0.0312	-1079.69
0.6763,0.3237	-1084.31
0.8073,0.1927	-1084.02
0.9836,0.0164	-1079.58
0.9305,0.0695	-1082.58
0.8751,0.1249	-1082.42
0.9707,0.0293	-1083.17
0.7048,0.2952	-1085.03
0.7780,0.2220	-1085.24
0.9817,0.0183	-1079.59
0.9081,0.0919	-1080.18
0.8652,0.1348	-1082.42
0.9658,0.0342	-1079.71
0.6881,0.3119	-1083.45
0.7432,0.2568	-1085.09
0.9861,0.0139	-1079.56
0.9146,0.0854	-1080.12
0.8827,0.1173	-1082.42
0.9669,0.0331	-1079.70
0.7113,0.2887	-1085.03
0.7015,0.2985	-1085.03
0.9856,0.0144	-1079.56
0.9305,0.0695	-1082.58
0.8825,0.1175	-1082.42
0.9670,0.0330	-1079.70
0.6922,0.3078	-1084.22
0.7228,0.2772	-1083.13
0.9882,0.0118	-1079.54
0.9281,0.0719	-1080.01
0.8909,0.1091	-1084.53
0.9682,0.0318	-1079.69
0.7293,0.2707	-1083.07
0.7307,0.2693	-1084.06
0.9850,0.0150	-1079.56
0.9277,0.0723	-1080.01
0.9185,0.0815	-1080.09
0.9729,0.0271	-1079.65
0.7489,0.2511	-1085.11
0.7467,0.2533	-1085.10
0.9856,0.0144	-1079.56
0.9199,0.0801	-1080.08
0.9269,0.0731	-1080.02
0.9764,0.0236	-1079.63
0.7686,0.2314	-1081.59
0.7891,0.2109	-1082.67
0.9817,0.0183	-1079.59
0.9325,0.0675	-1079.97
0.9304,0.0696	-1079.99
0.9742,0.0258	-1079.64
0.8044,0.1956	-1082.60
0.7916,0.2084	-1083.99
0.9827,0.0173	-1083.62
0.9173,0.0827	-1080.10
0.9328,0.0672	-1079.97
0.9787,0.0213	-1079.61
0.7936,0.2064	-1081.30
0.7532,0.2468	-1086.24
0.9805,0.0195	-1083.52
0.8979,0.1021	-1082.44
0.9429,0.0571	-1082.69
0.9822,0.0178	-1083.60
0.8053,0.1947	-1082.59
0.7929,0.2071	-1085.34
0.9855,0.0145	-1079.56
0.8766,0.1234	-1082.42
0.9334,0.0666	-1079.96
0.9843,0.0157	-1079.57
0.8175,0.1825	-1085.54
0.8128,0.1872	-1082.56
0.9880,0.0120	-1079.54
0.8480,0.1520	-1080.73
0.9364,0.0636	-1079.94
0.9823,0.0177	-1079.58
0.7780,0.2220	-1085.24
0.8312,0.1688	-1080.90
0.9870,0.0130	-1083.88
0.8471,0.1529	-1082.45
0.9511,0.0489	-1079.82
0.9836,0.0164	-1079.57
0.7926,0.2074	-1085.33
0.8102,0.1898	-1084.02
0.9850,0.0150	-1079.56
0.7930,0.2070	-1083.99
0.9459,0.0541	-1082.73
0.9850,0.0150	-1079.56
0.7267,0.2733	-1085.05
0.7963,0.2037	-1082.63
0.9833,0.0167	-1079.58
0.8144,0.1856	-1084.03
0.9428,0.0572	-1079.89
0.9837,0.0163	-1083.67
0.7503,0.2497	-1084.01
0.7974,0.2026	-1082.63
0.9838,0.0162	-1079.57
0.8119,0.1881	-1085.49
0.9289,0.0711	-1080.00
0.9835,0.0165	-1079.58
0.7445,0.2555	-1084.02
0.7755,0.2245	-1083.99
0.9816,0.0184	-1079.59
0.8035,0.1965	-1082.60
0.9232,0.0768	-1080.05
0.9855,0.0145	-1079.56
0.7677,0.2323	-1082.80
0.7611,0.2389	-1084.00
0.9822,0.0178	-1079.59
0.7930,0.2070	-1082.65
0.9000,0.1000	-1080.25
0.9765,0.0235	-1079.63
0.7120,0.2880	-1082.32
0.7839,0.2161	-1086.57
0.9868,0.0132	-1079.55
0.8099,0.1901	-1084.02
0.8926,0.1074	-1080.31
0.9685,0.0315	-1079.69
0.7277,0.2723	-1083.09
0.7888,0.2112	-1085.31
0.9898,0.0102	-1079.53
0.8019,0.1981	-1085.40
0.8874,0.1126	-1080.36
0.9714,0.0286	-1079.67
0.7244,0.2756	-1083.11
0.7879,0.2121	-1086.61
0.9908,0.0092	-1079.52
0.8194,0.1806	-1084.05
0.9079,0.0921	-1080.18
0.9755,0.0245	-1083.32
0.7372,0.2628	-1083.01
0.7797,0.2203	-1082.72
0.9866,0.0134	-1079.55
0.8243,0.1757	-1084.06
0.9304,0.0696	-1082.58
0.9785,0.0215	-1079.61
0.7632,0.2368	-1082.83
0.7723,0.2277	-1081.55
0.9867,0.0133	-1079.55
0.8047,0.1953	-1081.18
0.9286,0.0714	-1082.57
0.9782,0.0218	-1079.61
0.7959,0.2041	-1082.64
0.7664,0.2336	-1082.80
0.9855,0.0145	-1079.56
0.8226,0.1774	-1080.99
0.9074,0.0926	-1082.47
0.9808,0.0192	-1079.60
0.8061,0.1939	-1081.16
0.7216,0.2784	-1083.14
0.9885,0.0115	-1079.54
0.8444,0.1556	-1082.46
0.9198,0.0802	-1082.52
0.9804,0.0196	-1079.60
0.8177,0.1823	-1082.54
0.6905,0.3095	-1085.83
0.9884,0.0116	-1079.54
0.8521,0.1479	-1080.69
0.9294,0.0706	-1080.00
0.9842,0.0158	-1079.57
0.8216,0.1784	-1085.58
0.6859,0.3141	-1085.03
0.9890,0.0110	-1084.03
0.8848,0.1152	-1080.38
0.9235,0.0765	-1080.05
0.9821,0.0179	-1079.59
0.8306,0.1694	-1084.08
0.6884,0.3116	-1085.03
0.9898,0.0102	-1079.53
0.8852,0.1148	-1084.46
0.9252,0.0748	-1082.55
0.9819,0.0181	-1079.59
0.8175,0.1825	-1085.54
0.6230,0.3770	-1085.22
0.9875,0.0125	-1083.91
0.9015,0.0985	-1082.45
0.9265,0.0735	-1085.09
0.9779,0.0221	-1079.62
0.7972,0.2028	-1084.00
0.5656,0.4344	-1085.62
0.9886,0.0114	-1079.54
0.9038,0.0962	-1080.21
0.9379,0.0621	-1079.93
0.9784,0.0216	-1079.61
0.8206,0.1794	-1082.53
0.5834,0.4166	-1085.47
0.9875,0.0125	-1079.55
0.8976,0.1024	-1082.44
0.9331,0.0669	-1079.97
0.9756,0.0244	-1079.63
0.7945,0.2055	-1084.00
0.6254,0.3746	-1085.72
0.9901,0.0099	-1079.53
0.8997,0.1003	-1082.44
0.9303,0.0697	-1079.99
0.9793,0.0207	-1079.61
0.7902,0.2098	-1083.99
0.6816,0.3184	-1083.51
0.9920,0.0080	-1079.51
0.8960,0.1040	-1082.44
0.9548,0.0452	-1079.79
0.9773,0.0227	-1079.62
0.7847,0.2153	-1082.70
0.7155,0.2845	-1085.03
0.9919,0.0081	-1079.51
0.9077,0.0923	-1080.18
0.9477,0.0523	-1082.75
0.9756,0.0244	-1083.32
0.7978,0.2022	-1085.37
0.6905,0.3095	-1085.03
0.9890,0.0110	-1079.54
0.8840,0.1160	-1082.42
0.9297,0.0703	-1080.00
0.9810,0.0190	-1079.59
0.8098,0.1902	-1084.02
0.7021,0.2979	-1085.88
0.9876,0.0124	-1079.55
0.8943,0.1057	-1084.57
0.9318,0.0682	-1085.21
0.9811,0.0189	-1079.59
0.7705,0.2295	-1083.99
0.7318,0.2682	-1082.05
0.9898,0.0102	-1079.53
0.8947,0.1053	-1080.29
0.9241,0.0759	-1085.04
0.9785,0.0215	-1083.43
0.7666,0.2334	-1082.80
0.7026,0.2974	-1084.17
0.9873,0.0127	-1079.55
0.8999,0.1001	-1082.44
0.9472,0.0528	-1079.85
0.9787,0.0213	-1087.26
0.7604,0.2396	-1085.15
0.7311,0.2689	-1084.06
0.9855,0.0145	-1079.56
0.8853,0.1147	-1082.42
0.9359,0.0641	-1079.94
0.9760,0.0240	-1079.63
0.7354,0.2646	-1083.02
0.7463,0.2537	-1085.10
0.9831,0.0169	-1079.58
0.8565,0.1435	-1084.22
0.9472,0.0528	-1082.74
0.9730,0.0270	-1083.24
0.7052,0.2948	-1084.15
0.7524,0.2476	-1084.01
0.9799,0.0201	-1079.60
0.8458,0.1542	-1080.75
0.9392,0.0608	-1079.92
0.9628,0.0372	-1079.73
0.6595,0.3405	-1083.76
0.7522,0.2478	-1084.01
0.9826,0.0174	-1079.58
0.8273,0.1727	-1085.64
0.9411,0.0589	-1079.90
0.9631,0.0369	-1082.99
0.6818,0.3182	-1083.51
0.7571,0.2429	-1084.00
0.9815,0.0185	-1079.59
0.8301,0.1699	-1084.08
0.9506,0.0494	-1079.83
0.9654,0.0346	-1079.71
0.7245,0.2755	-1083.11
0.7600,0.2400	-1082.85
0.9795,0.0205	-1079.61
0.7945,0.2055	-1081.29
0.9456,0.0544	-1082.72
0.9652,0.0348	-1079.71
0.7516,0.2484	-1082.90
0.7183,0.2817	-1084.10
0.9844,0.0156	-1079.57
0.8009,0.1991	-1082.61
0.9546,0.0454	-1085.89
0.9539,0.0461	-1079.80
0.6940,0.3060	-1085.84
0.7249,0.2751	-1086.99
0.9857,0.0143	-1079.56
0.8062,0.1938	-1082.59
0.9508,0.0492	-1079.83
0.9495,0.0505	-1079.84
0.6716,0.3284	-1084.33
0.7309,0.2691	-1084.06
0.9857,0.0143	-1079.56
0.7954,0.2046	-1084.00
0.9561,0.0439	-1079.78
0.9515,0.0485	-1085.77
0.6775,0.3225	-1086.53
0.7413,0.2587	-1082.98
0.9816,0.0184	-1083.57
0.8054,0.1946	-1081.17
0.9541,0.0459	-1079.80
0.9412,0.0588	-1079.90
0.5843,0.4157	-1085.46
0.7382,0.2618	-1087.15
0.9828,0.0172	-1079.58
0.8060,0.1940	-1082.59
0.9460,0.0540	-1082.73
0.9444,0.0556	-1082.71
0.5571,0.4429	-1085.93
0.7619,0.2381	-1085.16
0.9792,0.0208	-1079.61
0.8187,0.1813	-1082.54
0.9542,0.0458	-1079.80
0.9328,0.0672	-1079.97
0.5635,0.4365	-1086.41
0.7678,0.2322	-1083.99
0.9758,0.0242	-1079.63
0.7971,0.2029	-1081.26
0.9383,0.0617	-1079.92
0.9441,0.0559	-1079.88
0.6358,0.3642	-1085.72
0.7616,0.2384	-1082.84
0.9744,0.0256	-1079.64
0.8047,0.1953	-1082.59
0.9584,0.0416	-1079.77
0.9432,0.0568	-1079.89
0.7043,0.2957	-1083.29
0.7885,0.2115	-1082.67
0.9789,0.0211	-1079.61
0.7974,0.2026	-1082.63
0.9594,0.0406	-1082.92
0.9299,0.0701	-1082.58
0.6776,0.3224	-1085.04
0.7950,0.2050	-1082.64
0.9737,0.0263	-1079.65
0.8134,0.1866	-1081.08
0.9595,0.0405	-1079.76
0.9281,0.0719	-1082.57
0.6648,0.3352	-1083.70
0.8396,0.1604	-1084.12
0.9730,0.0270	-1079.65
0.8133,0.1867	-1082.56
0.9670,0.0330	-1079.70
0.9238,0.0762	-1080.04
0.7099,0.2901	-1083.24
0.8608,0.1392	-1082.43
0.9692,0.0308	-1079.68
0.8303,0.1697	-1082.50
0.9560,0.0440	-1079.78
0.9199,0.0801	-1080.08
0.7699,0.2301	-1086.40
0.8765,0.1235	-1088.30
0.9667,0.0333	-1083.07
0.7885,0.2115	-1081.36
0.9594,0.0406	-1079.76
0.9233,0.0767	-1085.02
0.6841,0.3159	-1085.81
0.8626,0.1374	-1080.59
0.9686,0.0314	-1083.12
0.7762,0.2238	-1082.74
0.9597,0.0403	-1079.76
0.9378,0.0622	-1085.35
0.6847,0.3153	-1084.26
0.8802,0.1198	-1082.42
0.9734,0.0266	-1079.65
0.8186,0.1814	-1081.03
0.9526,0.0474	-1079.81
0.9281,0.0719	-1082.57
0.6975,0.3025	-1083.35
0.8722,0.1278	-1080.50
0.9670,0.0330	-1079.70
0.8097,0.1903	-1081.13
0.9479,0.0521	-1079.85
0.9130,0.0870	-1084.84
0.7027,0.2973	-1084.17
0.8729,0.1271	-1080.49
0.9665,0.0335	-1079.70
0.7941,0.2059	-1082.65
0.9339,0.0661	-1079.96
0.9138,0.0862	-1080.13
0.7134,0.2866	-1085.94
0.8851,0.1149	-1082.42
0.9595,0.0405	-1079.76
0.8324,0.1676	-1080.89
0.9457,0.0543	-1082.72
0.8997,0.1003	-1080.25
0.7496,0.2504	-1085.11
0.9069,0.0931	-1080.19
0.9617,0.0383	-1079.74
0.8346,0.1654	-1082.48
0.9538,0.0462	-1079.80
0.9228,0.0772	-1082.53
0.7446,0.2554	-1085.09
0.9089,0.0911	-1082.47
0.9680,0.0320	-1079.69
0.8570,0.1430	-1084.22
0.9605,0.0395	-1079.75
0.9323,0.0677	-1079.97
0.7412,0.2588	-1084.03
0.9089,0.0911	-1080.17
0.9595,0.0405	-1079.76
0.8539,0.1461	-1082.44
0.9515,0.0485	-1079.82
0.9312,0.0688	-1079.98
0.7178,0.2822	-1083.17
0.9046,0.0954	-1082.46
0.9613,0.0387	-1079.74
0.8640,0.1360	-1080.58
0.9566,0.0434	-1082.87
0.9281,0.0719	-1085.12
0.7074,0.2926	-1085.03
0.8995,0.1005	-1080.25
0.9619,0.0381	-1082.97
0.8391,0.1609	-1080.82
0.9561,0.0439	-1082.86
0.9357,0.0643	-1079.95
0.7302,0.2698	-1084.06
0.8946,0.1054	-1080.29
0.9618,0.0382	-1086.19
0.8319,0.1681	-1084.09
0.9653,0.0347	-1079.71
0.9460,0.0540	-1079.86
0.7684,0.2316	-1082.79
0.8831,0.1169	-1080.40
0.9553,0.0447	-1082.85
0.8447,0.1553	-1085.84
0.9707,0.0293	-1079.67
0.9531,0.0469	-1079.81
0.7763,0.2237	-1082.74
0.8902,0.1098	-1084.52
0.9424,0.0576	-1079.89
0.8421,0.1579	-1087.49
0.9746,0.0254	-1079.64
0.9493,0.0507	-1079.84
0.8102,0.1898	-1082.57
0.8899,0.1101	-1086.61
0.9242,0.0758	-1082.54
0.8573,0.1427	-1082.43
0.9771,0.0229	-1079.62
0.9589,0.0411	-1079.76
0.8423,0.1577	-1082.46
0.8951,0.1049	-1084.58
0.9106,0.0894	-1084.80
0.8516,0.1484	-1080.70
0.9722,0.0278	-1079.66
0.9563,0.0437	-1079.78
0.8415,0.1585	-1084.13
0.8934,0.1066	-1082.43
0.9149,0.0851	-1080.12
0.8455,0.1545	-1082.45
0.9732,0.0268	-1083.25
0.9613,0.0387	-1082.96
0.8364,0.1636	-1082.48
0.8927,0.1073	-1082.43
0.9030,0.0970	-1082.45
0.8552,0.1448	-1080.66
0.9749,0.0251	-1083.30
0.9628,0.0372	-1079.73
0.8553,0.1447	-1082.44
0.8836,0.1164	-1080.39
0.9138,0.0862	-1082.49
0.8430,0.1570	-1082.46
0.9758,0.0242	-1079.63
0.9662,0.0338	-1079.71
0.8459,0.1541	-1084.16
0.8871,0.1129	-1082.42
0.9144,0.0856	-1084.86
0.8624,0.1376	-1086.10
0.9794,0.0206	-1083.47
0.9695,0.0305	-1079.68
0.8474,0.1526	-1080.74
0.8812,0.1188	-1082.42
0.9294,0.0706	-1080.00
0.8711,0.1289	-1082.42
0.9813,0.0187	-1079.59
0.9715,0.0285	-1079.66
0.8687,0.1313	-1084.31
0.8783,0.1217	-1082.42
0.9124,0.0876	-1082.48
0.8598,0.1402	-1080.62
0.9798,0.0202	-1079.60
0.9704,0.0296	-1079.67
0.9063,0.0937	-1080.19
0.8856,0.1144	-1082.42
0.9207,0.0793	-1082.52
0.8747,0.1253	-1082.42
0.9812,0.0188	-1079.59
0.9628,0.0372	-1079.73
0.8928,0.1072	-1082.43
0.8939,0.1061	-1084.56
0.9286,0.0714	-1080.00
0.8679,0.1321	-1086.19
0.9812,0.0188	-1079.59
0.9649,0.0351	-1079.72
0.8914,0.1086	-1082.43
0.8960,0.1040	-1080.28
0.9386,0.0614	-1082.65
0.8698,0.1302	-1082.42
0.9727,0.0273	-1079.66
0.9661,0.0339	-1079.71
0.8573,0.1427	-1082.43
0.9108,0.0892	-1087.12
0.9216,0.0784	-1082.53
0.8599,0.1401	-1080.62
0.9678,0.0322	-1079.69
0.9695,0.0305	-1079.68
0.8405,0.1595	-1080.80
0.9312,0.0688	-1079.98
0.9170,0.0830	-1084.90
0.8374,0.1626	-1080.84
0.9656,0.0344	-1083.04
0.9721,0.0279	-1079.66
0.8119,0.1881	-1081.10
0.9264,0.0736	-1080.02
0.9170,0.0830	-1082.50
0.8321,0.1679	-1082.49
0.9672,0.0328	-1079.70
0.9706,0.0294	-1079.67
0.8261,0.1739	-1082.51
0.9296,0.0704	-1080.00
0.9283,0.0717	-1082.57
0.8030,0.1970	-1081.20
0.9697,0.0303	-1079.68
0.9740,0.0260	-1079.65
0.8208,0.1792	-1084.05
0.9223,0.0777	-1082.53
0.9375,0.0625	-1082.64
0.8243,0.1757	-1084.06
0.9709,0.0291	-1083.18
0.9752,0.0248	-1079.64
0.8210,0.1790	-1085.57
0.9189,0.0811	-1080.09
0.9436,0.0564	-1079.88
0.8114,0.1886	-1084.02
0.9752,0.0248	-1079.64
0.9783,0.0217	-1079.61
0.8128,0.1872	-1084.03
0.9150,0.0850	-1084.87
0.9541,0.0459	-1082.83
0.7835,0.2165	-1082.70
0.9758,0.0242	-1083.33
0.9758,0.0242	-1079.63
0.8198,0.1802	-1084.05
0.9111,0.0889	-1080.15
0.9645,0.0355	-1079.72
0.7666,0.2334	-1083.99
0.9650,0.0350	-1083.03
0.9763,0.0237	-1083.35
0.7944,0.2056	-1084.00
0.8962,0.1038	-1082.44
0.9758,0.0242	-1079.63
0.7795,0.2205	-1085.25
0.9674,0.0326	-1079.70
0.9747,0.0253	-1083.29
0.7697,0.2303	-1081.58
0.8801,0.1199	-1080.43
0.9792,0.0208	-1079.61
0.7843,0.2157	-1086.57
0.9629,0.0371	-1082.99
0.9720,0.0280	-1079.66
0.7661,0.2339	-1083.99
0.8926,0.1074	-1082.43
0.9808,0.0192	-1079.60
0.7995,0.2005	-1085.39
0.9595,0.0405	-1079.76
0.9740,0.0260	-1079.65
0.6826,0.3174	-1083.50
0.8747,0.1253	-1080.47
0.9749,0.0251	-1079.64
0.7419,0.2581	-1085.09
0.9628,0.0372	-1082.98
0.9696,0.0304	-1083.14
0.7219,0.2781	-1084.09
0.8845,0.1155	-1082.42
0.9732,0.0268	-1079.65
0.7406,0.2594	-1085.08
0.9661,0.0339	-1079.71
0.9730,0.0270	-1079.65
0.6663,0.3337	-1085.75
0.8918,0.1082	-1084.54
0.9757,0.0243	-1079.63
0.7790,0.2210	-1081.47
0.9636,0.0364	-1079.73
0.9681,0.0319	-1079.69
0.7243,0.2757	-1084.08
0.8706,0.1294	-1084.33
0.9784,0.0216	-1079.61
0.7685,0.2315	-1083.99
0.9623,0.0377	-1079.74
0.9680,0.0320	-1079.69
0.6912,0.3088	-1084.22
0.8522,0.1478	-1082.44
0.9774,0.0226	-1083.39
0.7928,0.2072	-1088.02
0.9515,0.0485	-1079.82
0.9742,0.0258	-1079.64
0.6602,0.3398	-1085.74
0.8091,0.1909	-1082.58
0.9726,0.0274	-1079.66
0.8090,0.1910	-1082.58
0.9611,0.0389	-1079.74
0.9782,0.0218	-1079.61
0.5474,0.4526	-1085.61
0.7835,0.2165	-1083.99
0.9777,0.0223	-1079.62
0.7849,0.2151	-1083.99
0.9579,0.0421	-1079.77
0.9838,0.0162	-1083.68
0.5653,0.4347	-1085.89
0.7261,0.2739	-1083.10
0.9766,0.0234	-1079.63
0.7551,0.2449	-1082.88
0.9418,0.0582	-1079.90
0.9818,0.0182	-1079.59
0.6039,0.3961	-1086.17
0.7532,0.2468	-1082.89
0.9757,0.0243	-1079.63
0.7487,0.2513	-1085.11
0.9350,0.0650	-1082.62
0.9853,0.0147	-1079.56
0.6176,0.3824	-1085.25
0.7804,0.2196	-1083.99
0.9760,0.0240	-1079.63
0.7750,0.2250	-1086.46
0.9479,0.0521	-1079.85
0.9842,0.0158	-1079.57
0.6199,0.3801	-1086.70
0.7713,0.2287	-1082.77
0.9813,0.0187	-1079.59
0.7403,0.2597	-1085.08
0.9561,0.0439	-1082.86
0.9875,0.0125	-1079.55
0.6393,0.3607	-1084.00
0.7291,0.2709	-1084.06
0.9791,0.0209	-1079.61
0.7424,0.2576	-1084.03
0.9618,0.0382	-1079.74
0.9873,0.0127	-1079.55
0.5777,0.4223	-1085.52
0.7084,0.2916	-1085.03
0.9801,0.0199	-1079.60
0.7586,0.2414	-1084.00
0.9692,0.0308	-1083.13
0.9884,0.0116	-1079.54
0.5670,0.4330	-1086.15
0.7039,0.2961	-1082.43
0.9806,0.0194	-1079.60
0.7562,0.2438	-1084.00
0.9699,0.0301	-1079.68
0.9887,0.0113	-1079.54
0.5581,0.4419	-1085.70
0.7113,0.2887	-1086.83
0.9751,0.0249	-1083.31
0.7538,0.2462	-1081.77
0.9740,0.0260	-1079.65
0.9890,0.0110	-1079.54
0.5320,0.4680	-1086.36
0.6015,0.3985	-1085.75
0.9713,0.0287	-1079.67
0.7381,0.2619	-1081.97
0.9673,0.0327	-1079.70
0.9877,0.0123	-1079.54
0.5564,0.4436	-1085.48
0.5983,0.4017	-1084.57
0.9719,0.0281	-1079.66
0.6999,0.3001	-1083.33
0.9655,0.0345	-1079.71
0.9876,0.0124	-1079.55
0.5358,0.4642	-1086.08
0.5852,0.4148	-1086.15
0.9689,0.0311	-1079.68
0.6743,0.3257	-1085.05
0.9711,0.0289	-1079.67
0.9843,0.0157	-1079.57
0.5602,0.4398	-1086.16
0.6389,0.3611	-1084.57
0.9566,0.0434	-1079.78
0.7196,0.2804	-1084.10
0.9727,0.0273	-1083.23
0.9800,0.0200	-1079.60
0.5678,0.4322	-1085.60
0.5916,0.4084	-1085.04
0.9459,0.0541	-1079.86
0.7431,0.2569	-1085.09
0.9623,0.0377	-1082.97
0.9827,0.0173	-1079.58
0.6021,0.3979	-1085.75
0.5304,0.4696	-1085.88
0.9301,0.0699	-1082.58
0.7860,0.2140	-1086.59
0.9537,0.0463	-1079.80
0.9826,0.0174	-1079.58
0.6462,0.3538	-1085.12
0.5098,0.4902	-1086.35
0.9349,0.0651	-1082.62
0.7978,0.2022	-1084.00
0.9553,0.0447	-1079.79
0.9843,0.0157	-1079.57
0.6410,0.3590	-1084.56
0.5435,0.4565	-1085.67
0.9266,0.0734	-1080.02
0.7701,0.2299	-1083.99
0.9596,0.0404	-1079.76
0.9824,0.0176	-1079.58
0.5926,0.4074	-1085.78
0.5880,0.4120	-1085.08
0.9249,0.0751	-1087.57
0.7789,0.2211	-1081.47
0.9628,0.0372	-1079.73
0.9813,0.0187	-1079.59
0.5878,0.4122	-1085.79
0.5395,0.4605	-1086.05
0.9080,0.0920	-1080.18
0.7931,0.2069	-1083.99
0.9655,0.0345	-1083.04
0.9783,0.0217	-1083.42
0.6051,0.3949	-1085.32
0.5655,0.4345	-1086.15
0.9058,0.0942	-1080.20
0.7811,0.2189	-1083.99
0.9698,0.0302	-1079.68
0.9822,0.0178	-1079.58
0.6083,0.3917	-1085.30
0.5797,0.4203	-1085.82
0.9162,0.0838	-1082.50
0.8005,0.1995	-1084.00
0.9635,0.0365	-1083.00
0.9797,0.0203	-1079.60
0.5957,0.4043	-1084.99
0.5748,0.4252	-1085.84
0.9205,0.0795	-1082.52
0.7850,0.2150	-1082.69
0.9555,0.0445	-1082.86
0.9845,0.0155	-1079.57
0.6003,0.3997	-1085.35
0.5330,0.4670	-1086.10
0.9127,0.0873	-1080.14
0.7321,0.2679	-1083.05
0.9576,0.0424	-1079.77
0.9844,0.0156	-1079.57
0.5859,0.4141	-1085.80
0.5122,0.4878	-1086.19
0.9185,0.0815	-1080.09
0.7658,0.2342	-1081.62
0.9586,0.0414	-1082.91
0.9838,0.0162	-1079.57
0.5837,0.4163	-1085.81
0.5719,0.4281	-1085.57
0.9142,0.0858	-1082.49
0.7782,0.2218	-1082.73
0.9547,0.0453	-1079.79
0.9790,0.0210	-1079.61
0.5672,0.4328	-1085.88
0.5420,0.4580	-1086.03
0.9077,0.0923	-1080.18
0.7540,0.2460	-1085.13
0.9551,0.0449	-1082.85
0.9809,0.0191	-1079.59
0.5948,0.4052	-1085.39
0.5668,0.4332	-1085.61
0.9121,0.0879	-1080.14
0.7496,0.2504	-1081.82
0.9541,0.0459	-1082.83
0.9816,0.0184	-1079.59
0.6049,0.3951	-1086.17
0.6105,0.3895	-1086.63
0.9202,0.0798	-1080.07
0.7318,0.2682	-1085.06
0.9515,0.0485	-1079.82
0.9838,0.0162	-1079.57
0.5931,0.4069	-1084.65
0.6214,0.3786	-1086.22
0.9170,0.0830	-1080.10
0.7250,0.2750	-1083.11
0.9556,0.0444	-1079.79
0.9765,0.0235	-1079.63
0.6041,0.3959	-1085.75
0.6693,0.3307	-1083.64
0.8914,0.1086	-1082.43
0.7140,0.2860	-1085.03
0.9590,0.0410	-1079.76
0.9799,0.0201	-1079.60
0.6302,0.3698	-1085.72
0.6431,0.3569	-1085.72
0.9095,0.0905	-1080.16
0.7067,0.2933	-1083.27
0.9646,0.0354	-1079.72
0.9814,0.0186	-1079.59
0.6357,0.3643	-1086.83
0.6348,0.3652	-1084.06
0.8905,0.1095	-1080.33
0.6523,0.3477	-1086.36
0.9580,0.0420	-1079.77
0.9777,0.0223	-1079.62
0.6375,0.3625	-1084.59
0.6746,0.3254	-1085.05
0.8677,0.1323	-1080.54
0.6304,0.3696	-1085.18
0.9621,0.0379	-1079.74
0.9771,0.0229	-1079.62
0.6371,0.3629	-1084.03
0.7252,0.2748	-1086.99
0.8674,0.1326	-1080.54
0.6217,0.3783	-1085.22
0.9633,0.0367	-1079.73
0.9725,0.0275	-1079.66
0.6680,0.3320	-1084.36
0.7384,0.2616	-1086.11
0.8662,0.1338	-1084.29
0.6466,0.3534	-1084.51
0.9661,0.0339	-1079.71
0.9722,0.0278	-1079.66
0.6849,0.3151	-1085.03
0.6869,0.3131	-1083.46
0.8461,0.1539	-1085.86
0.6731,0.3269	-1085.77
0.9665,0.0335	-1083.07
0.9753,0.0247	-1079.64
0.6962,0.3038	-1084.20
0.6588,0.3412	-1085.08
0.8699,0.1301	-1082.42
0.6977,0.3023	-1084.19
0.9649,0.0351	-1079.72
0.9733,0.0267	-1083.25
0.6924,0.3076	-1085.03
0.6971,0.3029	-1085.03
0.8621,0.1379	-1082.43
0.6397,0.3603	-1084.57
0.9671,0.0329	-1079.70
0.9725,0.0275	-1079.66
0.6523,0.3477	-1085.10
0.7217,0.2783	-1082.18
0.8779,0.1221	-1082.42
0.6802,0.3198	-1084.28
0.9753,0.0247	-1079.64
0.9613,0.0387	-1079.74
0.6503,0.3497	-1085.10
0.6881,0.3119	-1085.03
0.8833,0.1167	-1080.40
0.6739,0.3261	-1084.32
0.9796,0.0204	-1083.47
0.9674,0.0326	-1079.70
0.6954,0.3046	-1084.20
0.6694,0.3306	-1085.76
0.8776,0.1224	-1080.45
0.6561,0.3439	-1083.15
0.9820,0.0180	-1083.58
0.9691,0.0309	-1079.68
0.6969,0.3031	-1087.52
0.6717,0.3283	-1085.05
0.8696,0.1304	-1082.42
0.6744,0.3256	-1083.59
0.9819,0.0181	-1079.59
0.9678,0.0322	-1079.69
0.6798,0.3202	-1086.54
0.6825,0.3175	-1084.27
0.8671,0.1329	-1082.42
0.6293,0.3707	-1084.66
0.9776,0.0224	-1079.62
0.9713,0.0287	-1079.67
0.7053,0.2947	-1085.03
0.7158,0.2842	-1083.19
0.9023,0.0977	-1084.67
0.5763,0.4237	-1085.22
0.9696,0.0304	-1079.68
0.9731,0.0269	-1079.65
0.6538,0.3462	-1084.46
0.7261,0.2739	-1084.07
0.8991,0.1009	-1082.44
0.6406,0.3594	-1084.56
0.9744,0.0256	-1079.64
0.9737,0.0263	-1079.65
0.6449,0.3551	-1085.12
0.6543,0.3457	-1085.73
0.9083,0.0917	-1087.06
0.6789,0.3211	-1083.54
0.9792,0.0208	-1079.61
0.9745,0.0255	-1079.64
0.6713,0.3287	-1084.34
0.6677,0.3323	-1083.66
0.9101,0.0899	-1082.47
0.6718,0.3282	-1085.77
0.9782,0.0218	-1079.61
0.9774,0.0226	-1079.62
0.6549,0.3451	-1086.37
0.6804,0.3196	-1084.28
0.9127,0.0873	-1080.14
0.6874,0.3126	-1083.45
0.9807,0.0193	-1079.60
0.9764,0.0236	-1079.63
0.6531,0.3469	-1084.46
0.6940,0.3060	-1083.39
0.9089,0.0911	-1082.47
0.6844,0.3156	-1083.48
0.9780,0.0220	-1083.41
0.9732,0.0268	-1079.65
0.6580,0.3420	-1085.08
0.6942,0.3058	-1085.85
0.8973,0.1027	-1082.44
0.7245,0.2755	-1085.05
0.9797,0.0203	-1079.60
0.9767,0.0233	-1079.63
0.6667,0.3333	-1084.37
0.6589,0.3411	-1086.40
0.8833,0.1167	-1082.42
0.7792,0.2208	-1087.77
0.9843,0.0157	-1079.57
0.9773,0.0227	-1079.62
0.6633,0.3367	-1085.07
0.7213,0.2787	-1083.14
0.8971,0.1029	-1084.60
0.7827,0.2173	-1082.71
0.9845,0.0155	-1079.57
0.9721,0.0279	-1079.66
0.7220,0.2780	-1084.09
0.7617,0.2383	-1084.00
0.8976,0.1024	-1082.44
0.7566,0.2434	-1082.87
0.9875,0.0125	-1079.55
0.9781,0.0219	-1079.62
0.7057,0.2943	-1085.03
0.7402,0.2598	-1082.99
0.8630,0.1370	-1084.27
0.6685,0.3315	-1085.76
0.9890,0.0110	-1079.54
0.9761,0.0239	-1079.63
0.7217,0.2783	-1083.14
0.7781,0.2219	-1085.24
0.8800,0.1200	-1080.43
0.6033,0.3967	-1085.33
0.9891,0.0109	-1079.53
0.9735,0.0265	-1079.65
0.7216,0.2784	-1084.09
0.7643,0.2357	-1083.99
0.8960,0.1040	-1084.59
0.6646,0.3354	-1085.07
0.9895,0.0105	-1079.53
0.9729,0.0271	-1079.65
0.6850,0.3150	-1085.81
0.7773,0.2227	-1083.99
0.8904,0.1096	-1080.33
0.6312,0.3688	-1084.64
0.9903,0.0097	-1079.53
0.9674,0.0326	-1079.70
0.7335,0.2665	-1084.05
0.8051,0.1949	-1084.01
0.8768,0.1232	-1082.42
0.6120,0.3880	-1084.82
0.9908,0.0092	-1079.52
0.9661,0.0339	-1083.06
0.6929,0.3071	-1084.21
0.7577,0.2423	-1082.86
0.8889,0.1111	-1080.35
0.6310,0.3690	-1085.18
0.9905,0.0095	-1079.52
0.9766,0.0234	-1079.63
0.6886,0.3114	-1085.03
0.7797,0.2203	-1082.72
0.8864,0.1136	-1082.42
0.6126,0.3874	-1085.73
0.9890,0.0110	-1079.53
0.9737,0.0263	-1079.65
0.6661,0.3339	-1085.06
0.7563,0.2437	-1084.00
0.8559,0.1441	-1086.00
0.5609,0.4391	-1085.91
0.9892,0.0108	-1084.05
0.9797,0.0203	-1083.48
0.6811,0.3189	-1085.04
0.7446,0.2554	-1084.02
0.8644,0.1356	-1080.57
0.5987,0.4013	-1085.36
0.9913,0.0087	-1079.52
0.9740,0.0260	-1079.65
0.7049,0.2951	-1083.28
0.7209,0.2791	-1084.09
0.8641,0.1359	-1080.58
0.6482,0.3518	-1085.11
0.9922,0.0078	-1079.51
0.9720,0.0280	-1079.66
0.6629,0.3371	-1083.72
0.7562,0.2438	-1085.14
0.8711,0.1289	-1080.51
0.6240,0.3760	-1085.21
0.9918,0.0082	-1079.51
0.9672,0.0328	-1079.70
0.7248,0.2752	-1083.11
0.7806,0.2194	-1082.72
0.8709,0.1291	-1082.42
0.6286,0.3714	-1085.72
0.9910,0.0090	-1079.52
0.9687,0.0313	-1083.12
0.7581,0.2419	-1081.72
0.7753,0.2247	-1082.75
0.8701,0.1299	-1080.52
0.6389,0.3611	-1084.00
0.9900,0.0100	-1079.53
0.9644,0.0356	-1079.72
0.7302,0.2698	-1084.06
0.7743,0.2257	-1086.45
0.8468,0.1532	-1084.16
0.6207,0.3793	-1084.74
0.9921,0.0079	-1079.51
0.9578,0.0422	-1079.77
0.7239,0.2761	-1085.05
0.7546,0.2454	-1084.01
0.8468,0.1532	-1084.16
0.6125,0.3875	-1085.73
0.9934,0.0066	-1079.50
0.9605,0.0395	-1079.75
0.7640,0.2360	-1083.99
0.7596,0.2404	-1082.85
0.8014,0.1986	-1082.61
0.5816,0.4184	-1085.49
0.9940,0.0060	-1079.50
0.9645,0.0355	-1079.72
0.7687,0.2313	-1082.79
0.7700,0.2300	-1085.20
0.7597,0.2403	-1086.30
0.6137,0.3863	-1086.19
0.9936,0.0064	-1079.50
0.9634,0.0366	-1079.73
0.7851,0.2149	-1081.40
0.7234,0.2766	-1083.12
0.7657,0.2343	-1085.18
0.6081,0.3919	-1085.74
0.9929,0.0071	-1079.51
0.9584,0.0416	-1079.77
0.7577,0.2423	-1082.86
0.6840,0.3160	-1085.03
0.7791,0.2209	-1083.99
0.6349,0.3651	-1084.06
0.9915,0.0085	-1079.52
0.9568,0.0432	-1085.97
0.7423,0.2577	-1084.03
0.6864,0.3136	-1084.25
0.8041,0.1959	-1082.60
0.6321,0.3679	-1086.26
0.9922,0.0078	-1084.36
0.9452,0.0548	-1082.72
0.7617,0.2383	-1085.16
0.7085,0.2915	-1085.92
0.8279,0.1721	-1084.07
0.6359,0.3641	-1086.27
0.9926,0.0074	-1079.51
0.9419,0.0581	-1082.68
0.7938,0.2062	-1082.65
0.6944,0.3056	-1085.85
0.8446,0.1554	-1082.46
0.6287,0.3713	-1084.66
0.9929,0.0071	-1079.51
0.9475,0.0525	-1079.85
0.7889,0.2111	-1082.67
0.6938,0.3062	-1085.84
0.8258,0.1742	-1084.07
0.6145,0.3855	-1086.20
0.9934,0.0066	-1079.50
0.9530,0.0470	-1079.81
0.7869,0.2131	-1082.68
0.6307,0.3693	-1084.65
0.8065,0.1935	-1082.59
0.6404,0.3596	-1085.14
0.9921,0.0079	-1079.51
0.9568,0.0432	-1082.88
0.8101,0.1899	-1085.47
0.6329,0.3671	-1084.63
0.7695,0.2305	-1082.78
0.6495,0.3505	-1084.49
0.9925,0.0075	-1079.51
0.9426,0.0574	-1082.69
0.7899,0.2101	-1082.67
0.6813,0.3187	-1085.04
0.7630,0.2370	-1086.33
0.6385,0.3615	-1085.15
0.9905,0.0095	-1079.52
0.9425,0.0575	-1082.69
0.7868,0.2132	-1082.68
0.7060,0.2940	-1084.15
0.7104,0.2896	-1084.13
0.6357,0.3643	-1084.60
0.9919,0.0081	-1079.51
0.9369,0.0631	-1079.94
0.8134,0.1866	-1085.50
0.7269,0.2731	-1083.09
0.7261,0.2739	-1083.10
0.6194,0.3806	-1084.75
0.9919,0.0081	-1079.51
0.9472,0.0528	-1082.74
0.7985,0.2015	-1082.62
0.7417,0.2583	-1082.98
0.7267,0.2733	-1084.07
0.6118,0.3882	-1086.64
0.9912,0.0088	-1084.25
0.9538,0.0462	-1079.80
0.7651,0.2349	-1085.17
0.7547,0.2453	-1082.88
0.7269,0.2731	-1085.05
0.6634,0.3366	-1083.71
0.9920,0.0080	-1079.51
0.9419,0.0581	-1082.68
0.7417,0.2583	-1085.09
0.7546,0.2454	-1086.25
0.7181,0.2819	-1085.04
0.6928,0.3072	-1082.59
0.9927,0.0073	-1079.51
0.9512,0.0488	-1079.82
0.6813,0.3187	-1085.04
0.7594,0.2406	-1084.00
0.7393,0.2607	-1085.08
0.7131,0.2869	-1085.03
0.9944,0.0056	-1079.50
0.9642,0.0358	-1079.72
0.6667,0.3333	-1083.67
0.8013,0.1987	-1082.61
0.7135,0.2865	-1085.03
0.7062,0.2938	-1083.27
0.9930,0.0070	-1079.51
0.9640,0.0360	-1083.01
0.7044,0.2956	-1084.16
0.8121,0.1879	-1084.03
0.7099,0.2901	-1084.13
0.7128,0.2872	-1083.21
0.9927,0.0073	-1079.51
0.9669,0.0331	-1079.70
0.7440,0.2560	-1084.03
0.7949,0.2051	-1086.71
0.7795,0.2205	-1082.72
0.7258,0.2742	-1083.10
0.9943,0.0057	-1079.50
0.9656,0.0344	-1079.71
0.7359,0.2641	-1083.02
0.8033,0.1967	-1085.42
0.7568,0.2432	-1084.00
0.7260,0.2740	-1084.07
0.9944,0.0056	-1079.50
0.9635,0.0365	-1079.73
0.7391,0.2609	-1085.08
0.8062,0.1938	-1081.16
0.7951,0.2049	-1082.64
0.7649,0.2351	-1083.99
0.9946,0.0054	-1079.49
0.9612,0.0388	-1082.95
0.7447,0.2553	-1085.09
0.7803,0.2197	-1082.72
0.7862,0.2138	-1081.38
0.7890,0.2110	-1083.99
0.9946,0.0054	-1079.49
0.9644,0.0356	-1079.72
0.7099,0.2901	-1082.34
0.7842,0.2158	-1082.70
0.7617,0.2383	-1086.32
0.7897,0.2103	-1083.99
0.9953,0.0047	-1084.84
0.9695,0.0305	-1079.68
0.7437,0.2563	-1086.16
0.7998,0.2002	-1082.62
0.7763,0.2237	-1083.99
0.7664,0.2336	-1083.99
0.9936,0.0064	-1079.50
0.9723,0.0277	-1083.22
0.8006,0.1994	-1085.39
0.7965,0.2035	-1081.27
0.8004,0.1996	-1085.39
0.7265,0.2735	-1085.05
0.9944,0.0056	-1079.50
0.9708,0.0292	-1079.67
0.7951,0.2049	-1084.00
0.8339,0.1661	-1085.71
0.8144,0.1856	-1084.03
0.6916,0.3084	-1084.22
0.9936,0.0064	-1079.50
0.9774,0.0226	-1079.62
0.7955,0.2045	-1081.28
0.8157,0.1843	-1084.04
0.8177,0.1823	-1081.04
0.7017,0.2983	-1086.74
0.9926,0.0074	-1079.51
0.9806,0.0194	-1079.60
0.8025,0.1975	-1084.01
0.7846,0.2154	-1082.70
0.8096,0.1904	-1084.02
0.7587,0.2413	-1084.00
0.9941,0.0059	-1079.50
0.9794,0.0206	-1079.61
0.7967,0.2033	-1082.63
0.8124,0.1876	-1082.56
0.8060,0.1940	-1081.16
0.6834,0.3166	-1084.26
0.9940,0.0060	-1079.50
0.9793,0.0207	-1079.61
0.8537,0.1463	-1085.97
0.8322,0.1678	-1082.49
0.8034,0.1966	-1084.01
0.7113,0.2887	-1082.32
0.9938,0.0062	-1079.50
0.9787,0.0213	-1079.61
0.8481,0.1519	-1084.17
0.8373,0.1627	-1084.11
0.7918,0.2082	-1083.99
0.7338,0.2662	-1083.04
0.9933,0.0067	-1079.50
0.9780,0.0220	-1079.62
0.8572,0.1428	-1082.43
0.8539,0.1461	-1080.67
0.8119,0.1881	-1082.56
0.7825,0.2175	-1083.99
0.9931,0.0069	-1079.51
0.9786,0.0214	-1079.61
0.8468,0.1532	-1082.45
0.8564,0.1436	-1082.43
0.7799,0.2201	-1082.72
0.7776,0.2224	-1082.74
0.9921,0.0079	-1079.51
0.9811,0.0189	-1079.59
0.8620,0.1380	-1080.59
0.8520,0.1480	-1085.94
0.7724,0.2276	-1081.54
0.7708,0.2292	-1081.56
0.9941,0.0059	-1079.50
0.9831,0.0169	-1079.58
0.8550,0.1450	-1080.66
0.8663,0.1337	-1084.29
0.7859,0.2141	-1085.29
0.7532,0.2468	-1084.01
0.9951,0.0049	-1079.49
0.9855,0.0145	-1083.78
0.8230,0.1770	-1085.59
0.8679,0.1321	-1082.42
0.7828,0.2172	-1083.99
0.7195,0.2805	-1083.15
0.9962,0.0038	-1079.48
0.9842,0.0158	-1079.57
0.8414,0.1586	-1082.46
0.8506,0.1494	-1082.44
0.8183,0.1817	-1084.04
0.7439,0.2561	-1085.09
0.9960,0.0040	-1079.48
0.9824,0.0176	-1079.58
0.8351,0.1649	-1080.86
0.8732,0.1268	-1080.49
0.8034,0.1966	-1081.19
0.7475,0.2525	-1082.93
0.9962,0.0038	-1079.48
0.9835,0.0165	-1079.58
0.8340,0.1660	-1080.87
0.8537,0.1463	-1082.44
0.8155,0.1845	-1085.52
0.7162,0.2838	-1085.03
0.9961,0.0039	-1079.48
0.9830,0.0170	-1079.58
0.8422,0.1578	-1085.81
0.8236,0.1764	-1080.98
0.8135,0.1865	-1081.08
0.7508,0.2492	-1085.11
0.9958,0.0042	-1079.49
0.9841,0.0159	-1083.70
0.8346,0.1654	-1084.10
0.7903,0.2097	-1082.67
0.8061,0.1939	-1081.16
0.7499,0.2501	-1082.92
0.9939,0.0061	-1089.68
0.9796,0.0204	-1079.60
0.8307,0.1693	-1080.90
0.7785,0.2215	-1085.24
0.7572,0.2428	-1082.87
0.6820,0.3180	-1084.27
0.9923,0.0077	-1079.51
0.9810,0.0190	-1079.59
0.8010,0.1990	-1081.22
0.7904,0.2096	-1082.66
0.7328,0.2672	-1084.05
0.6658,0.3342	-1084.37
0.9919,0.0081	-1079.51
0.9831,0.0169	-1079.58
0.7963,0.2037	-1084.00
0.7858,0.2142	-1082.69
0.7295,0.2705	-1086.05
0.7004,0.2996	-1083.33
0.9934,0.0066	-1079.50
0.9803,0.0197	-1083.50
0.8410,0.1590	-1080.80
0.7769,0.2231	-1082.74
0.7137,0.2863	-1083.20
0.7005,0.2995	-1084.18
0.9931,0.0069	-1079.51
0.9806,0.0194	-1079.60
0.8414,0.1586	-1084.13
0.7895,0.2105	-1085.31
0.6929,0.3071	-1082.59
0.6605,0.3395	-1084.41
0.9923,0.0077	-1079.51
0.9783,0.0217	-1079.61
0.8534,0.1466	-1084.20
0.7913,0.2087	-1083.99
0.6583,0.3417	-1085.08
0.6533,0.3467	-1085.73
0.9938,0.0062	-1079.50
0.9789,0.0211	-1079.61
0.8148,0.1852	-1082.55
0.8189,0.1811	-1082.54
0.6819,0.3181	-1086.56
0.6601,0.3399	-1085.08
0.9939,0.0061	-1079.50
0.9754,0.0246	-1079.64
0.7978,0.2022	-1084.00
0.8336,0.1664	-1087.32
0.6462,0.3538	-1085.12
0.6593,0.3407	-1083.76
0.9925,0.0075	-1079.51
0.9715,0.0285	-1079.67
0.7796,0.2204	-1082.72
0.8084,0.1916	-1084.02
0.6512,0.3488	-1085.10
0.7280,0.2720	-1084.07
0.9927,0.0073	-1079.51
0.9683,0.0317	-1079.69
0.7880,0.2120	-1082.68
0.8237,0.1763	-1082.52
0.6380,0.3620	-1084.58
0.6857,0.3143	-1083.47
0.9928,0.0072	-1079.51
0.9698,0.0302	-1079.68
0.7693,0.2307	-1085.19
0.7964,0.2036	-1082.63
0.6452,0.3548	-1084.52
0.6838,0.3162	-1084.26
0.9935,0.0065	-1079.50
0.9681,0.0319	-1079.69
0.7555,0.2445	-1084.00
0.7273,0.2727	-1087.01
0.6546,0.3454	-1085.73
0.6715,0.3285	-1085.05
0.9940,0.0060	-1079.50
0.9764,0.0236	-1083.35
0.7943,0.2057	-1082.64
0.6889,0.3111	-1085.82
0.6712,0.3288	-1085.05
0.6449,0.3551	-1084.53
0.9942,0.0058	-1079.50
0.9682,0.0318	-1079.69
0.8080,0.1920	-1082.58
0.7028,0.2972	-1085.03
0.6657,0.3343	-1087.82
0.6490,0.3510	-1086.34
0.9943,0.0057	-1079.50
0.9746,0.0254	-1079.64
0.8432,0.1568	-1082.46
0.6541,0.3459	-1085.73
0.6443,0.3557	-1084.53
0.5836,0.4164	-1085.81
0.9941,0.0059	-1079.50
0.9646,0.0354	-1083.02
0.8451,0.1549	-1082.46
0.6465,0.3535	-1084.51
0.6545,0.3455	-1085.73
0.5344,0.4656	-1085.68
0.9957,0.0043	-1079.49
0.9678,0.0322	-1083.10
0.8806,0.1194	-1080.42
0.6164,0.3836	-1085.25
0.6749,0.3251	-1084.31
0.5096,0.4904	-1086.31
0.9955,0.0045	-1079.49
0.9667,0.0333	-1079.70
0.9092,0.0908	-1087.08
0.6262,0.3738	-1085.72
0.7166,0.2834	-1084.11
0.5632,0.4368	-1085.65
0.9961,0.0039	-1079.48
0.9675,0.0325	-1083.09
0.9199,0.0801	-1084.96
0.5786,0.4214	-1086.46
0.7870,0.2130	-1083.99
0.4784,0.5216	-1086.85
0.9956,0.0044	-1079.49
0.9628,0.0372	-1082.99
0.9294,0.0706	-1082.58
0.5493,0.4507	-1085.79
0.7634,0.2366	-1083.99
0.5108,0.4892	-1086.39
0.9943,0.0057	-1079.50
0.9626,0.0374	-1079.73
0.9151,0.0849	-1082.49
0.5291,0.4709	-1086.02
0.8062,0.1938	-1081.16
0.4333,0.5667	-1087.41
0.9948,0.0052	-1079.49
0.9599,0.0401	-1079.75
0.9198,0.0802	-1082.52
0.5745,0.4255	-1085.24
0.8131,0.1869	-1081.09
0.4502,0.5498	-1086.70
0.9934,0.0066	-1079.50
0.9597,0.0403	-1079.76
0.9106,0.0894	-1084.80
0.5514,0.4486	-1085.56
0.8237,0.1763	-1084.06
0.4201,0.5799	-1087.67
0.9930,0.0070	-1084.46
0.9680,0.0320	-1083.10
0.8978,0.1022	-1084.61
0.5198,0.4802	-1086.29
0.8390,0.1610	-1082.47
0.4971,0.5029	-1086.46
0.9921,0.0079	-1079.51
0.9667,0.0333	-1079.70
0.9200,0.0800	-1080.08
0.5462,0.4538	-1085.82
0.8132,0.1868	-1084.03
0.4766,0.5234	-1086.80
0.9898,0.0102	-1079.53
0.9665,0.0335	-1079.70
0.9295,0.0705	-1080.00
0.5479,0.4521	-1085.99
0.7961,0.2039	-1084.00
