#isoforms=['ENSG00000211445.SE.0.A.up_ENSG00000211445.SE.0.A.SE1_ENSG00000211445.SE.0.A.dn','ENSG00000211445.SE.0.B.up_ENSG00000211445.SE.0.B.dn']	exon_lens=('ENSG00000211445.SE.0.A.up',136),('ENSG00000211445.SE.0.A.SE1',426),('ENSG00000211445.SE.0.A.dn',154),('ENSG00000211445.SE.0.B.up',179),('ENSG00000211445.SE.0.B.dn',154)	iters=5000	burn_in=500	lag=10	percent_accept=97.20	proposal_type=drift	counts=(0,0):31,(0,1):6,(1,0):1,(1,1):12	assigned_counts=0:1,1:18	chrom=chr5	strand=+	mRNA_starts=151020606,151020563	mRNA_ends=151025493,151025493
sampled_psi	log_score
0.1113,0.8887	-116.27
0.0889,0.9111	-113.46
0.0298,0.9702	-115.49
0.2014,0.7986	-121.57
0.3100,0.6900	-123.32
0.0564,0.9436	-112.52
0.1276,0.8724	-116.67
0.0952,0.9048	-113.66
0.0330,0.9670	-115.42
0.1970,0.8030	-120.09
0.2489,0.7511	-123.69
0.0605,0.9395	-115.37
0.1339,0.8661	-114.97
0.1008,0.8992	-118.22
0.0365,0.9635	-115.37
0.2280,0.7720	-122.12
0.2356,0.7644	-121.11
0.0485,0.9515	-112.33
0.1426,0.8574	-120.66
0.0781,0.9219	-115.59
0.0356,0.9644	-112.08
0.2528,0.7472	-125.93
0.2085,0.7915	-120.38
0.0605,0.9395	-112.63
0.1378,0.8622	-115.11
0.0780,0.9220	-115.59
0.0350,0.9650	-115.39
0.2560,0.7440	-119.55
0.1933,0.8067	-119.99
0.0570,0.9430	-112.53
0.1457,0.8543	-124.23
0.0836,0.9164	-115.69
0.0327,0.9673	-118.82
0.2728,0.7272	-122.18
0.1771,0.8229	-116.53
0.0416,0.9584	-115.32
0.1534,0.8466	-119.08
0.0816,0.9184	-118.07
0.0327,0.9673	-115.43
0.2374,0.7626	-119.99
0.1738,0.8262	-121.09
0.0359,0.9641	-115.38
0.1495,0.8505	-119.00
0.0700,0.9300	-118.06
0.0365,0.9635	-112.09
0.1975,0.8025	-122.90
0.1577,0.8423	-117.49
0.0318,0.9682	-115.45
0.1555,0.8445	-117.43
0.0735,0.9265	-115.52
0.0411,0.9589	-112.18
0.1660,0.8340	-119.35
0.1516,0.8484	-117.32
0.0365,0.9635	-112.10
0.1442,0.8558	-118.89
0.0760,0.9240	-113.06
0.0404,0.9596	-115.33
0.1640,0.8360	-116.05
0.1749,0.8251	-118.00
0.0336,0.9664	-112.05
0.1215,0.8785	-118.49
0.0638,0.9362	-112.71
0.0427,0.9573	-115.32
0.1817,0.8183	-127.24
0.1573,0.8427	-119.16
0.0368,0.9632	-112.10
0.1205,0.8795	-114.50
0.0580,0.9420	-112.56
0.0456,0.9544	-112.27
0.1546,0.8454	-117.41
0.1436,0.8564	-117.10
0.0393,0.9607	-115.34
0.0933,0.9067	-118.15
0.0632,0.9368	-112.70
0.0505,0.9495	-112.37
0.1696,0.8304	-121.02
0.1404,0.8596	-118.82
0.0387,0.9613	-118.56
0.0901,0.9099	-122.75
0.0663,0.9337	-112.78
0.0633,0.9367	-115.39
0.1595,0.8405	-120.87
0.1521,0.8479	-122.49
0.0360,0.9640	-112.09
0.0725,0.9275	-112.96
0.0544,0.9456	-115.32
0.0553,0.9447	-115.33
0.1415,0.8585	-118.84
0.1431,0.8569	-117.08
0.0361,0.9639	-112.09
0.0752,0.9248	-115.55
0.0626,0.9374	-115.39
0.0450,0.9550	-115.31
0.1226,0.8774	-116.54
0.1425,0.8575	-118.86
0.0347,0.9653	-115.39
0.0630,0.9370	-112.69
0.0583,0.9417	-115.35
0.0454,0.9546	-112.26
0.1166,0.8834	-118.42
0.1193,0.8807	-114.46
0.0260,0.9740	-111.98
0.0456,0.9544	-118.35
0.0582,0.9418	-112.56
0.0458,0.9542	-118.34
0.1272,0.8728	-114.73
0.1168,0.8832	-116.40
0.0260,0.9740	-115.60
0.0461,0.9539	-115.31
0.0486,0.9514	-112.33
0.0565,0.9435	-112.52
0.1470,0.8530	-117.19
0.1038,0.8962	-113.94
0.0281,0.9719	-111.99
0.0377,0.9623	-112.11
0.0470,0.9530	-112.30
0.0557,0.9443	-115.33
0.1861,0.8139	-121.29
0.0992,0.9008	-115.99
0.0261,0.9739	-111.98
0.0396,0.9604	-115.34
0.0462,0.9538	-115.31
0.0507,0.9493	-118.24
0.2218,0.7782	-121.99
0.1185,0.8815	-116.44
0.0228,0.9772	-111.97
0.0462,0.9538	-118.33
0.0422,0.9578	-115.32
0.0610,0.9390	-112.64
0.2554,0.7446	-121.67
0.1156,0.8844	-116.37
0.0185,0.9815	-111.99
0.0505,0.9495	-115.31
0.0516,0.9484	-115.31
0.0423,0.9577	-115.32
0.3204,0.6796	-125.91
0.1376,0.8624	-115.10
0.0195,0.9805	-111.98
0.0473,0.9527	-112.30
0.0483,0.9517	-112.32
0.0413,0.9587	-115.32
0.3499,0.6501	-125.86
0.1159,0.8841	-118.41
0.0206,0.9794	-111.98
0.0460,0.9540	-115.31
0.0383,0.9617	-112.12
0.0541,0.9459	-112.46
0.3257,0.6743	-124.55
0.1220,0.8780	-114.55
0.0218,0.9782	-111.97
0.0474,0.9526	-112.30
0.0352,0.9648	-118.70
0.0501,0.9499	-115.31
0.3680,0.6320	-125.78
0.0992,0.9008	-113.79
0.0239,0.9761	-111.97
0.0403,0.9597	-115.33
0.0387,0.9613	-118.56
0.0499,0.9501	-115.31
0.3849,0.6151	-128.17
0.1167,0.8833	-116.40
0.0220,0.9780	-115.77
0.0494,0.9506	-112.35
0.0389,0.9611	-115.34
0.0404,0.9596	-112.16
0.3708,0.6292	-127.45
0.0951,0.9049	-113.66
0.0216,0.9784	-111.97
0.0489,0.9511	-112.34
0.0492,0.9508	-115.31
0.0320,0.9680	-112.03
0.3967,0.6033	-127.92
0.0849,0.9151	-115.71
0.0229,0.9771	-115.72
0.0449,0.9551	-112.25
0.0439,0.9561	-112.23
0.0275,0.9725	-111.99
0.3946,0.6054	-127.88
0.0710,0.9290	-112.92
0.0212,0.9788	-111.98
0.0390,0.9610	-118.55
0.0481,0.9519	-115.31
0.0252,0.9748	-115.63
0.3561,0.6439	-126.02
0.0732,0.9268	-115.52
0.0204,0.9796	-111.98
0.0455,0.9545	-112.26
0.0475,0.9525	-115.31
0.0262,0.9738	-115.60
0.3489,0.6511	-124.59
0.0616,0.9384	-112.66
0.0218,0.9782	-111.97
0.0489,0.9511	-115.31
0.0594,0.9406	-112.60
0.0270,0.9730	-115.57
0.3157,0.6843	-124.28
0.0664,0.9336	-115.43
0.0216,0.9784	-111.97
0.0477,0.9523	-112.31
0.0591,0.9409	-112.59
0.0235,0.9765	-111.97
0.3620,0.6380	-124.47
0.0830,0.9170	-115.68
0.0216,0.9784	-115.79
0.0596,0.9404	-115.36
0.0479,0.9521	-115.31
0.0275,0.9725	-115.55
0.3635,0.6365	-126.21
0.0914,0.9086	-118.13
0.0205,0.9795	-111.98
0.0565,0.9435	-112.52
0.0475,0.9525	-115.31
0.0231,0.9769	-111.97
0.3699,0.6301	-126.37
0.0799,0.9201	-115.62
0.0170,0.9830	-112.01
0.0468,0.9532	-112.29
0.0540,0.9460	-118.19
0.0208,0.9792	-111.98
0.4110,0.5890	-127.84
0.0732,0.9268	-115.52
0.0231,0.9769	-111.97
0.0547,0.9453	-115.33
0.0620,0.9380	-112.66
0.0230,0.9770	-115.72
0.3411,0.6589	-126.31
0.0740,0.9260	-118.06
0.0262,0.9738	-111.98
0.0636,0.9364	-118.09
0.0644,0.9356	-115.41
0.0250,0.9750	-111.98
0.3518,0.6482	-125.91
0.0801,0.9199	-118.07
0.0270,0.9730	-115.57
0.0585,0.9415	-112.57
0.0618,0.9382	-112.66
0.0219,0.9781	-111.97
0.3698,0.6302	-126.37
0.0865,0.9135	-113.38
0.0302,0.9698	-112.01
0.0654,0.9346	-112.76
0.0637,0.9363	-112.71
0.0238,0.9762	-111.97
0.3603,0.6397	-126.12
0.0869,0.9131	-113.40
0.0334,0.9666	-115.42
0.0585,0.9415	-112.57
0.0662,0.9338	-115.43
0.0237,0.9763	-115.69
0.3455,0.6545	-126.39
0.0623,0.9377	-115.38
0.0259,0.9741	-111.98
0.0671,0.9329	-112.81
0.0754,0.9246	-115.55
0.0205,0.9795	-111.98
0.3593,0.6407	-125.52
0.0518,0.9482	-121.13
0.0327,0.9673	-115.43
0.0565,0.9435	-112.52
0.0855,0.9145	-115.72
0.0209,0.9791	-111.98
0.3254,0.6746	-126.73
0.0463,0.9537	-112.28
0.0407,0.9593	-112.17
0.0492,0.9508	-112.34
0.0754,0.9246	-115.55
0.0258,0.9742	-119.24
0.3066,0.6934	-125.66
0.0469,0.9531	-112.29
0.0629,0.9371	-112.69
0.0355,0.9645	-112.08
0.0863,0.9137	-120.46
0.0256,0.9744	-115.62
0.2925,0.7075	-125.43
0.0536,0.9464	-112.45
0.0641,0.9359	-115.40
0.0322,0.9678	-112.03
0.0904,0.9096	-115.81
0.0268,0.9732	-115.58
0.2826,0.7174	-124.34
0.0595,0.9405	-112.60
0.0512,0.9488	-112.39
0.0351,0.9649	-112.07
0.0956,0.9044	-120.41
0.0221,0.9779	-115.76
0.3016,0.6984	-123.90
0.0616,0.9384	-112.65
0.0550,0.9450	-112.48
0.0356,0.9644	-112.08
0.0966,0.9034	-115.94
0.0311,0.9689	-112.02
0.3027,0.6973	-123.09
0.0646,0.9354	-115.41
0.0506,0.9494	-112.38
0.0470,0.9530	-112.30
0.1038,0.8962	-116.10
0.0323,0.9677	-112.04
0.2930,0.7070	-122.79
0.0763,0.9237	-113.07
0.0476,0.9524	-121.30
0.0457,0.9543	-118.35
0.1119,0.8881	-122.50
0.0329,0.9671	-112.04
0.3247,0.6753	-123.79
0.0522,0.9478	-115.31
0.0432,0.9568	-112.22
0.0407,0.9593	-112.17
0.1011,0.8989	-118.22
0.0356,0.9644	-112.08
0.3435,0.6565	-126.35
0.0580,0.9420	-112.56
0.0442,0.9558	-115.31
0.0381,0.9619	-112.12
0.1221,0.8779	-118.50
0.0449,0.9551	-115.31
0.3650,0.6350	-126.24
0.0590,0.9410	-115.36
0.0469,0.9531	-112.29
0.0480,0.9520	-118.29
0.1127,0.8873	-114.24
0.0519,0.9481	-112.41
0.3212,0.6788	-124.43
0.0456,0.9544	-115.31
0.0540,0.9460	-112.46
0.0538,0.9462	-112.45
0.0870,0.9130	-120.45
0.0478,0.9522	-115.31
0.3188,0.6812	-125.88
0.0643,0.9357	-112.73
0.0556,0.9444	-112.50
0.0443,0.9557	-112.24
0.0855,0.9145	-115.72
0.0453,0.9547	-118.36
0.2837,0.7163	-124.36
0.0601,0.9399	-115.36
0.0597,0.9403	-115.36
0.0407,0.9593	-112.17
0.0879,0.9121	-118.11
0.0435,0.9565	-115.31
0.2853,0.7147	-124.39
0.0596,0.9404	-112.60
0.0706,0.9294	-118.06
0.0599,0.9401	-118.12
0.0878,0.9122	-118.11
0.0355,0.9645	-115.38
0.2660,0.7340	-121.98
0.0518,0.9482	-115.31
0.0596,0.9404	-115.36
0.0542,0.9458	-115.32
0.1044,0.8956	-113.96
0.0356,0.9644	-112.08
0.2976,0.7024	-125.51
0.0660,0.9340	-115.42
0.0711,0.9289	-112.92
0.0570,0.9430	-112.53
0.1206,0.8794	-116.49
0.0358,0.9642	-118.67
0.2748,0.7252	-122.24
0.0720,0.9280	-115.50
0.0829,0.9171	-113.27
0.0511,0.9489	-112.39
0.1293,0.8707	-116.71
0.0515,0.9485	-112.40
0.2540,0.7460	-124.86
0.0747,0.9253	-113.02
0.0698,0.9302	-112.88
0.0389,0.9611	-112.14
0.1228,0.8772	-114.58
0.0491,0.9509	-115.31
0.2506,0.7494	-124.82
0.0694,0.9306	-112.87
0.0600,0.9400	-115.36
0.0388,0.9612	-112.13
0.0909,0.9091	-113.52
0.0479,0.9521	-112.32
0.2417,0.7583	-122.42
0.0727,0.9273	-112.97
0.0593,0.9407	-115.36
0.0348,0.9652	-112.07
0.1052,0.8948	-120.41
0.0458,0.9542	-115.31
0.2441,0.7559	-121.34
0.0704,0.9296	-115.48
0.0562,0.9438	-115.33
0.0383,0.9617	-115.35
0.0956,0.9044	-118.17
0.0580,0.9420	-112.56
0.2161,0.7839	-118.00
0.0551,0.9449	-112.49
0.0488,0.9512	-112.34
0.0422,0.9578	-112.20
0.0870,0.9130	-113.40
0.0600,0.9400	-112.61
0.2117,0.7883	-119.15
0.0569,0.9431	-112.53
0.0636,0.9364	-115.40
0.0303,0.9697	-115.48
0.0869,0.9131	-113.40
0.0684,0.9316	-112.84
0.1649,0.8351	-122.57
0.0778,0.9222	-115.59
0.0780,0.9220	-118.06
0.0381,0.9619	-112.12
0.0675,0.9325	-115.44
0.0773,0.9227	-113.10
0.1538,0.8462	-117.38
0.0773,0.9227	-115.58
0.0800,0.9200	-113.18
0.0461,0.9539	-112.28
0.0582,0.9418	-115.35
0.0910,0.9090	-113.52
0.1219,0.8781	-114.55
0.0635,0.9365	-112.71
0.0768,0.9232	-118.06
0.0479,0.9521	-112.32
0.0537,0.9463	-115.32
0.0847,0.9153	-120.47
0.1260,0.8740	-114.69
0.0537,0.9463	-112.45
0.0728,0.9272	-115.51
0.0408,0.9592	-112.17
0.0554,0.9446	-112.49
0.0916,0.9084	-113.54
0.1186,0.8814	-116.44
0.0547,0.9453	-112.48
0.0847,0.9153	-113.33
0.0428,0.9572	-112.21
0.0587,0.9413	-115.35
0.1143,0.8857	-118.39
0.1276,0.8724	-120.52
0.0525,0.9475	-115.32
0.1003,0.8997	-120.41
0.0532,0.9468	-118.20
0.0551,0.9449	-121.01
0.1060,0.8940	-114.01
0.1260,0.8740	-120.50
0.0424,0.9576	-115.32
0.0771,0.9229	-115.58
0.0453,0.9547	-112.26
0.0602,0.9398	-115.37
0.0925,0.9075	-118.14
0.1138,0.8862	-118.38
0.0524,0.9476	-115.32
0.0699,0.9301	-115.47
0.0388,0.9612	-115.34
0.0600,0.9400	-115.36
0.0969,0.9031	-113.71
0.1322,0.8678	-114.91
0.0449,0.9551	-115.31
0.0763,0.9237	-113.07
0.0471,0.9529	-112.30
0.0573,0.9427	-115.34
0.1127,0.8873	-114.24
0.1247,0.8753	-116.60
0.0468,0.9532	-112.29
0.0678,0.9322	-115.45
0.0524,0.9476	-115.32
0.0519,0.9481	-115.31
0.0958,0.9042	-118.17
0.1168,0.8832	-116.40
0.0453,0.9547	-112.26
0.0874,0.9126	-120.45
0.0672,0.9328	-112.81
0.0652,0.9348	-115.42
0.0964,0.9036	-115.93
0.1313,0.8687	-124.33
0.0370,0.9630	-112.10
0.0767,0.9233	-113.08
0.0630,0.9370	-120.79
0.0595,0.9405	-118.12
0.1021,0.8979	-118.23
0.1267,0.8733	-114.72
0.0427,0.9573	-112.21
0.0754,0.9246	-115.55
0.0645,0.9355	-115.41
0.0715,0.9285	-115.49
0.0958,0.9042	-118.17
0.1244,0.8756	-118.54
0.0526,0.9474	-115.32
0.0741,0.9259	-115.53
0.0729,0.9271	-112.97
0.0652,0.9348	-112.75
0.0795,0.9205	-115.62
0.1217,0.8783	-116.52
0.0503,0.9497	-115.31
0.0716,0.9284	-115.50
0.0766,0.9234	-115.57
0.0708,0.9292	-115.48
0.0785,0.9215	-118.06
0.1386,0.8614	-116.96
0.0566,0.9434	-112.53
0.0686,0.9314	-115.46
0.0766,0.9234	-115.57
0.0678,0.9322	-115.45
0.0747,0.9253	-113.02
0.1255,0.8745	-116.62
0.0510,0.9490	-112.39
0.0914,0.9086	-118.13
0.0873,0.9127	-118.10
0.0703,0.9297	-115.48
0.0661,0.9339	-112.78
0.1009,0.8991	-113.85
0.0598,0.9402	-112.61
0.0866,0.9134	-118.10
0.0858,0.9142	-118.09
0.0742,0.9258	-115.53
0.0683,0.9317	-115.45
0.1014,0.8986	-118.22
0.0552,0.9448	-115.33
0.0927,0.9073	-118.14
0.0906,0.9094	-115.82
0.0730,0.9270	-112.97
0.0751,0.9249	-113.04
0.0669,0.9331	-115.44
0.0698,0.9302	-115.47
0.0818,0.9182	-113.24
0.0679,0.9321	-115.45
0.0622,0.9378	-123.52
0.0588,0.9412	-112.58
0.0637,0.9363	-118.09
0.0704,0.9296	-112.90
0.0757,0.9243	-113.05
0.0804,0.9196	-120.51
0.0751,0.9249	-113.04
0.0513,0.9487	-115.31
0.0604,0.9396	-118.11
0.0673,0.9327	-115.44
0.0751,0.9249	-115.55
0.0888,0.9112	-113.46
0.0678,0.9322	-115.45
0.0510,0.9490	-115.31
0.0479,0.9521	-112.32
0.0587,0.9413	-112.58
0.0595,0.9405	-112.60
0.0959,0.9041	-113.68
0.0772,0.9228	-115.58
0.0441,0.9559	-112.23
0.0419,0.9581	-112.19
0.0601,0.9399	-112.61
0.0473,0.9527	-112.30
0.0730,0.9270	-115.52
0.0940,0.9060	-115.89
0.0382,0.9618	-112.12
0.0402,0.9598	-112.16
0.0719,0.9281	-112.94
0.0498,0.9502	-118.26
0.0642,0.9358	-115.40
0.0973,0.9027	-113.73
0.0349,0.9651	-112.07
0.0361,0.9639	-112.09
0.0781,0.9219	-113.13
0.0407,0.9593	-112.17
0.0437,0.9563	-112.23
0.0957,0.9043	-113.68
0.0324,0.9676	-112.04
0.0377,0.9623	-112.11
0.0740,0.9260	-113.00
0.0373,0.9627	-112.11
0.0432,0.9568	-115.31
0.0824,0.9176	-113.26
0.0395,0.9605	-118.53
0.0404,0.9596	-112.16
0.0572,0.9428	-112.54
0.0300,0.9700	-112.01
0.0410,0.9590	-115.33
0.0977,0.9023	-115.96
0.0359,0.9641	-112.09
0.0359,0.9641	-112.09
0.0404,0.9596	-112.16
0.0247,0.9753	-111.97
0.0397,0.9603	-112.15
0.0887,0.9113	-113.45
0.0303,0.9697	-112.01
0.0358,0.9642	-118.67
0.0348,0.9652	-115.39
0.0238,0.9762	-115.69
0.0465,0.9535	-115.31
0.0612,0.9388	-118.10
0.0291,0.9709	-112.00
0.0406,0.9594	-112.17
0.0433,0.9567	-112.22
0.0242,0.9758	-119.37
0.0405,0.9595	-112.16
0.0658,0.9342	-115.42
0.0208,0.9792	-119.68
0.0449,0.9551	-115.31
0.0375,0.9625	-112.11
0.0238,0.9762	-111.97
0.0479,0.9521	-115.31
0.0613,0.9387	-112.65
0.0228,0.9772	-111.97
0.0429,0.9571	-112.21
0.0403,0.9597	-112.16
0.0220,0.9780	-115.77
0.0433,0.9567	-115.31
0.0715,0.9285	-115.49
0.0233,0.9767	-111.97
0.0411,0.9589	-112.17
0.0467,0.9533	-112.29
0.0209,0.9791	-115.82
0.0448,0.9552	-115.31
0.0666,0.9334	-120.71
0.0227,0.9773	-111.97
0.0389,0.9611	-115.34
0.0489,0.9511	-118.27
0.0246,0.9754	-111.97
0.0419,0.9581	-115.32
0.0497,0.9503	-112.36
0.0210,0.9790	-111.98
0.0374,0.9626	-112.11
0.0547,0.9453	-118.18
0.0251,0.9749	-111.98
0.0386,0.9614	-115.35
0.0459,0.9541	-115.31
0.0196,0.9804	-115.90
0.0466,0.9534	-112.29
0.0692,0.9308	-115.46
0.0207,0.9793	-111.98
0.0349,0.9651	-118.71
0.0396,0.9604	-112.15
0.0150,0.9850	-112.05
0.0410,0.9590	-112.17
0.0555,0.9445	-112.50
0.0169,0.9831	-112.01
0.0391,0.9609	-115.34
0.0338,0.9662	-112.06
0.0138,0.9862	-112.08
0.0338,0.9662	-112.06
0.0576,0.9424	-112.55
0.0187,0.9813	-111.99
0.0466,0.9534	-112.29
0.0242,0.9758	-111.97
0.0107,0.9893	-112.20
0.0378,0.9622	-112.12
0.0571,0.9429	-115.34
0.0193,0.9807	-111.99
0.0519,0.9481	-112.41
0.0261,0.9739	-111.98
0.0108,0.9892	-116.71
0.0299,0.9701	-112.01
0.0528,0.9472	-115.32
0.0230,0.9770	-111.97
0.0470,0.9530	-112.30
0.0277,0.9723	-115.55
0.0101,0.9899	-112.23
0.0373,0.9627	-112.11
0.0501,0.9499	-115.31
0.0228,0.9772	-115.73
0.0432,0.9568	-115.31
0.0256,0.9744	-115.62
0.0128,0.9872	-116.46
0.0537,0.9463	-112.45
0.0448,0.9552	-112.25
0.0203,0.9797	-111.98
0.0416,0.9584	-112.18
0.0255,0.9745	-111.98
0.0161,0.9839	-112.03
0.0683,0.9317	-112.84
0.0453,0.9547	-112.26
0.0244,0.9756	-115.66
0.0411,0.9589	-115.33
0.0229,0.9771	-111.97
0.0161,0.9839	-112.03
0.0554,0.9446	-112.49
0.0418,0.9582	-112.19
0.0242,0.9758	-111.97
0.0364,0.9636	-118.65
0.0210,0.9790	-111.98
0.0187,0.9813	-111.99
0.0544,0.9456	-115.32
0.0410,0.9590	-112.17
0.0272,0.9728	-111.99
0.0389,0.9611	-112.14
0.0208,0.9792	-111.98
0.0158,0.9842	-112.03
0.0616,0.9384	-115.38
0.0464,0.9536	-112.28
0.0229,0.9771	-111.97
0.0471,0.9529	-112.30
0.0228,0.9772	-111.97
0.0159,0.9841	-112.03
0.0613,0.9387	-120.83
0.0515,0.9485	-118.23
0.0243,0.9757	-111.97
0.0482,0.9518	-115.31
0.0224,0.9776	-119.53
0.0203,0.9797	-111.98
0.0553,0.9447	-112.49
0.0505,0.9495	-112.38
0.0262,0.9738	-111.98
0.0483,0.9517	-112.33
0.0263,0.9737	-115.59
0.0202,0.9798	-111.98
0.0561,0.9439	-112.51
0.0433,0.9567	-118.41
0.0186,0.9814	-111.99
0.0386,0.9614	-112.13
0.0249,0.9751	-115.64
0.0230,0.9770	-111.97
0.0573,0.9427	-115.34
0.0388,0.9612	-112.13
0.0223,0.9777	-111.97
0.0412,0.9588	-112.18
0.0297,0.9703	-112.01
0.0202,0.9798	-115.86
0.0509,0.9491	-112.39
0.0348,0.9652	-115.39
0.0177,0.9823	-112.00
0.0454,0.9546	-112.26
0.0316,0.9684	-112.03
0.0213,0.9787	-111.97
0.0483,0.9517	-112.33
0.0259,0.9741	-115.61
0.0157,0.9843	-112.04
0.0382,0.9618	-112.12
0.0254,0.9746	-115.62
0.0253,0.9747	-111.98
0.0475,0.9525	-112.31
0.0317,0.9683	-112.03
0.0158,0.9842	-112.03
0.0450,0.9550	-118.36
0.0269,0.9731	-115.57
0.0220,0.9780	-111.97
0.0571,0.9429	-112.54
0.0300,0.9700	-112.01
0.0177,0.9823	-112.00
0.0516,0.9484	-115.31
0.0270,0.9730	-115.57
0.0235,0.9765	-111.97
0.0467,0.9533	-112.29
0.0264,0.9736	-111.98
0.0200,0.9800	-111.98
0.0616,0.9384	-112.65
0.0218,0.9782	-111.97
0.0259,0.9741	-111.98
0.0526,0.9474	-115.32
0.0246,0.9754	-111.97
0.0174,0.9826	-112.01
0.0544,0.9456	-112.47
0.0208,0.9792	-111.98
0.0294,0.9706	-112.00
0.0561,0.9439	-115.33
0.0207,0.9793	-111.98
0.0138,0.9862	-112.08
0.0620,0.9380	-115.38
0.0230,0.9770	-115.72
0.0293,0.9707	-115.50
0.0598,0.9402	-115.36
0.0201,0.9799	-111.98
0.0163,0.9837	-112.02
0.0553,0.9447	-115.33
0.0188,0.9812	-111.99
0.0268,0.9732	-111.98
0.0571,0.9429	-115.34
0.0161,0.9839	-112.03
0.0218,0.9782	-115.78
0.0587,0.9413	-115.35
0.0246,0.9754	-111.97
0.0274,0.9726	-115.56
0.0547,0.9453	-115.33
0.0183,0.9817	-112.00
0.0213,0.9787	-111.97
0.0718,0.9282	-125.73
0.0254,0.9746	-111.98
0.0272,0.9728	-111.99
0.0602,0.9398	-112.62
0.0190,0.9810	-111.99
0.0203,0.9797	-111.98
0.0903,0.9097	-113.50
0.0319,0.9681	-112.03
0.0318,0.9682	-118.86
0.0622,0.9378	-112.67
0.0181,0.9819	-112.00
0.0185,0.9815	-111.99
0.0768,0.9232	-113.09
0.0256,0.9744	-115.62
0.0293,0.9707	-112.00
0.0597,0.9403	-112.60
0.0184,0.9816	-112.00
0.0256,0.9744	-111.98
0.0867,0.9133	-115.74
0.0238,0.9762	-111.97
0.0334,0.9666	-112.05
0.0502,0.9498	-118.25
0.0164,0.9836	-112.02
0.0216,0.9784	-111.97
0.0952,0.9048	-115.91
0.0196,0.9804	-111.98
0.0308,0.9692	-112.02
0.0493,0.9507	-115.31
0.0163,0.9837	-112.02
0.0194,0.9806	-111.99
0.0911,0.9089	-115.83
0.0184,0.9816	-112.00
0.0381,0.9619	-115.35
0.0421,0.9579	-112.19
0.0199,0.9801	-111.98
0.0166,0.9834	-112.02
0.0922,0.9078	-113.56
0.0167,0.9833	-116.09
0.0458,0.9542	-118.34
0.0467,0.9533	-115.31
0.0174,0.9826	-112.01
0.0168,0.9832	-112.02
0.0995,0.9005	-118.20
0.0217,0.9783	-111.97
0.0480,0.9520	-115.31
0.0503,0.9497	-115.31
0.0174,0.9826	-112.01
0.0153,0.9847	-112.04
0.0913,0.9087	-118.13
0.0229,0.9771	-111.97
0.0493,0.9507	-118.27
0.0549,0.9451	-115.33
0.0167,0.9833	-112.02
0.0157,0.9843	-112.04
0.0880,0.9120	-115.77
0.0202,0.9798	-111.98
0.0472,0.9528	-112.30
0.0701,0.9299	-115.48
0.0157,0.9843	-112.04
0.0109,0.9891	-112.19
0.1001,0.8999	-113.82
0.0189,0.9811	-111.99
0.0546,0.9454	-115.33
0.0651,0.9349	-115.41
0.0145,0.9855	-112.06
0.0107,0.9893	-116.73
0.0923,0.9077	-115.85
0.0156,0.9844	-112.04
0.0537,0.9463	-115.32
0.0726,0.9274	-118.06
0.0188,0.9812	-111.99
0.0134,0.9866	-112.09
0.0732,0.9268	-118.06
0.0172,0.9828	-116.05
0.0485,0.9515	-115.31
0.0730,0.9270	-118.06
0.0175,0.9825	-112.01
0.0134,0.9866	-116.40
0.0660,0.9340	-115.42
0.0143,0.9857	-112.07
0.0401,0.9599	-112.16
0.0470,0.9530	-112.30
0.0180,0.9820	-116.00
0.0195,0.9805	-111.98
0.0668,0.9332	-118.07
0.0112,0.9888	-112.18
0.0345,0.9655	-115.40
0.0705,0.9295	-112.90
0.0169,0.9831	-112.01
0.0286,0.9714	-112.00
0.0707,0.9293	-115.48
0.0116,0.9884	-112.16
0.0357,0.9643	-112.08
0.0725,0.9275	-118.06
0.0225,0.9775	-111.97
0.0342,0.9658	-115.40
0.0578,0.9422	-115.35
0.0099,0.9901	-112.24
0.0285,0.9715	-112.00
0.0907,0.9093	-115.82
0.0250,0.9750	-111.98
0.0392,0.9608	-115.34
0.0731,0.9269	-123.14
0.0085,0.9915	-112.33
0.0348,0.9652	-112.07
0.0769,0.9231	-115.57
0.0345,0.9655	-112.06
0.0397,0.9603	-115.34
0.0697,0.9303	-112.88
0.0089,0.9911	-112.31
0.0352,0.9648	-112.08
0.0745,0.9255	-115.54
0.0262,0.9738	-111.98
0.0406,0.9594	-112.17
0.0747,0.9253	-118.06
0.0080,0.9920	-112.38
0.0324,0.9676	-115.43
0.0825,0.9175	-115.67
0.0298,0.9702	-115.49
0.0329,0.9671	-112.04
0.0509,0.9491	-112.39
0.0075,0.9925	-112.42
0.0369,0.9631	-112.10
0.1010,0.8990	-116.03
0.0283,0.9717	-111.99
0.0340,0.9660	-112.06
0.0509,0.9491	-112.38
0.0076,0.9924	-112.40
0.0389,0.9611	-115.34
0.1048,0.8952	-113.97
0.0374,0.9626	-112.11
0.0374,0.9626	-112.11
0.0388,0.9612	-112.13
0.0089,0.9911	-112.31
0.0317,0.9683	-115.45
0.1115,0.8885	-118.35
0.0407,0.9593	-118.49
0.0433,0.9567	-112.22
0.0368,0.9632	-112.10
0.0081,0.9919	-112.36
0.0333,0.9667	-112.05
0.1311,0.8689	-116.76
0.0414,0.9586	-118.47
0.0447,0.9553	-112.25
0.0329,0.9671	-115.42
0.0075,0.9925	-112.42
0.0315,0.9685	-112.03
0.1209,0.8791	-116.50
0.0452,0.9548	-112.26
0.0451,0.9549	-112.26
0.0353,0.9647	-112.08
0.0085,0.9915	-112.34
0.0435,0.9565	-112.22
0.1302,0.8698	-118.64
0.0422,0.9578	-115.32
0.0388,0.9612	-115.34
0.0367,0.9633	-112.10
0.0087,0.9913	-112.32
0.0695,0.9305	-112.87
0.1199,0.8801	-120.46
0.0406,0.9594	-118.49
0.0287,0.9713	-112.00
0.0533,0.9467	-112.44
0.0097,0.9903	-112.26
0.0800,0.9200	-115.62
0.1384,0.8616	-115.13
0.0485,0.9515	-115.31
0.0241,0.9759	-111.97
0.0549,0.9451	-115.33
0.0097,0.9903	-112.25
0.0749,0.9251	-118.06
0.1517,0.8483	-117.33
0.0482,0.9518	-121.27
0.0261,0.9739	-115.60
0.0586,0.9414	-112.57
0.0078,0.9922	-112.39
0.1104,0.8896	-114.16
0.1500,0.8500	-117.28
0.0398,0.9602	-112.15
0.0229,0.9771	-111.97
0.0510,0.9490	-112.39
0.0074,0.9926	-112.42
0.0896,0.9104	-120.44
0.1684,0.8316	-121.00
0.0356,0.9644	-112.08
0.0230,0.9770	-111.97
0.0447,0.9553	-112.25
0.0067,0.9933	-112.49
0.1002,0.8998	-118.21
0.1921,0.8079	-122.84
0.0385,0.9615	-112.13
0.0158,0.9842	-112.03
0.0393,0.9607	-115.34
0.0066,0.9934	-112.51
0.1045,0.8955	-113.96
0.2053,0.7947	-118.94
0.0369,0.9631	-112.10
0.0154,0.9846	-112.04
0.0396,0.9604	-124.90
0.0064,0.9936	-112.53
0.1249,0.8751	-116.60
0.1611,0.8389	-122.54
0.0417,0.9583	-112.19
0.0137,0.9863	-112.08
0.0308,0.9692	-112.02
0.0077,0.9923	-112.40
0.1530,0.8470	-117.36
0.1831,0.8169	-121.24
0.0478,0.9522	-115.31
0.0162,0.9838	-112.03
0.0370,0.9630	-112.10
0.0085,0.9915	-112.33
0.1487,0.8513	-118.98
0.2319,0.7681	-123.40
0.0587,0.9413	-115.35
0.0161,0.9839	-112.03
0.0516,0.9484	-115.31
0.0091,0.9909	-112.29
0.1320,0.8680	-118.67
0.1981,0.8019	-121.51
0.0603,0.9397	-112.62
0.0143,0.9857	-112.07
0.0421,0.9579	-112.19
0.0094,0.9906	-112.28
0.1044,0.8956	-113.96
0.1617,0.8383	-117.61
0.0867,0.9133	-115.74
0.0121,0.9879	-112.14
0.0437,0.9563	-112.23
0.0093,0.9907	-116.95
0.1116,0.8884	-118.35
0.1455,0.8545	-117.15
0.0846,0.9154	-115.71
0.0125,0.9875	-112.13
0.0365,0.9635	-115.37
0.0102,0.9898	-112.23
0.0819,0.9181	-113.24
0.1643,0.8357	-117.69
0.0611,0.9389	-112.64
0.0117,0.9883	-112.16
0.0296,0.9704	-112.01
0.0108,0.9892	-112.19
0.0757,0.9243	-115.56
0.1767,0.8233	-121.13
0.0599,0.9401	-112.61
0.0102,0.9898	-112.23
0.0334,0.9666	-112.05
0.0081,0.9919	-112.37
0.0745,0.9255	-120.58
0.1623,0.8377	-119.27
0.0614,0.9386	-112.65
0.0076,0.9924	-112.41
0.0286,0.9714	-112.00
0.0073,0.9927	-112.43
0.0626,0.9374	-115.39
0.1538,0.8462	-120.79
0.0515,0.9485	-115.31
0.0075,0.9925	-112.42
0.0372,0.9628	-112.11
0.0095,0.9905	-112.27
0.0767,0.9233	-113.08
0.1531,0.8469	-119.07
0.0631,0.9369	-118.09
0.0077,0.9923	-112.40
0.0459,0.9541	-115.31
0.0111,0.9889	-112.18
0.0861,0.9139	-113.37
0.1164,0.8836	-120.44
0.0703,0.9297	-115.48
0.0092,0.9908	-112.29
0.0427,0.9573	-118.43
0.0088,0.9912	-112.31
0.0862,0.9138	-113.37
0.1091,0.8909	-114.12
0.0766,0.9234	-113.08
0.0075,0.9925	-112.42
0.0564,0.9436	-115.34
0.0088,0.9912	-112.32
0.0735,0.9265	-112.99
0.0949,0.9051	-115.90
0.0635,0.9365	-112.71
0.0078,0.9922	-117.23
0.0669,0.9331	-118.07
0.0085,0.9915	-112.33
0.0677,0.9323	-115.44
0.1128,0.8872	-116.30
0.0757,0.9243	-115.56
0.0092,0.9908	-112.29
0.0701,0.9299	-120.65
0.0068,0.9932	-112.48
0.0648,0.9352	-112.74
0.1316,0.8684	-116.78
0.0514,0.9486	-112.40
0.0102,0.9898	-112.23
0.0726,0.9274	-118.06
0.0067,0.9933	-112.50
0.0606,0.9394	-115.37
0.1293,0.8707	-116.72
0.0544,0.9456	-112.47
0.0118,0.9882	-112.15
0.0709,0.9291	-112.91
0.0055,0.9945	-112.65
0.0652,0.9348	-120.74
0.1324,0.8676	-118.68
0.0605,0.9395	-112.62
0.0109,0.9891	-112.19
0.0842,0.9158	-113.31
0.0060,0.9940	-112.57
0.0555,0.9445	-112.50
0.1160,0.8840	-114.35
0.0495,0.9505	-118.26
0.0106,0.9894	-112.21
0.0731,0.9269	-115.52
0.0064,0.9936	-112.53
0.0660,0.9340	-115.42
0.1281,0.8719	-118.60
0.0550,0.9450	-115.33
0.0104,0.9896	-112.22
0.0623,0.9377	-118.10
0.0065,0.9935	-117.54
0.0654,0.9346	-112.76
0.0995,0.9005	-116.00
0.0482,0.9518	-118.29
0.0097,0.9903	-112.26
0.0633,0.9367	-112.70
0.0060,0.9940	-112.58
0.0571,0.9429	-112.54
0.1065,0.8935	-114.03
0.0682,0.9318	-120.68
0.0097,0.9903	-112.26
0.0688,0.9312	-115.46
0.0086,0.9914	-112.33
0.0557,0.9443	-112.50
0.0877,0.9123	-113.42
0.0668,0.9332	-115.43
0.0104,0.9896	-112.22
0.0740,0.9260	-113.00
0.0102,0.9898	-112.23
0.0561,0.9439	-118.16
0.0899,0.9101	-115.80
0.0617,0.9383	-120.82
0.0117,0.9883	-112.15
0.0721,0.9279	-118.06
0.0083,0.9917	-112.35
0.0545,0.9455	-112.47
0.0980,0.9020	-118.19
0.0668,0.9332	-112.80
0.0089,0.9911	-112.31
0.0593,0.9407	-112.59
0.0076,0.9924	-112.41
0.0604,0.9396	-115.37
0.0784,0.9216	-113.13
0.0528,0.9472	-112.43
0.0076,0.9924	-112.41
0.0501,0.9499	-112.37
0.0073,0.9927	-112.44
0.0721,0.9279	-112.95
0.0840,0.9160	-115.69
0.0466,0.9534	-115.31
0.0075,0.9925	-112.42
0.0490,0.9510	-115.31
0.0081,0.9919	-112.37
0.0624,0.9376	-118.10
0.0911,0.9089	-115.83
0.0466,0.9534	-118.32
0.0097,0.9903	-112.26
0.0521,0.9479	-112.41
0.0079,0.9921	-117.21
0.0600,0.9400	-112.61
0.0844,0.9156	-113.32
0.0423,0.9577	-112.20
0.0110,0.9890	-112.19
0.0558,0.9442	-120.99
0.0104,0.9896	-112.22
0.0720,0.9280	-118.06
0.0765,0.9235	-113.08
0.0437,0.9563	-112.23
0.0100,0.9900	-116.83
0.0698,0.9302	-112.88
0.0097,0.9903	-112.26
0.0668,0.9332	-115.43
0.0943,0.9057	-120.42
0.0407,0.9593	-112.17
0.0092,0.9908	-112.29
0.0916,0.9084	-115.84
0.0113,0.9887	-112.17
0.0751,0.9249	-113.04
0.1233,0.8767	-120.48
0.0409,0.9591	-112.17
0.0076,0.9924	-112.41
0.0882,0.9118	-115.77
0.0150,0.9850	-112.05
0.0763,0.9237	-120.55
0.1100,0.8900	-116.24
0.0340,0.9660	-112.06
0.0077,0.9923	-112.40
0.0882,0.9118	-115.77
0.0124,0.9876	-112.13
0.0808,0.9192	-113.21
0.1099,0.8901	-122.51
0.0283,0.9717	-115.53
0.0082,0.9918	-112.36
0.1039,0.8961	-118.25
0.0142,0.9858	-112.07
0.0850,0.9150	-113.34
0.0934,0.9066	-115.87
0.0209,0.9791	-111.98
0.0060,0.9940	-112.58
0.1046,0.8954	-116.11
0.0148,0.9852	-112.06
0.0724,0.9276	-115.51
0.0937,0.9063	-113.61
0.0216,0.9784	-111.97
0.0060,0.9940	-112.58
0.1171,0.8829	-116.41
0.0133,0.9867	-116.40
0.0611,0.9389	-115.37
0.0835,0.9165	-113.29
0.0214,0.9786	-111.97
0.0057,0.9943	-112.62
0.1177,0.8823	-114.41
0.0106,0.9894	-112.21
0.0492,0.9508	-115.31
0.1082,0.8918	-116.19
0.0199,0.9801	-111.98
0.0060,0.9940	-112.57
0.1510,0.8490	-117.30
0.0128,0.9872	-112.12
0.0688,0.9312	-120.67
0.1195,0.8805	-118.46
0.0209,0.9791	-111.98
0.0069,0.9931	-112.48
0.1561,0.8439	-117.45
0.0171,0.9829	-120.12
0.0769,0.9231	-115.57
0.0862,0.9138	-115.73
0.0236,0.9764	-111.97
0.0089,0.9911	-112.31
0.1626,0.8374	-119.28
0.0163,0.9837	-112.03
0.0830,0.9170	-118.08
0.0816,0.9184	-113.23
0.0259,0.9741	-111.98
0.0109,0.9891	-112.19
0.1737,0.8263	-119.52
0.0198,0.9802	-111.98
0.0723,0.9277	-112.95
0.0908,0.9092	-122.73
0.0281,0.9719	-111.99
0.0111,0.9889	-112.18
0.1625,0.8375	-119.27
0.0176,0.9824	-112.00
0.0766,0.9234	-113.08
0.0801,0.9199	-113.19
0.0374,0.9626	-112.11
0.0099,0.9901	-112.25
0.1286,0.8714	-118.61
0.0172,0.9828	-112.01
0.1049,0.8951	-118.26
0.0712,0.9288	-112.92
0.0400,0.9600	-112.16
0.0115,0.9885	-112.17
0.1068,0.8932	-120.41
0.0184,0.9816	-111.99
0.1055,0.8945	-118.27
0.0595,0.9405	-112.60
0.0446,0.9554	-112.24
0.0109,0.9891	-116.70
0.1026,0.8974	-113.90
0.0172,0.9828	-112.01
0.1164,0.8836	-120.44
0.0555,0.9445	-115.33
0.0346,0.9654	-118.72
0.0111,0.9889	-112.18
0.0932,0.9068	-115.87
0.0156,0.9844	-112.04
0.1349,0.8651	-116.86
0.0621,0.9379	-115.38
0.0311,0.9689	-115.46
0.0107,0.9893	-112.20
0.0919,0.9081	-115.84
0.0163,0.9837	-116.12
0.1280,0.8720	-114.76
0.0507,0.9493	-112.38
0.0293,0.9707	-112.00
0.0100,0.9900	-112.24
0.0737,0.9263	-118.06
0.0154,0.9846	-112.04
0.1200,0.8800	-116.48
0.0476,0.9524	-112.31
0.0367,0.9633	-112.10
0.0097,0.9903	-116.88
0.0860,0.9140	-115.73
0.0149,0.9851	-112.05
0.0970,0.9030	-118.18
0.0567,0.9433	-118.15
0.0389,0.9611	-115.34
0.0077,0.9923	-112.40
0.0928,0.9072	-115.86
0.0134,0.9866	-116.39
0.1004,0.8996	-118.21
0.0581,0.9419	-112.56
0.0341,0.9659	-112.06
0.0082,0.9918	-117.16
0.0914,0.9086	-113.54
0.0139,0.9861	-112.08
0.1152,0.8848	-116.36
0.0599,0.9401	-115.36
0.0369,0.9631	-112.10
0.0082,0.9918	-112.36
0.0868,0.9132	-115.74
0.0119,0.9881	-112.15
0.0970,0.9030	-115.95
0.0698,0.9302	-112.88
0.0373,0.9627	-112.11
0.0084,0.9916	-112.34
0.0988,0.9012	-118.20
0.0115,0.9885	-112.16
0.0915,0.9085	-113.54
0.0716,0.9284	-115.50
0.0354,0.9646	-115.38
0.0100,0.9900	-116.83
0.1135,0.8865	-120.43
0.0136,0.9864	-116.38
0.0966,0.9034	-113.70
0.0666,0.9334	-112.79
0.0412,0.9588	-112.18
0.0114,0.9886	-112.17
0.1086,0.8914	-120.41
0.0133,0.9867	-112.10
0.0933,0.9067	-115.87
0.0761,0.9239	-115.56
0.0474,0.9526	-115.31
0.0114,0.9886	-112.17
0.0970,0.9030	-118.18
0.0122,0.9878	-112.13
0.0931,0.9069	-115.87
0.0924,0.9076	-120.42
0.0553,0.9447	-118.17
0.0126,0.9874	-112.12
0.0915,0.9085	-113.54
0.0130,0.9870	-112.11
0.0784,0.9216	-113.13
0.0701,0.9299	-118.06
0.0514,0.9486	-112.40
0.0137,0.9863	-112.08
0.1031,0.8969	-116.08
0.0137,0.9863	-112.08
0.0759,0.9241	-118.06
0.0823,0.9177	-113.25
0.0528,0.9472	-112.43
0.0164,0.9836	-112.02
0.1040,0.8960	-120.41
0.0129,0.9871	-112.11
0.0650,0.9350	-112.75
0.0822,0.9178	-118.08
0.0546,0.9454	-112.47
0.0163,0.9837	-112.02
0.0954,0.9046	-113.66
0.0153,0.9847	-112.04
0.0633,0.9367	-115.40
0.1008,0.8992	-118.22
0.0542,0.9458	-115.32
0.0191,0.9809	-111.99
0.0856,0.9144	-115.72
0.0166,0.9834	-112.02
0.0691,0.9309	-112.86
0.0950,0.9050	-113.65
0.0573,0.9427	-118.14
0.0204,0.9796	-111.98
0.0557,0.9443	-115.33
0.0156,0.9844	-116.18
0.0570,0.9430	-112.54
0.0820,0.9180	-115.66
0.0626,0.9374	-118.09
0.0234,0.9766	-111.97
0.0680,0.9320	-112.83
0.0175,0.9825	-116.03
0.0651,0.9349	-120.74
0.0798,0.9202	-118.07
0.0674,0.9326	-118.07
0.0206,0.9794	-119.71
0.0671,0.9329	-120.70
0.0222,0.9778	-111.97
0.0737,0.9263	-115.53
0.0681,0.9319	-115.45
0.0561,0.9439	-112.51
0.0214,0.9786	-111.97
0.0617,0.9383	-112.66
0.0281,0.9719	-111.99
0.0638,0.9362	-115.40
0.0568,0.9432	-112.53
0.0532,0.9468	-112.44
0.0213,0.9787	-115.80
0.0581,0.9419	-112.56
0.0241,0.9759	-111.97
0.0637,0.9363	-115.40
0.0584,0.9416	-112.57
0.0603,0.9397	-115.37
0.0217,0.9783	-115.78
0.0510,0.9490	-112.39
0.0202,0.9798	-111.98
0.0625,0.9375	-112.68
0.0801,0.9199	-113.19
0.0564,0.9436	-115.34
0.0201,0.9799	-111.98
0.0577,0.9423	-112.55
0.0211,0.9789	-111.98
0.0738,0.9262	-118.06
0.0688,0.9312	-115.46
0.0492,0.9508	-115.31
0.0198,0.9802	-119.79
0.0556,0.9444	-115.33
0.0206,0.9794	-111.98
0.0607,0.9393	-112.63
0.0754,0.9246	-118.06
0.0500,0.9500	-115.31
0.0194,0.9806	-115.91
0.0696,0.9304	-120.65
0.0180,0.9820	-112.00
0.0684,0.9316	-118.06
0.0806,0.9194	-118.07
0.0465,0.9535	-115.31
0.0238,0.9762	-111.97
0.0611,0.9389	-112.64
0.0156,0.9844	-112.04
0.0496,0.9504	-112.35
0.0955,0.9045	-115.92
0.0471,0.9529	-112.30
0.0250,0.9750	-111.98
0.0554,0.9446	-112.49
0.0126,0.9874	-112.12
0.0594,0.9406	-112.60
0.0778,0.9222	-115.59
0.0614,0.9386	-112.65
0.0267,0.9733	-111.98
0.0475,0.9525	-112.31
0.0127,0.9873	-116.47
0.0633,0.9367	-112.70
0.0708,0.9292	-115.48
0.0666,0.9334	-112.79
0.0304,0.9696	-112.01
0.0319,0.9681	-112.03
0.0128,0.9872	-112.11
0.0523,0.9477	-112.42
0.0857,0.9143	-113.36
0.0687,0.9313	-115.46
0.0371,0.9629	-112.10
0.0269,0.9731	-111.98
0.0132,0.9868	-112.10
0.0468,0.9532	-115.31
0.0797,0.9203	-122.96
0.0564,0.9436	-112.52
0.0283,0.9717	-111.99
0.0324,0.9676	-118.83
0.0150,0.9850	-112.05
0.0510,0.9490	-118.23
0.0776,0.9224	-113.11
0.0479,0.9521	-118.29
0.0277,0.9723	-111.99
0.0407,0.9593	-112.17
0.0182,0.9818	-112.00
0.0485,0.9515	-112.33
0.0822,0.9178	-118.08
0.0560,0.9440	-115.33
0.0273,0.9727	-111.99
0.0402,0.9598	-112.16
0.0131,0.9869	-112.10
0.0530,0.9470	-112.44
0.0876,0.9124	-118.10
0.0653,0.9347	-118.08
0.0226,0.9774	-111.97
0.0412,0.9588	-112.18
0.0179,0.9821	-116.00
0.0512,0.9488	-112.39
0.0763,0.9237	-115.57
0.0719,0.9281	-112.94
0.0215,0.9785	-111.97
0.0346,0.9654	-112.07
0.0160,0.9840	-112.03
0.0619,0.9381	-115.38
0.0800,0.9200	-115.63
0.0728,0.9272	-115.51
0.0228,0.9772	-111.97
0.0337,0.9663	-112.05
0.0164,0.9836	-112.02
0.0865,0.9135	-120.45
0.0764,0.9236	-118.06
0.0641,0.9359	-112.72
0.0258,0.9742	-115.61
0.0426,0.9574	-115.32
0.0169,0.9831	-112.01
0.0819,0.9181	-113.24
0.0597,0.9403	-115.36
0.0709,0.9291	-115.49
0.0271,0.9729	-111.99
0.0476,0.9524	-112.31
0.0214,0.9786	-111.97
0.0870,0.9130	-118.10
0.0469,0.9531	-112.29
0.0625,0.9375	-112.68
0.0266,0.9734	-115.58
0.0593,0.9407	-115.36
0.0228,0.9772	-111.97
0.0832,0.9168	-113.28
0.0421,0.9579	-112.20
0.0736,0.9264	-112.99
0.0240,0.9760	-111.97
0.0474,0.9526	-115.31
0.0221,0.9779	-111.97
0.0927,0.9073	-115.86
0.0427,0.9573	-115.32
0.0722,0.9278	-112.95
0.0242,0.9758	-115.67
0.0555,0.9445	-112.50
0.0223,0.9777	-111.97
0.0851,0.9149	-113.34
0.0448,0.9552	-115.31
0.0713,0.9287	-120.63
0.0256,0.9744	-111.98
0.0582,0.9418	-112.57
0.0236,0.9764	-111.97
0.1067,0.8933	-116.16
0.0507,0.9493	-115.31
0.0738,0.9262	-115.53
0.0287,0.9713	-112.00
0.0498,0.9502	-115.31
0.0242,0.9758	-115.67
0.0908,0.9092	-115.82
0.0475,0.9525	-112.31
0.0528,0.9472	-112.43
0.0301,0.9699	-112.01
0.0570,0.9430	-115.34
0.0253,0.9747	-115.63
0.0850,0.9150	-118.09
0.0389,0.9611	-112.14
0.0504,0.9496	-112.37
0.0286,0.9714	-112.00
0.0570,0.9430	-112.53
0.0247,0.9753	-111.97
0.0750,0.9250	-113.03
0.0343,0.9657	-112.06
0.0682,0.9318	-118.07
0.0333,0.9667	-112.05
0.0611,0.9389	-115.37
0.0212,0.9788	-111.98
0.0744,0.9256	-118.06
0.0298,0.9702	-115.49
0.0707,0.9293	-112.91
0.0406,0.9594	-115.33
0.0562,0.9438	-112.51
0.0260,0.9740	-115.60
0.0769,0.9231	-113.09
0.0338,0.9662	-118.76
0.0818,0.9182	-113.24
0.0408,0.9592	-115.33
0.0574,0.9426	-115.34
0.0273,0.9727	-111.99
0.0825,0.9175	-113.26
0.0308,0.9692	-112.02
0.0777,0.9223	-120.54
0.0423,0.9577	-115.32
0.0479,0.9521	-118.29
0.0247,0.9753	-111.97
0.0840,0.9160	-115.69
0.0259,0.9741	-111.98
0.0649,0.9351	-112.74
0.0424,0.9576	-112.20
0.0528,0.9472	-112.43
0.0229,0.9771	-111.97
0.0735,0.9265	-115.52
0.0295,0.9705	-112.00
0.0567,0.9433	-120.96
0.0408,0.9592	-112.17
0.0465,0.9535	-112.29
0.0213,0.9787	-111.97
0.0609,0.9391	-112.64
0.0256,0.9744	-115.62
0.0640,0.9360	-115.40
0.0410,0.9590	-115.33
0.0426,0.9574	-112.20
0.0194,0.9806	-111.99
0.0492,0.9508	-121.23
0.0242,0.9758	-111.97
0.0544,0.9456	-112.47
0.0371,0.9629	-112.11
0.0491,0.9509	-112.34
0.0280,0.9720	-111.99
0.0441,0.9559	-115.31
0.0282,0.9718	-111.99
0.0624,0.9376	-115.39
0.0344,0.9656	-122.07
0.0511,0.9489	-115.31
0.0321,0.9679	-115.44
0.0662,0.9338	-115.43
0.0330,0.9670	-115.42
0.0474,0.9526	-118.30
0.0463,0.9537	-112.28
0.0553,0.9447	-112.49
0.0294,0.9706	-115.50
0.0667,0.9333	-115.43
0.0333,0.9667	-112.05
0.0571,0.9429	-112.54
0.0502,0.9498	-112.37
0.0417,0.9583	-115.32
0.0323,0.9677	-112.04
0.0611,0.9389	-118.11
0.0289,0.9711	-112.00
0.0596,0.9404	-112.60
0.0506,0.9494	-112.38
0.0433,0.9567	-115.31
0.0397,0.9603	-112.15
0.0661,0.9339	-112.78
0.0310,0.9690	-112.02
0.0601,0.9399	-115.36
0.0490,0.9510	-115.31
0.0503,0.9497	-112.37
0.0362,0.9638	-112.09
0.0744,0.9256	-123.10
0.0275,0.9725	-111.99
0.0566,0.9434	-112.52
0.0609,0.9391	-112.64
0.0607,0.9393	-112.63
0.0317,0.9683	-115.45
0.0895,0.9105	-118.12
0.0318,0.9682	-112.03
0.0651,0.9349	-118.08
0.0526,0.9474	-115.32
0.0657,0.9343	-112.77
0.0338,0.9662	-112.05
0.0553,0.9447	-112.49
0.0335,0.9665	-112.05
0.0579,0.9421	-112.56
0.0564,0.9436	-118.15
0.0684,0.9316	-115.45
0.0409,0.9591	-115.33
0.0506,0.9494	-115.31
0.0341,0.9659	-115.40
0.0560,0.9440	-115.33
0.0609,0.9391	-115.37
0.0617,0.9383	-115.38
0.0401,0.9599	-115.33
0.0624,0.9376	-115.39
0.0375,0.9625	-112.11
0.0486,0.9514	-112.33
0.0641,0.9359	-115.40
0.0810,0.9190	-113.21
0.0375,0.9625	-115.36
0.0572,0.9428	-112.54
0.0361,0.9639	-112.09
0.0562,0.9438	-115.33
0.0656,0.9344	-112.76
0.1086,0.8914	-116.21
0.0333,0.9667	-115.42
0.0603,0.9397	-112.62
0.0285,0.9715	-112.00
0.0471,0.9529	-112.30
0.0490,0.9510	-112.34
0.1028,0.8972	-120.41
0.0360,0.9640	-115.37
0.0710,0.9290	-115.49
0.0266,0.9734	-115.58
0.0411,0.9589	-112.18
0.0450,0.9550	-112.25
0.1304,0.8696	-116.74
0.0444,0.9556	-112.24
0.0706,0.9294	-112.91
0.0221,0.9779	-111.97
0.0458,0.9542	-112.27
0.0428,0.9572	-115.32
0.1485,0.8515	-120.73
0.0467,0.9533	-112.29
0.0695,0.9305	-112.87
0.0246,0.9754	-111.97
0.0500,0.9500	-112.36
0.0393,0.9607	-112.14
0.1795,0.8205	-119.66
0.0450,0.9550	-112.25
0.0737,0.9263	-115.53
0.0316,0.9684	-115.45
0.0602,0.9398	-118.11
0.0361,0.9639	-115.37
0.1874,0.8126	-122.78
0.0379,0.9621	-112.12
0.0641,0.9359	-112.72
0.0323,0.9677	-112.04
0.0676,0.9324	-112.82
0.0301,0.9699	-112.01
0.1621,0.8379	-117.62
0.0526,0.9474	-112.42
0.0614,0.9386	-112.65
0.0279,0.9721	-111.99
0.0596,0.9404	-115.36
0.0251,0.9749	-111.98
0.1473,0.8527	-120.71
0.0415,0.9585	-115.32
0.0598,0.9402	-112.61
0.0266,0.9734	-111.98
0.0490,0.9510	-115.31
0.0213,0.9787	-111.97
0.1555,0.8445	-117.43
0.0382,0.9618	-112.12
0.0702,0.9298	-115.48
0.0226,0.9774	-111.97
0.0434,0.9566	-115.31
0.0231,0.9769	-111.97
0.1522,0.8478	-122.49
0.0571,0.9429	-112.54
0.0718,0.9282	-118.06
0.0219,0.9781	-111.97
0.0340,0.9660	-112.06
0.0222,0.9778	-111.97
0.1824,0.8176	-119.73
0.0744,0.9256	-115.54
0.0740,0.9260	-115.53
0.0273,0.9727	-111.99
0.0383,0.9617	-115.35
0.0230,0.9770	-111.97
0.1577,0.8423	-117.50
0.0505,0.9495	-112.38
0.0627,0.9373	-112.68
0.0242,0.9758	-111.97
0.0385,0.9615	-112.13
0.0160,0.9840	-112.03
0.1399,0.8601	-115.18
0.0562,0.9438	-112.51
0.0450,0.9550	-112.25
0.0265,0.9735	-122.79
0.0518,0.9482	-112.41
0.0154,0.9846	-112.04
0.1387,0.8613	-120.62
0.0565,0.9435	-115.34
0.0480,0.9520	-112.32
0.0170,0.9830	-112.01
0.0692,0.9308	-115.46
0.0161,0.9839	-112.03
0.1560,0.8440	-115.76
0.0476,0.9524	-112.31
0.0469,0.9531	-112.29
0.0147,0.9853	-112.06
0.0605,0.9395	-118.11
0.0136,0.9864	-112.09
0.1395,0.8605	-118.81
0.0488,0.9512	-118.28
0.0557,0.9443	-112.50
0.0179,0.9821	-116.00
0.0445,0.9555	-115.31
0.0106,0.9894	-112.21
0.1485,0.8515	-120.73
0.0461,0.9539	-112.28
0.0566,0.9434	-112.52
0.0175,0.9825	-112.01
0.0453,0.9547	-115.31
0.0100,0.9900	-116.83
0.1389,0.8611	-115.15
0.0437,0.9563	-112.23
0.0503,0.9497	-112.37
0.0185,0.9815	-111.99
0.0433,0.9567	-112.22
0.0113,0.9887	-112.17
0.1128,0.8872	-116.30
0.0375,0.9625	-115.36
0.0554,0.9446	-115.33
0.0190,0.9810	-111.99
0.0407,0.9593	-115.33
0.0095,0.9905	-112.27
0.1201,0.8799	-120.46
0.0394,0.9606	-112.14
0.0507,0.9493	-115.31
0.0166,0.9834	-116.10
0.0430,0.9570	-115.31
0.0084,0.9916	-112.34
0.1180,0.8820	-114.42
0.0580,0.9420	-115.35
0.0549,0.9451	-115.33
0.0164,0.9836	-112.02
0.0543,0.9457	-112.47
0.0086,0.9914	-117.07
0.1255,0.8745	-116.62
0.0745,0.9255	-113.02
0.0454,0.9546	-112.26
0.0186,0.9814	-111.99
0.0554,0.9446	-112.49
0.0095,0.9905	-112.27
0.1082,0.8918	-116.20
0.0891,0.9109	-115.79
0.0414,0.9586	-112.18
0.0161,0.9839	-112.03
0.0592,0.9408	-115.36
0.0092,0.9908	-112.29
0.0967,0.9033	-113.71
0.0783,0.9217	-115.60
0.0488,0.9512	-112.34
0.0187,0.9813	-111.99
0.0499,0.9501	-112.36
0.0090,0.9910	-117.00
0.1031,0.8969	-113.92
0.0719,0.9281	-115.50
0.0546,0.9454	-115.33
0.0219,0.9781	-111.97
0.0507,0.9493	-112.38
0.0108,0.9892	-112.20
0.1011,0.8989	-118.22
0.0951,0.9049	-120.41
0.0537,0.9463	-115.32
0.0220,0.9780	-115.77
0.0472,0.9528	-112.30
0.0117,0.9883	-112.16
0.0926,0.9074	-115.86
0.0650,0.9350	-112.75
0.0569,0.9431	-112.53
0.0257,0.9743	-115.61
0.0468,0.9532	-115.31
0.0121,0.9879	-112.14
0.0852,0.9148	-113.34
0.0655,0.9345	-115.42
0.0705,0.9295	-112.90
0.0269,0.9731	-111.98
0.0455,0.9545	-112.26
0.0143,0.9857	-112.07
0.0783,0.9217	-115.60
0.0759,0.9241	-115.56
0.0667,0.9333	-112.79
0.0243,0.9757	-115.67
0.0480,0.9520	-112.32
0.0151,0.9849	-112.05
0.0787,0.9213	-120.52
0.0890,0.9110	-115.79
0.0522,0.9478	-112.42
0.0227,0.9773	-111.97
0.0419,0.9581	-112.19
0.0168,0.9832	-112.02
0.0839,0.9161	-115.69
0.0844,0.9156	-113.32
0.0580,0.9420	-115.35
0.0168,0.9832	-112.02
0.0591,0.9409	-112.59
0.0150,0.9850	-112.05
0.0955,0.9045	-115.92
0.0944,0.9056	-113.63
0.0683,0.9317	-120.68
0.0172,0.9828	-112.01
0.0646,0.9354	-115.41
0.0164,0.9836	-116.11
0.0942,0.9058	-113.63
0.0922,0.9078	-113.56
0.0595,0.9405	-112.60
0.0210,0.9790	-111.98
0.0748,0.9252	-115.54
0.0155,0.9845	-112.04
0.0755,0.9245	-115.55
0.0893,0.9107	-113.47
0.0661,0.9339	-115.43
0.0210,0.9790	-111.98
0.0565,0.9435	-112.52
0.0148,0.9852	-112.06
0.0933,0.9067	-118.15
0.1018,0.8982	-118.23
0.0562,0.9438	-115.33
0.0225,0.9775	-115.74
0.0403,0.9597	-112.16
0.0151,0.9849	-112.05
0.0875,0.9125	-113.41
0.1260,0.8740	-116.63
0.0543,0.9457	-112.47
0.0209,0.9791	-111.98
0.0443,0.9557	-112.24
0.0169,0.9831	-112.01
0.0942,0.9058	-115.89
0.1372,0.8628	-116.92
0.0564,0.9436	-112.52
0.0229,0.9771	-111.97
0.0535,0.9465	-115.32
0.0145,0.9855	-112.06
0.1038,0.8962	-113.94
0.1403,0.8597	-120.63
0.0598,0.9402	-115.36
0.0203,0.9797	-111.98
0.0610,0.9390	-115.37
0.0159,0.9841	-112.03
0.0910,0.9090	-120.43
0.1534,0.8466	-119.08
0.0554,0.9446	-115.33
0.0230,0.9770	-115.72
0.0591,0.9409	-115.36
0.0154,0.9846	-112.04
0.0846,0.9154	-113.32
0.1658,0.8342	-119.35
0.0614,0.9386	-115.38
0.0221,0.9779	-111.97
0.0616,0.9384	-112.65
0.0145,0.9855	-116.29
0.0850,0.9150	-115.71
0.1723,0.8277	-116.35
0.0608,0.9392	-115.37
0.0231,0.9769	-111.97
0.0676,0.9324	-112.82
0.0141,0.9859	-112.08
0.1007,0.8993	-116.03
0.1694,0.8306	-116.25
0.0625,0.9375	-115.39
0.0194,0.9806	-115.91
0.0649,0.9351	-112.74
0.0142,0.9858	-116.31
0.1008,0.8992	-113.84
0.1444,0.8556	-118.90
0.0574,0.9426	-115.34
0.0145,0.9855	-112.06
0.0595,0.9405	-118.12
0.0137,0.9863	-112.09
0.1000,0.9000	-113.81
0.1325,0.8675	-114.92
0.0538,0.9462	-121.05
0.0122,0.9878	-112.13
0.0602,0.9398	-115.37
0.0130,0.9870	-112.11
0.0861,0.9139	-115.73
0.1366,0.8634	-118.75
0.0539,0.9461	-115.32
0.0127,0.9873	-112.12
0.0602,0.9398	-112.62
0.0131,0.9869	-112.10
0.1062,0.8938	-114.02
0.1447,0.8553	-118.91
0.0617,0.9383	-115.38
0.0119,0.9881	-112.15
0.0587,0.9413	-115.35
0.0136,0.9864	-120.65
0.0975,0.9025	-118.18
0.1627,0.8373	-117.64
0.0529,0.9471	-112.43
0.0148,0.9852	-116.25
0.0616,0.9384	-112.66
0.0109,0.9891	-121.21
0.1083,0.8917	-118.31
0.1537,0.8463	-119.09
0.0459,0.9541	-112.27
0.0159,0.9841	-112.03
0.0522,0.9478	-115.31
0.0086,0.9914	-112.33
0.0997,0.9003	-116.01
0.1767,0.8233	-119.59
0.0492,0.9508	-115.31
0.0127,0.9873	-112.12
0.0439,0.9561	-118.39
0.0099,0.9901	-112.25
0.0911,0.9089	-115.83
0.1757,0.8243	-121.12
0.0457,0.9543	-112.27
0.0137,0.9863	-112.09
0.0521,0.9479	-115.31
0.0124,0.9876	-112.13
0.0847,0.9153	-113.33
0.1765,0.8235	-118.05
0.0418,0.9582	-112.19
0.0147,0.9853	-112.06
0.0598,0.9402	-115.36
0.0112,0.9888	-112.18
0.0771,0.9229	-113.10
0.1682,0.8318	-117.80
0.0428,0.9572	-112.21
0.0169,0.9831	-112.01
0.0607,0.9393	-112.63
0.0144,0.9856	-112.07
0.0574,0.9426	-112.54
0.2340,0.7660	-119.88
0.0453,0.9547	-115.31
0.0182,0.9818	-112.00
0.0517,0.9483	-115.31
0.0159,0.9841	-112.03
0.0478,0.9522	-112.31
0.2324,0.7676	-119.82
0.0440,0.9560	-115.31
0.0168,0.9832	-112.02
0.0478,0.9522	-115.31
0.0182,0.9818	-112.00
0.0453,0.9547	-112.26
0.2172,0.7828	-123.17
0.0583,0.9417	-112.57
0.0141,0.9859	-112.07
0.0512,0.9488	-115.31
0.0188,0.9812	-111.99
0.0451,0.9549	-115.31
0.2051,0.7949	-123.00
0.0453,0.9547	-115.31
0.0140,0.9860	-116.33
0.0539,0.9461	-112.46
0.0174,0.9826	-112.01
0.0439,0.9561	-118.39
0.1987,0.8013	-118.73
0.0557,0.9443	-115.33
0.0127,0.9873	-112.12
0.0490,0.9510	-112.34
0.0187,0.9813	-111.99
0.0391,0.9609	-112.14
0.1941,0.8059	-122.86
0.0616,0.9384	-112.65
0.0120,0.9880	-112.15
0.0549,0.9451	-112.48
0.0152,0.9848	-116.22
0.0523,0.9477	-112.42
0.1531,0.8469	-120.78
0.0727,0.9273	-115.51
0.0137,0.9863	-112.08
0.0534,0.9466	-115.32
0.0146,0.9854	-112.06
0.0522,0.9478	-115.31
0.1620,0.8380	-119.26
0.0728,0.9272	-112.97
0.0130,0.9870	-112.11
0.0610,0.9390	-112.64
0.0141,0.9859	-112.07
0.0558,0.9442	-112.50
0.1280,0.8720	-114.76
0.0572,0.9428	-115.34
0.0138,0.9862	-112.08
0.0472,0.9528	-112.30
0.0140,0.9860	-112.08
0.0542,0.9458	-112.46
0.1263,0.8737	-116.64
0.0608,0.9392	-118.11
0.0138,0.9862	-112.08
0.0471,0.9529	-115.31
0.0139,0.9861	-112.08
0.0467,0.9533	-115.31
0.1060,0.8940	-120.41
0.0586,0.9414	-115.35
0.0111,0.9889	-112.18
0.0398,0.9602	-115.33
0.0163,0.9837	-112.02
0.0522,0.9478	-112.41
0.0976,0.9024	-113.74
0.0508,0.9492	-112.38
0.0144,0.9856	-112.07
0.0411,0.9589	-112.18
0.0189,0.9811	-111.99
0.0555,0.9445	-112.50
0.0960,0.9040	-113.69
0.0428,0.9572	-112.21
0.0124,0.9876	-112.13
0.0442,0.9558	-112.24
0.0207,0.9793	-111.98
0.0665,0.9335	-112.79
0.0714,0.9286	-112.93
0.0429,0.9571	-121.53
0.0137,0.9863	-112.08
0.0522,0.9478	-112.42
0.0278,0.9722	-111.99
0.0571,0.9429	-115.34
0.0717,0.9283	-115.50
0.0386,0.9614	-112.13
0.0115,0.9885	-112.16
0.0456,0.9544	-115.31
0.0252,0.9748	-115.63
0.0613,0.9387	-112.65
0.0709,0.9291	-118.06
0.0437,0.9563	-115.31
0.0133,0.9867	-112.10
0.0556,0.9444	-112.50
0.0241,0.9759	-111.97
0.0602,0.9398	-112.62
0.0725,0.9275	-112.96
0.0463,0.9537	-112.28
0.0103,0.9897	-112.22
0.0615,0.9385	-112.65
0.0235,0.9765	-115.70
0.0504,0.9496	-112.37
0.0720,0.9280	-115.50
0.0602,0.9398	-115.37
0.0108,0.9892	-112.20
0.0706,0.9294	-115.48
0.0246,0.9754	-119.34
0.0445,0.9555	-112.24
0.0712,0.9288	-112.92
0.0600,0.9400	-112.61
0.0116,0.9884	-112.16
0.0664,0.9336	-118.07
0.0334,0.9666	-112.05
0.0464,0.9536	-112.28
0.0654,0.9346	-115.42
0.0584,0.9416	-115.35
0.0121,0.9879	-112.14
0.0704,0.9296	-118.06
0.0215,0.9785	-111.97
0.0354,0.9646	-115.38
0.0812,0.9188	-113.22
0.0653,0.9347	-112.75
0.0145,0.9855	-112.06
0.0643,0.9357	-115.41
0.0239,0.9761	-111.97
0.0397,0.9603	-112.15
0.0788,0.9212	-113.14
0.0587,0.9413	-115.35
0.0177,0.9823	-112.00
0.0587,0.9413	-112.58
0.0240,0.9760	-111.97
0.0438,0.9562	-112.23
0.0799,0.9201	-113.18
0.0736,0.9264	-115.52
0.0135,0.9865	-116.39
0.0602,0.9398	-112.62
0.0251,0.9749	-111.98
0.0490,0.9510	-115.31
0.0973,0.9027	-115.95
0.1036,0.8964	-116.09
0.0170,0.9830	-116.07
0.0557,0.9443	-112.50
0.0328,0.9672	-115.43
0.0332,0.9668	-112.05
0.0902,0.9098	-120.43
0.0966,0.9034	-115.94
0.0186,0.9814	-111.99
0.0573,0.9427	-120.94
0.0252,0.9748	-119.29
0.0313,0.9687	-112.02
0.0916,0.9084	-113.54
0.1182,0.8818	-118.44
0.0150,0.9850	-112.05
0.0542,0.9458	-115.32
0.0196,0.9804	-111.98
0.0259,0.9741	-111.98
0.0804,0.9196	-115.63
0.1148,0.8852	-118.39
0.0160,0.9840	-112.03
0.0629,0.9371	-112.69
0.0218,0.9782	-115.78
0.0299,0.9701	-112.01
0.0772,0.9228	-120.54
0.0993,0.9007	-116.00
0.0191,0.9809	-111.99
0.0738,0.9262	-113.00
0.0272,0.9728	-115.56
0.0264,0.9736	-111.98
0.0857,0.9143	-113.36
0.1103,0.8897	-116.24
0.0166,0.9834	-116.10
0.0765,0.9235	-118.06
0.0294,0.9706	-115.50
0.0228,0.9772	-111.97
0.0890,0.9110	-113.46
0.0891,0.9109	-115.79
0.0193,0.9807	-115.91
0.0821,0.9179	-118.07
0.0309,0.9691	-112.02
0.0197,0.9803	-115.89
0.0860,0.9140	-113.37
0.0851,0.9149	-115.71
0.0212,0.9788	-111.98
0.0963,0.9037	-113.69
0.0286,0.9714	-112.00
0.0206,0.9794	-111.98
0.1015,0.8985	-118.23
0.0825,0.9175	-113.26
0.0249,0.9751	-111.97
0.0934,0.9066	-115.87
0.0365,0.9635	-112.10
0.0227,0.9773	-111.97
0.1025,0.8975	-118.24
0.1033,0.8967	-113.92
0.0266,0.9734	-119.19
0.1043,0.8957	-113.96
0.0336,0.9664	-112.05
0.0185,0.9815	-111.99
0.1175,0.8825	-114.40
0.1078,0.8922	-114.07
0.0287,0.9713	-115.52
0.1414,0.8586	-117.04
0.0319,0.9681	-112.03
0.0169,0.9831	-112.01
0.0899,0.9101	-115.80
0.1111,0.8889	-118.34
0.0337,0.9663	-112.05
0.1561,0.8439	-119.14
0.0332,0.9668	-115.42
0.0211,0.9789	-111.98
0.0970,0.9030	-113.72
0.0972,0.9028	-118.18
0.0319,0.9681	-112.03
0.1423,0.8577	-120.66
0.0356,0.9644	-115.38
0.0259,0.9741	-111.98
0.1122,0.8878	-116.29
0.0898,0.9102	-113.49
0.0366,0.9634	-112.10
0.1409,0.8591	-117.02
0.0367,0.9633	-112.10
0.0214,0.9786	-111.97
0.1277,0.8723	-116.67
0.1000,0.9000	-113.81
0.0352,0.9648	-115.39
0.1410,0.8590	-120.64
0.0366,0.9634	-112.10
0.0191,0.9809	-111.99
0.1115,0.8885	-114.20
0.0884,0.9116	-118.11
0.0350,0.9650	-112.07
0.1275,0.8725	-114.75
0.0367,0.9633	-112.10
0.0178,0.9822	-112.00
0.1163,0.8837	-116.39
0.0693,0.9307	-120.66
0.0370,0.9630	-115.36
0.1420,0.8580	-122.45
0.0325,0.9675	-115.43
0.0155,0.9845	-112.04
0.0881,0.9119	-115.77
0.0648,0.9352	-115.41
0.0315,0.9685	-112.03
0.1044,0.8956	-116.11
0.0242,0.9758	-115.67
0.0153,0.9847	-112.05
0.0753,0.9247	-113.04
0.0535,0.9465	-112.45
0.0349,0.9651	-112.07
0.1014,0.8986	-113.86
0.0227,0.9773	-111.97
0.0141,0.9859	-112.07
0.0960,0.9040	-115.93
0.0560,0.9440	-112.51
0.0524,0.9476	-115.32
0.0919,0.9081	-118.13
0.0207,0.9793	-111.98
0.0137,0.9863	-112.09
0.1045,0.8955	-118.26
0.0686,0.9314	-115.46
0.0492,0.9508	-115.31
0.0806,0.9194	-113.20
0.0217,0.9783	-111.97
0.0155,0.9845	-112.04
0.0892,0.9108	-115.79
0.0590,0.9410	-115.35
0.0489,0.9511	-115.31
0.0861,0.9139	-115.73
0.0207,0.9793	-111.98
0.0157,0.9843	-112.04
0.0973,0.9027	-115.95
0.0568,0.9432	-118.15
0.0505,0.9495	-112.38
0.0927,0.9073	-115.86
0.0184,0.9816	-111.99
0.0104,0.9896	-112.22
0.1024,0.8976	-116.06
0.0620,0.9380	-115.38
0.0669,0.9331	-115.43
0.0715,0.9285	-115.49
0.0175,0.9825	-112.01
0.0103,0.9897	-112.22
0.0960,0.9040	-115.93
0.0733,0.9267	-115.52
0.0654,0.9346	-112.76
0.0770,0.9230	-115.58
0.0168,0.9832	-112.02
0.0105,0.9895	-112.21
0.1335,0.8665	-118.70
0.0730,0.9270	-112.97
0.0490,0.9510	-118.27
0.0723,0.9277	-112.95
0.0141,0.9859	-116.32
0.0105,0.9895	-112.21
0.1380,0.8620	-116.94
0.0652,0.9348	-112.75
0.0478,0.9522	-118.30
0.0743,0.9257	-113.01
0.0148,0.9852	-112.06
0.0109,0.9891	-112.19
0.1203,0.8797	-118.48
0.0605,0.9395	-112.63
0.0453,0.9547	-112.26
0.0687,0.9313	-115.46
0.0133,0.9867	-112.10
0.0094,0.9906	-116.93
0.1018,0.8982	-118.23
0.0584,0.9416	-115.35
0.0477,0.9523	-115.31
0.0584,0.9416	-115.35
0.0125,0.9875	-112.13
0.0086,0.9914	-112.33
0.1006,0.8994	-118.22
0.0539,0.9461	-118.19
0.0543,0.9457	-112.47
0.0724,0.9276	-115.51
0.0137,0.9863	-112.08
0.0094,0.9906	-112.28
0.0945,0.9055	-118.16
0.0629,0.9371	-115.39
0.0475,0.9525	-112.31
0.0948,0.9052	-113.65
0.0124,0.9876	-112.13
0.0111,0.9889	-112.18
0.0926,0.9074	-115.86
0.0614,0.9386	-115.38
0.0355,0.9645	-115.38
0.0983,0.9017	-115.98
0.0110,0.9890	-112.19
0.0109,0.9891	-112.19
0.0920,0.9080	-115.85
0.0657,0.9343	-118.08
0.0314,0.9686	-115.45
0.1083,0.8917	-116.20
0.0102,0.9898	-112.23
0.0100,0.9900	-112.24
0.0808,0.9192	-115.64
0.0721,0.9279	-112.95
0.0334,0.9666	-112.05
0.1096,0.8904	-116.23
0.0083,0.9917	-112.35
0.0146,0.9854	-112.06
0.0704,0.9296	-112.90
0.0835,0.9165	-118.08
0.0366,0.9634	-112.10
0.1019,0.8981	-113.88
0.0104,0.9896	-112.22
0.0184,0.9816	-119.94
0.0698,0.9302	-115.47
0.0719,0.9281	-120.62
0.0329,0.9671	-112.04
0.1269,0.8731	-116.65
0.0115,0.9885	-112.17
0.0242,0.9758	-111.97
0.0600,0.9400	-112.61
0.0718,0.9282	-112.94
0.0366,0.9634	-112.10
0.1326,0.8674	-116.80
0.0126,0.9874	-112.12
0.0266,0.9734	-111.98
0.0701,0.9299	-118.06
0.0697,0.9303	-112.88
0.0330,0.9670	-115.42
0.1368,0.8632	-116.91
0.0090,0.9910	-112.30
0.0270,0.9730	-115.57
0.0642,0.9358	-115.40
0.0567,0.9433	-115.34
0.0265,0.9735	-111.98
0.1578,0.8422	-117.50
0.0080,0.9920	-112.38
0.0269,0.9731	-111.98
0.0601,0.9399	-112.61
0.0541,0.9459	-115.32
0.0268,0.9732	-115.57
0.1467,0.8533	-118.95
0.0076,0.9924	-112.41
0.0235,0.9765	-111.97
0.0623,0.9377	-115.38
0.0657,0.9343	-118.08
0.0273,0.9727	-111.99
0.1806,0.8194	-118.17
0.0083,0.9917	-112.35
0.0149,0.9851	-112.05
0.0562,0.9438	-120.98
0.0577,0.9423	-112.55
0.0242,0.9758	-111.97
0.1723,0.8277	-119.49
0.0095,0.9905	-112.27
0.0231,0.9769	-111.97
0.0535,0.9465	-112.45
0.0424,0.9576	-118.44
0.0263,0.9737	-111.98
0.1355,0.8645	-118.73
0.0110,0.9890	-112.19
0.0223,0.9777	-111.97
0.0455,0.9545	-112.26
0.0537,0.9463	-112.45
0.0305,0.9695	-112.02
0.1320,0.8680	-118.67
0.0122,0.9878	-112.14
0.0214,0.9786	-111.97
0.0540,0.9460	-112.46
0.0528,0.9472	-112.43
0.0308,0.9692	-112.02
0.1118,0.8882	-116.28
0.0123,0.9877	-112.13
0.0260,0.9740	-111.98
0.0448,0.9552	-112.25
0.0600,0.9400	-112.61
0.0272,0.9728	-111.99
0.1189,0.8811	-116.45
0.0162,0.9838	-112.03
0.0303,0.9697	-115.48
0.0461,0.9539	-115.31
0.0709,0.9291	-115.49
0.0284,0.9716	-112.00
0.1062,0.8938	-120.41
0.0171,0.9829	-112.01
0.0295,0.9705	-112.01
0.0446,0.9554	-121.44
0.0940,0.9060	-118.15
0.0319,0.9681	-112.03
0.0960,0.9040	-118.17
0.0172,0.9828	-112.01
0.0279,0.9721	-111.99
0.0373,0.9627	-112.11
0.0900,0.9100	-113.49
0.0363,0.9637	-115.37
0.1042,0.8958	-116.10
0.0168,0.9832	-112.02
0.0269,0.9731	-119.16
0.0477,0.9523	-112.31
0.0797,0.9203	-113.17
0.0336,0.9664	-112.05
0.1043,0.8957	-118.26
0.0170,0.9830	-112.01
0.0322,0.9678	-115.44
0.0571,0.9429	-115.34
0.0912,0.9088	-113.53
0.0440,0.9560	-118.39
0.0989,0.9011	-122.62
0.0128,0.9872	-112.11
0.0311,0.9689	-112.02
0.0611,0.9389	-112.64
0.1004,0.8996	-116.02
0.0446,0.9554	-112.25
0.1146,0.8854	-114.30
0.0113,0.9887	-112.17
0.0326,0.9674	-112.04
0.0593,0.9407	-112.59
0.1201,0.8799	-118.47
0.0340,0.9660	-112.06
0.1342,0.8658	-114.98
0.0107,0.9893	-112.20
0.0304,0.9696	-112.01
0.0502,0.9498	-115.31
0.1146,0.8854	-120.44
0.0292,0.9708	-115.51
0.1227,0.8773	-116.55
0.0110,0.9890	-112.19
0.0395,0.9605	-112.15
0.0540,0.9460	-112.46
0.0999,0.9001	-113.81
0.0308,0.9692	-112.02
0.1312,0.8688	-118.66
0.0128,0.9872	-112.11
0.0361,0.9639	-112.09
0.0566,0.9434	-118.15
0.1146,0.8854	-116.35
0.0300,0.9700	-115.49
0.1038,0.8962	-116.10
0.0102,0.9898	-112.23
0.0325,0.9675	-112.04
0.0619,0.9381	-115.38
0.1260,0.8740	-116.63
0.0273,0.9727	-111.99
0.1018,0.8982	-113.87
0.0105,0.9895	-112.21
0.0311,0.9689	-112.02
0.0624,0.9376	-120.80
0.1260,0.8740	-122.44
0.0251,0.9749	-111.98
0.0990,0.9010	-118.20
0.0091,0.9909	-112.30
0.0290,0.9710	-112.00
0.0686,0.9314	-118.06
0.1137,0.8863	-116.33
0.0262,0.9738	-115.59
0.0935,0.9065	-118.15
0.0096,0.9904	-112.26
0.0248,0.9752	-111.97
0.0632,0.9368	-112.70
0.1198,0.8802	-116.47
0.0284,0.9716	-112.00
0.0991,0.9009	-115.99
0.0109,0.9891	-112.19
0.0233,0.9767	-111.97
0.0725,0.9275	-118.06
0.1153,0.8847	-118.40
0.0379,0.9621	-118.59
0.1245,0.8755	-120.49
0.0091,0.9909	-112.30
0.0227,0.9773	-111.97
0.0689,0.9311	-112.86
0.1119,0.8881	-116.28
0.0306,0.9694	-112.02
0.1043,0.8957	-116.11
0.0109,0.9891	-112.19
0.0215,0.9785	-115.79
0.0662,0.9338	-112.78
0.0878,0.9122	-113.42
0.0279,0.9721	-115.54
0.0949,0.9051	-115.90
0.0096,0.9904	-112.26
0.0270,0.9730	-111.99
0.0611,0.9389	-112.64
0.0789,0.9211	-113.15
0.0199,0.9801	-111.98
0.1108,0.8892	-120.42
0.0093,0.9907	-112.28
0.0293,0.9707	-112.00
0.0578,0.9422	-112.55
0.0739,0.9261	-118.06
0.0163,0.9837	-112.02
0.0768,0.9232	-118.06
0.0112,0.9888	-112.18
0.0280,0.9720	-115.54
0.0595,0.9405	-118.12
0.0858,0.9142	-113.36
0.0233,0.9767	-111.97
0.0864,0.9136	-113.38
0.0103,0.9897	-112.22
0.0263,0.9737	-115.59
0.0626,0.9374	-112.68
0.0779,0.9221	-113.12
0.0276,0.9724	-111.99
0.1022,0.8978	-116.06
0.0093,0.9907	-112.28
0.0238,0.9762	-115.69
0.0639,0.9361	-112.72
0.0591,0.9409	-115.36
0.0220,0.9780	-119.56
0.0942,0.9058	-115.89
0.0078,0.9922	-112.39
0.0211,0.9789	-111.98
0.0594,0.9406	-115.36
0.0769,0.9231	-113.09
0.0193,0.9807	-111.99
0.1017,0.8983	-118.23
0.0090,0.9910	-112.30
0.0231,0.9769	-111.97
0.0406,0.9594	-115.33
0.0638,0.9362	-112.71
0.0179,0.9821	-112.00
0.1191,0.8809	-124.46
0.0085,0.9915	-112.34
0.0257,0.9743	-111.98
0.0406,0.9594	-115.33
0.0601,0.9399	-112.62
0.0168,0.9832	-112.02
0.1266,0.8734	-114.71
0.0096,0.9904	-112.26
0.0266,0.9734	-119.19
0.0481,0.9519	-118.29
0.0497,0.9503	-112.36
0.0146,0.9854	-112.06
0.1138,0.8862	-116.33
0.0106,0.9894	-112.21
0.0254,0.9746	-111.98
0.0529,0.9471	-112.43
0.0565,0.9435	-112.52
0.0134,0.9866	-112.09
0.1093,0.8907	-120.42
0.0111,0.9889	-112.18
0.0293,0.9707	-119.01
0.0486,0.9514	-118.28
0.0565,0.9435	-115.34
0.0155,0.9845	-112.04
0.1204,0.8796	-116.49
0.0105,0.9895	-112.21
0.0303,0.9697	-112.01
0.0417,0.9583	-112.19
0.0578,0.9422	-112.55
0.0140,0.9860	-116.33
0.1292,0.8708	-118.62
0.0115,0.9885	-116.61
0.0283,0.9717	-115.53
0.0428,0.9572	-112.21
0.0598,0.9402	-112.61
0.0143,0.9857	-112.07
0.1386,0.8614	-116.96
0.0105,0.9895	-116.76
0.0399,0.9601	-112.15
0.0352,0.9648	-115.39
0.0480,0.9520	-112.32
0.0118,0.9882	-112.15
0.1358,0.8642	-118.74
0.0108,0.9892	-112.20
0.0415,0.9585	-115.32
0.0360,0.9640	-112.09
0.0410,0.9590	-112.17
0.0147,0.9853	-112.06
0.1705,0.8295	-117.87
0.0110,0.9890	-112.19
0.0573,0.9427	-115.34
0.0323,0.9677	-112.04
0.0441,0.9559	-115.31
0.0141,0.9859	-112.07
0.2140,0.7860	-123.12
0.0110,0.9890	-112.19
0.0591,0.9409	-115.36
0.0396,0.9604	-112.15
0.0536,0.9464	-118.19
0.0137,0.9863	-112.09
0.1882,0.8118	-121.33
0.0110,0.9890	-112.19
0.0657,0.9343	-115.42
0.0529,0.9471	-112.43
0.0481,0.9519	-118.29
0.0125,0.9875	-112.13
0.1935,0.8065	-120.00
0.0136,0.9864	-116.37
0.0654,0.9346	-112.76
0.0581,0.9419	-112.56
0.0589,0.9411	-112.58
0.0118,0.9882	-112.15
0.1664,0.8336	-120.97
0.0159,0.9841	-112.03
0.0691,0.9309	-112.86
0.0675,0.9325	-112.82
0.0621,0.9379	-115.38
0.0107,0.9893	-112.20
0.1736,0.8264	-122.64
0.0128,0.9872	-112.12
0.0793,0.9207	-115.61
0.0643,0.9357	-115.41
0.0533,0.9467	-112.44
0.0094,0.9906	-112.28
0.1992,0.8008	-120.14
0.0142,0.9858	-112.07
0.0652,0.9348	-115.42
0.0810,0.9190	-113.21
0.0649,0.9351	-112.74
0.0091,0.9909	-112.30
0.1982,0.8018	-118.72
0.0143,0.9857	-112.07
0.0777,0.9223	-113.11
0.0749,0.9251	-115.54
0.0808,0.9192	-115.64
0.0068,0.9932	-112.48
0.2027,0.7973	-120.23
0.0156,0.9844	-112.04
0.0732,0.9268	-115.52
0.0733,0.9267	-118.06
0.0780,0.9220	-115.59
0.0066,0.9934	-112.51
0.1986,0.8014	-118.73
0.0176,0.9824	-116.02
0.0589,0.9411	-115.35
0.0860,0.9140	-115.73
0.0617,0.9383	-120.82
0.0061,0.9939	-112.56
0.1902,0.8098	-121.36
0.0115,0.9885	-112.16
0.0601,0.9399	-118.11
0.0828,0.9172	-115.67
0.0699,0.9301	-112.88
0.0067,0.9933	-112.49
0.1806,0.8194	-119.69
0.0093,0.9907	-112.28
0.0565,0.9435	-115.34
0.0678,0.9322	-112.82
0.0877,0.9123	-113.42
0.0090,0.9910	-112.30
0.1720,0.8280	-122.63
0.0072,0.9928	-112.44
0.0513,0.9487	-115.31
0.0650,0.9350	-118.08
0.0882,0.9118	-118.11
0.0124,0.9876	-112.13
0.1859,0.8141	-119.81
0.0078,0.9922	-112.39
0.0593,0.9407	-115.36
0.0650,0.9350	-115.41
0.1114,0.8886	-118.35
0.0129,0.9871	-112.11
0.1530,0.8470	-120.78
0.0077,0.9923	-112.40
0.0799,0.9201	-118.07
0.0644,0.9356	-112.73
0.1310,0.8690	-118.65
0.0123,0.9877	-112.13
0.1598,0.8402	-117.56
0.0065,0.9935	-112.51
0.0631,0.9369	-112.70
0.0662,0.9338	-112.78
0.1274,0.8726	-116.67
0.0141,0.9859	-112.07
0.1714,0.8286	-121.05
0.0056,0.9944	-112.63
0.0672,0.9328	-115.44
0.0663,0.9337	-118.07
0.1013,0.8987	-113.86
0.0145,0.9855	-116.28
0.1628,0.8372	-116.00
0.0041,0.9959	-112.87
0.0581,0.9419	-112.56
0.0634,0.9366	-115.40
0.0959,0.9041	-118.17
0.0216,0.9784	-115.79
0.1715,0.8285	-124.20
0.0046,0.9954	-112.78
0.0469,0.9531	-115.31
0.0861,0.9139	-115.73
0.1168,0.8832	-118.42
0.0263,0.9737	-111.98
0.1934,0.8066	-120.00
0.0043,0.9957	-112.83
0.0542,0.9458	-115.32
0.0826,0.9174	-113.26
0.0810,0.9190	-115.64
0.0291,0.9709	-112.00
0.1682,0.8318	-117.80
0.0039,0.9961	-112.92
0.0560,0.9440	-118.16
0.0847,0.9153	-113.33
0.0892,0.9108	-118.11
0.0331,0.9669	-112.05
0.1595,0.8405	-119.21
0.0060,0.9940	-112.58
0.0454,0.9546	-118.35
0.0891,0.9109	-120.44
0.0976,0.9024	-113.74
0.0371,0.9629	-121.87
0.1422,0.8578	-120.65
0.0070,0.9930	-112.47
0.0456,0.9544	-115.31
0.0763,0.9237	-115.56
0.1142,0.8858	-118.39
0.0381,0.9619	-112.12
0.1310,0.8690	-118.65
0.0067,0.9933	-112.50
0.0386,0.9614	-115.34
0.0755,0.9245	-115.55
0.0910,0.9090	-118.13
0.0460,0.9540	-112.27
0.1127,0.8873	-118.36
0.0052,0.9948	-112.69
0.0342,0.9658	-112.06
0.0945,0.9055	-120.42
0.1012,0.8988	-120.41
0.0373,0.9627	-115.36
0.1358,0.8642	-122.44
0.0058,0.9942	-112.60
0.0361,0.9639	-112.09
0.0891,0.9109	-113.46
0.0992,0.9008	-116.00
0.0395,0.9605	-112.15
0.1423,0.8577	-115.27
0.0071,0.9929	-112.46
0.0311,0.9689	-115.46
0.0753,0.9247	-113.04
0.0902,0.9098	-118.12
0.0429,0.9571	-112.21
0.1143,0.8857	-118.39
0.0058,0.9942	-112.59
0.0312,0.9688	-112.02
0.0943,0.9057	-113.63
0.1201,0.8799	-116.48
0.0404,0.9596	-112.16
0.1170,0.8830	-118.43
0.0058,0.9942	-112.60
