#isoforms=['ENSG00000186575.SE.4.A.up_ENSG00000186575.SE.4.A.SE1_ENSG00000186575.SE.4.A.dn','ENSG00000186575.SE.4.B.up_ENSG00000186575.SE.4.B.dn']	exon_lens=('ENSG00000186575.SE.4.A.up',128),('ENSG00000186575.SE.4.A.SE1',163),('ENSG00000186575.SE.4.A.dn',3847),('ENSG00000186575.SE.4.B.up',128),('ENSG00000186575.SE.4.B.dn',194)	iters=5000	burn_in=500	lag=10	percent_accept=95.04	proposal_type=drift	counts=(0,0):315,(1,0):1553,(1,1):95	assigned_counts=0:1629,1:19	chrom=chr22	strand=+	mRNA_starts=29678196,29678196	mRNA_ends=29698598,29694945
sampled_psi	log_score
0.8516,0.1484	-13717.36
0.8335,0.1665	-13732.78
0.9531,0.0469	-13703.69
0.8359,0.1641	-13726.29
0.8473,0.1527	-13720.99
0.7896,0.2104	-13741.21
0.8373,0.1627	-13731.18
0.8284,0.1716	-13726.45
0.9563,0.0437	-13709.91
0.8247,0.1753	-13731.20
0.8488,0.1512	-13720.94
0.7802,0.2198	-13737.38
0.8276,0.1724	-13729.61
0.8357,0.1643	-13734.42
0.9479,0.0521	-13703.65
0.8103,0.1897	-13732.84
0.8338,0.1662	-13731.17
0.7581,0.2419	-13735.68
0.8740,0.1260	-13722.36
0.8332,0.1668	-13719.91
0.9563,0.0437	-13706.83
0.7836,0.2164	-13730.88
0.8509,0.1491	-13722.62
0.7540,0.2460	-13735.87
0.8821,0.1179	-13722.40
0.8239,0.1761	-13734.29
0.9591,0.0409	-13703.81
0.8045,0.1955	-13740.00
0.8666,0.1334	-13713.04
0.7918,0.2082	-13735.88
0.8872,0.1128	-13705.97
0.8299,0.1701	-13731.17
0.9529,0.0471	-13706.69
0.7982,0.2018	-13742.68
0.8916,0.1084	-13716.23
0.7481,0.2519	-13737.26
0.8786,0.1214	-13718.42
0.8302,0.1698	-13735.93
0.9521,0.0479	-13700.69
0.8125,0.1875	-13737.21
0.8900,0.1100	-13716.24
0.7045,0.2955	-13748.68
0.8786,0.1214	-13730.30
0.8347,0.1653	-13726.31
0.9556,0.0444	-13719.08
0.8351,0.1649	-13729.55
0.8899,0.1101	-13709.98
0.7178,0.2822	-13746.49
0.8799,0.1201	-13710.43
0.8483,0.1517	-13724.40
0.9464,0.0536	-13712.27
0.8162,0.1838	-13731.29
0.8983,0.1017	-13714.01
0.7310,0.2690	-13746.18
0.8804,0.1196	-13728.38
0.8533,0.1467	-13731.37
0.9546,0.0454	-13715.89
0.7988,0.2012	-13733.04
0.8945,0.1055	-13739.71
0.7205,0.2795	-13742.63
0.8670,0.1330	-13716.76
0.8711,0.1289	-13720.46
0.9598,0.0402	-13697.49
0.7992,0.2008	-13731.65
0.8829,0.1171	-13726.45
0.7364,0.2636	-13743.01
0.8528,0.1472	-13722.58
0.8681,0.1319	-13726.15
0.9521,0.0479	-13706.67
0.7991,0.2009	-13738.55
0.8777,0.1223	-13720.40
0.7416,0.2584	-13743.91
0.8509,0.1491	-13722.62
0.8749,0.1251	-13722.37
0.9336,0.0664	-13711.75
0.8104,0.1896	-13721.22
0.8677,0.1323	-13718.62
0.7539,0.2461	-13738.12
0.8580,0.1420	-13727.88
0.8687,0.1313	-13724.27
0.8987,0.1013	-13709.64
0.8176,0.1824	-13728.27
0.8796,0.1204	-13724.37
0.7343,0.2657	-13742.05
0.8411,0.1589	-13727.87
0.9028,0.0972	-13709.50
0.9102,0.0898	-13706.99
0.8282,0.1718	-13731.18
0.8952,0.1048	-13724.78
0.7827,0.2173	-13742.46
0.8720,0.1280	-13724.29
0.9089,0.0911	-13707.03
0.9010,0.0990	-13718.39
0.8381,0.1619	-13729.54
0.8890,0.1110	-13716.26
0.7550,0.2450	-13738.08
0.8659,0.1341	-13733.59
0.9280,0.0720	-13714.20
0.9143,0.0857	-13709.22
0.8050,0.1950	-13727.24
0.8961,0.1039	-13701.11
0.7476,0.2524	-13737.29
0.8820,0.1180	-13712.34
0.9334,0.0666	-13714.39
0.9010,0.0990	-13711.77
0.8394,0.1606	-13729.53
0.8893,0.1107	-13716.25
0.7901,0.2099	-13731.93
0.8826,0.1174	-13732.49
0.9263,0.0737	-13711.62
0.8901,0.1099	-13714.15
0.8313,0.1687	-13720.00
0.8529,0.1471	-13727.85
0.8187,0.1813	-13734.27
0.8420,0.1580	-13734.55
0.9357,0.0643	-13717.17
0.8708,0.1292	-13718.55
0.8377,0.1623	-13718.05
0.8474,0.1526	-13726.13
0.8500,0.1500	-13724.37
0.8535,0.1465	-13727.85
0.9319,0.0681	-13703.86
0.8988,0.1012	-13709.63
0.8386,0.1614	-13727.89
0.8542,0.1458	-13724.32
0.8724,0.1276	-13716.60
0.8770,0.1230	-13726.30
0.9296,0.0704	-13706.51
0.9057,0.0943	-13709.42
0.8245,0.1755	-13725.01
0.8668,0.1332	-13714.90
0.8583,0.1417	-13724.28
0.8826,0.1174	-13722.41
0.9298,0.0702	-13711.67
0.9218,0.0782	-13709.11
0.8102,0.1898	-13725.58
0.8409,0.1591	-13724.54
0.8651,0.1349	-13713.11
0.8865,0.1135	-13718.35
0.9234,0.0766	-13701.63
0.9193,0.0807	-13711.57
0.8044,0.1956	-13731.51
0.8479,0.1521	-13720.97
0.8773,0.1227	-13734.17
0.8923,0.1077	-13724.68
0.9229,0.0771	-13706.62
0.9061,0.0939	-13713.94
0.7962,0.2038	-13733.10
0.8522,0.1478	-13717.33
0.8869,0.1131	-13726.58
0.9135,0.0865	-13706.88
0.9162,0.0838	-13711.58
0.9127,0.0873	-13704.56
0.8202,0.1798	-13740.34
0.8506,0.1494	-13729.58
0.9063,0.0937	-13704.86
0.9359,0.0641	-13703.77
0.9358,0.0642	-13703.78
0.9367,0.0633	-13706.45
0.8142,0.1858	-13729.84
0.8483,0.1517	-13722.68
0.8998,0.1002	-13711.79
0.9321,0.0679	-13709.10
0.9317,0.0683	-13701.26
0.9429,0.0571	-13700.87
0.8331,0.1669	-13723.13
0.8517,0.1483	-13719.10
0.9081,0.0919	-13716.23
0.9316,0.0684	-13719.54
0.9445,0.0555	-13703.66
0.9543,0.0457	-13709.78
0.8472,0.1528	-13726.13
0.8313,0.1687	-13731.17
0.9115,0.0885	-13706.94
0.9379,0.0621	-13698.31
0.9364,0.0636	-13709.14
0.9592,0.0408	-13697.50
0.8117,0.1883	-13734.28
0.8229,0.1771	-13728.14
0.9059,0.0941	-13713.94
0.9267,0.0733	-13716.70
0.9562,0.0438	-13700.65
0.9537,0.0463	-13694.62
0.8176,0.1824	-13720.77
0.8209,0.1791	-13729.71
0.9271,0.0729	-13704.00
0.9289,0.0711	-13701.38
0.9548,0.0452	-13703.71
0.9466,0.0534	-13706.53
0.8008,0.1992	-13731.60
0.8145,0.1855	-13735.75
0.9365,0.0635	-13719.91
0.9301,0.0699	-13706.50
0.9485,0.0515	-13703.65
0.9479,0.0521	-13697.85
0.7900,0.2100	-13733.26
0.7929,0.2071	-13731.84
0.9313,0.0687	-13716.91
0.9312,0.0688	-13701.28
0.9509,0.0491	-13709.59
0.9425,0.0575	-13709.27
0.7821,0.2179	-13742.45
0.8206,0.1794	-13735.79
0.9316,0.0684	-13703.87
0.9247,0.0753	-13704.08
0.9461,0.0539	-13703.66
0.9452,0.0548	-13703.66
0.7820,0.2180	-13738.62
0.8204,0.1796	-13738.83
0.9139,0.0861	-13716.31
0.9213,0.0787	-13711.58
0.9534,0.0466	-13706.71
0.9379,0.0621	-13709.17
0.7141,0.2859	-13746.60
0.8284,0.1716	-13726.45
0.9046,0.0954	-13713.95
0.9271,0.0729	-13709.09
0.9514,0.0486	-13709.62
0.9521,0.0479	-13706.67
0.6932,0.3068	-13749.88
0.8702,0.1298	-13728.08
0.8933,0.1067	-13709.84
0.9089,0.0911	-13713.93
0.9527,0.0473	-13718.70
0.9569,0.0431	-13697.55
0.7220,0.2780	-13752.10
0.8654,0.1346	-13716.82
0.9016,0.0984	-13716.19
0.9287,0.0713	-13721.92
0.9495,0.0505	-13712.46
0.9540,0.0460	-13712.80
0.7448,0.2552	-13737.43
0.8669,0.1331	-13711.15
0.8999,0.1001	-13718.38
0.9353,0.0647	-13725.15
0.9508,0.0492	-13700.70
0.9572,0.0428	-13709.97
0.7448,0.2552	-13748.13
0.8753,0.1247	-13718.47
0.8991,0.1009	-13722.75
0.9430,0.0570	-13709.28
0.9568,0.0432	-13700.65
0.9574,0.0426	-13706.88
0.7450,0.2550	-13738.49
0.8721,0.1279	-13718.53
0.8947,0.1053	-13722.62
0.9386,0.0614	-13703.73
0.9491,0.0509	-13689.03
0.9447,0.0553	-13700.82
0.7558,0.2442	-13751.61
0.8634,0.1366	-13733.48
0.9022,0.0978	-13720.63
0.9362,0.0638	-13711.83
0.9549,0.0451	-13697.61
0.9433,0.0567	-13709.29
0.7363,0.2637	-13749.17
0.8690,0.1310	-13720.48
0.9102,0.0898	-13702.35
0.9370,0.0630	-13709.15
0.9591,0.0409	-13694.34
0.9381,0.0619	-13717.33
0.7519,0.2481	-13739.30
0.8951,0.1049	-13709.77
0.9220,0.0780	-13706.64
0.9381,0.0619	-13703.74
0.9571,0.0429	-13700.65
0.9425,0.0575	-13706.47
0.7393,0.2607	-13747.09
0.8948,0.1052	-13709.78
0.9075,0.0925	-13711.65
0.9435,0.0565	-13698.04
0.9589,0.0411	-13700.65
0.9426,0.0574	-13709.28
0.7674,0.2326	-13742.45
0.8966,0.1034	-13707.55
0.9133,0.0867	-13723.36
0.9256,0.0744	-13709.09
0.9494,0.0506	-13712.45
0.9452,0.0548	-13712.20
0.7614,0.2386	-13735.53
0.8581,0.1419	-13726.08
0.9129,0.0871	-13723.34
0.9318,0.0682	-13698.64
0.9552,0.0448	-13694.54
0.9489,0.0511	-13697.81
0.7539,0.2461	-13740.36
0.8615,0.1385	-13718.78
0.9311,0.0689	-13709.09
0.9165,0.0835	-13709.18
0.9456,0.0544	-13717.93
0.9418,0.0582	-13717.60
0.7182,0.2818	-13748.35
0.8383,0.1617	-13736.12
0.9364,0.0636	-13706.45
0.9319,0.0681	-13719.56
0.9380,0.0620	-13717.32
0.9480,0.0520	-13694.94
0.7762,0.2238	-13734.97
0.8756,0.1244	-13726.27
0.9269,0.0731	-13701.47
0.9291,0.0709	-13709.09
0.9456,0.0544	-13697.95
0.9512,0.0488	-13715.55
0.8171,0.1829	-13731.28
0.8804,0.1196	-13716.40
0.9236,0.0764	-13701.62
0.9368,0.0632	-13714.54
0.9363,0.0637	-13698.39
0.9624,0.0376	-13713.65
0.8255,0.1745	-13738.96
0.8717,0.1283	-13730.03
0.9155,0.0845	-13706.81
0.9364,0.0636	-13709.14
0.9406,0.0594	-13709.22
0.9675,0.0325	-13697.40
0.8473,0.1527	-13719.28
0.9075,0.0925	-13713.94
0.9296,0.0704	-13693.60
0.9318,0.0682	-13714.32
0.9354,0.0646	-13701.11
0.9730,0.0270	-13690.27
0.8551,0.1449	-13726.09
0.9209,0.0791	-13709.12
0.9231,0.0769	-13706.62
0.9220,0.0780	-13706.64
0.9282,0.0718	-13701.41
0.9667,0.0333	-13697.40
0.8424,0.1576	-13727.86
0.9154,0.0846	-13709.20
0.9181,0.0819	-13718.82
0.8914,0.1086	-13716.23
0.9321,0.0679	-13716.95
0.9700,0.0300	-13693.93
0.8162,0.1838	-13737.25
0.9227,0.0773	-13701.67
0.8994,0.1006	-13709.61
0.8895,0.1105	-13722.51
0.9379,0.0621	-13711.88
0.9663,0.0337	-13697.40
0.7994,0.2006	-13733.02
0.9145,0.0855	-13709.21
0.9018,0.0982	-13713.97
0.8708,0.1292	-13714.74
0.9412,0.0588	-13706.46
0.9618,0.0382	-13700.67
0.8006,0.1994	-13733.00
0.9209,0.0791	-13706.67
0.8986,0.1014	-13716.19
0.8839,0.1161	-13718.36
0.9513,0.0487	-13694.75
0.9621,0.0379	-13700.68
0.8366,0.1634	-13718.11
0.9290,0.0710	-13709.09
0.9063,0.0937	-13707.13
0.8818,0.1182	-13728.43
0.9571,0.0429	-13703.76
0.9625,0.0375	-13697.44
0.8407,0.1593	-13729.53
0.8935,0.1065	-13714.08
0.8972,0.1028	-13724.85
0.8804,0.1196	-13718.40
0.9572,0.0428	-13694.44
0.9595,0.0405	-13694.33
0.8581,0.1419	-13726.08
0.8995,0.1005	-13718.38
0.9222,0.0778	-13709.11
0.8859,0.1141	-13710.15
0.9695,0.0305	-13707.78
0.9546,0.0454	-13703.71
0.8709,0.1291	-13728.09
0.9059,0.0941	-13716.21
0.9091,0.0909	-13711.63
0.8782,0.1218	-13714.47
0.9705,0.0295	-13697.41
0.9508,0.0492	-13691.82
0.9126,0.0874	-13711.60
0.9024,0.0976	-13698.40
0.9060,0.0940	-13720.74
0.8835,0.1165	-13718.37
0.9640,0.0360	-13707.28
0.9479,0.0521	-13706.55
0.8978,0.1022	-13707.49
0.8936,0.1064	-13709.83
0.9217,0.0783	-13704.18
0.8767,0.1233	-13722.37
0.9712,0.0288	-13693.90
0.9362,0.0638	-13695.71
0.8906,0.1094	-13718.33
0.9015,0.0985	-13718.40
0.9180,0.0820	-13713.99
0.8994,0.1006	-13718.38
0.9707,0.0293	-13690.41
0.9422,0.0578	-13706.47
0.8999,0.1001	-13720.58
0.8835,0.1165	-13718.37
0.9258,0.0742	-13714.14
0.9010,0.0990	-13705.14
0.9751,0.0249	-13690.15
0.9440,0.0560	-13709.32
0.9078,0.0922	-13709.36
0.8763,0.1237	-13720.41
0.9219,0.0781	-13706.64
0.9091,0.0909	-13718.54
0.9768,0.0232	-13693.81
0.9433,0.0567	-13700.86
0.9082,0.0918	-13702.48
0.9016,0.0984	-13707.32
0.9135,0.0865	-13709.23
0.9078,0.0922	-13711.65
0.9712,0.0288	-13693.90
0.9372,0.0628	-13711.86
0.9011,0.0989	-13716.19
0.8938,0.1062	-13709.82
0.9031,0.0969	-13716.19
0.9146,0.0854	-13713.95
0.9733,0.0267	-13693.85
0.9465,0.0535	-13706.53
0.8998,0.1002	-13709.60
0.8887,0.1113	-13722.49
0.8862,0.1138	-13714.24
0.9038,0.0962	-13716.19
0.9801,0.0199	-13697.71
0.9349,0.0651	-13714.45
0.9176,0.0824	-13713.98
0.8989,0.1011	-13709.63
0.8394,0.1606	-13729.53
0.9227,0.0773	-13714.07
0.9790,0.0210	-13686.12
0.9261,0.0739	-13706.56
0.8846,0.1154	-13720.39
0.9055,0.0945	-13718.46
0.8171,0.1829	-13731.28
0.9304,0.0696	-13701.31
0.9763,0.0237	-13697.53
0.9358,0.0642	-13703.78
0.8792,0.1208	-13708.49
0.8791,0.1209	-13726.35
0.8252,0.1748	-13726.54
0.9247,0.0753	-13716.62
0.9689,0.0311	-13687.08
0.9416,0.0584	-13709.25
0.8542,0.1458	-13733.16
0.8974,0.1026	-13716.19
0.8699,0.1301	-13716.67
0.9181,0.0819	-13713.99
0.9671,0.0329	-13694.02
0.9430,0.0570	-13698.06
0.8489,0.1511	-13720.94
0.9060,0.0940	-13707.14
0.8536,0.1464	-13726.09
0.9275,0.0725	-13698.89
0.9724,0.0276	-13693.87
0.9530,0.0470	-13709.70
0.8479,0.1521	-13731.28
0.8989,0.1011	-13711.82
0.8806,0.1194	-13714.40
0.9283,0.0717	-13709.09
0.9737,0.0263	-13697.46
0.9584,0.0416	-13703.79
0.8233,0.1767	-13741.98
0.9207,0.0793	-13718.93
0.8755,0.1245	-13708.71
0.9161,0.0839	-13716.36
0.9823,0.0177	-13693.84
0.9619,0.0381	-13703.90
0.8297,0.1703	-13732.75
0.9197,0.0803	-13716.45
0.8795,0.1205	-13708.47
0.9121,0.0879	-13716.28
0.9746,0.0254	-13693.83
0.9658,0.0342	-13700.74
0.8145,0.1855	-13729.83
0.8994,0.1006	-13722.76
0.8834,0.1166	-13708.24
0.9116,0.0884	-13706.94
0.9808,0.0192	-13689.88
0.9674,0.0326	-13704.18
0.7967,0.2033	-13731.72
0.9167,0.0833	-13709.18
0.8941,0.1059	-13718.34
0.9276,0.0724	-13724.39
0.9832,0.0168	-13697.93
0.9646,0.0354	-13713.94
0.8266,0.1734	-13737.43
0.9263,0.0737	-13716.68
0.9028,0.0972	-13707.27
0.9320,0.0680	-13698.63
0.9805,0.0195	-13693.81
0.9691,0.0309	-13690.51
0.8610,0.1390	-13715.15
0.9253,0.0747	-13709.09
0.8947,0.1053	-13716.20
0.9491,0.0509	-13706.58
0.9876,0.0124	-13685.32
0.9598,0.0402	-13697.48
0.8476,0.1524	-13722.69
0.9378,0.0622	-13701.03
0.8926,0.1074	-13714.10
0.9492,0.0508	-13700.73
0.9897,0.0103	-13689.68
0.9652,0.0348	-13704.05
0.8411,0.1589	-13722.87
0.9377,0.0623	-13703.74
0.8915,0.1085	-13716.23
0.9520,0.0480	-13709.65
0.9896,0.0104	-13685.13
0.9665,0.0335	-13690.68
0.8730,0.1270	-13720.44
0.9509,0.0491	-13706.63
0.9019,0.0981	-13713.97
0.9438,0.0562	-13706.49
0.9915,0.0085	-13694.48
0.9751,0.0249	-13693.82
0.8855,0.1145	-13716.31
0.9468,0.0532	-13712.29
0.9079,0.0921	-13716.22
0.9493,0.0507	-13706.59
0.9925,0.0075	-13684.86
0.9760,0.0240	-13701.22
0.8955,0.1045	-13714.05
0.9578,0.0422	-13694.41
0.8979,0.1021	-13718.36
0.9353,0.0647	-13709.13
0.9927,0.0073	-13684.85
0.9733,0.0267	-13704.64
0.8738,0.1262	-13724.30
0.9483,0.0517	-13706.56
0.8836,0.1164	-13734.58
0.9399,0.0601	-13711.96
0.9936,0.0064	-13689.80
0.9717,0.0283	-13693.88
0.8838,0.1162	-13716.34
0.9257,0.0743	-13704.04
0.8749,0.1251	-13732.09
0.9284,0.0716	-13706.52
0.9939,0.0061	-13694.91
0.9651,0.0349	-13694.09
0.8821,0.1179	-13732.47
0.9366,0.0634	-13709.15
0.8487,0.1513	-13717.49
0.9455,0.0545	-13697.95
0.9927,0.0073	-13684.84
0.9543,0.0457	-13694.59
0.8968,0.1032	-13707.54
0.9138,0.0862	-13716.31
0.8468,0.1532	-13719.29
0.9436,0.0564	-13692.40
0.9903,0.0097	-13685.07
0.9383,0.0617	-13711.90
0.9051,0.0949	-13702.67
0.9100,0.0900	-13713.94
0.8789,0.1211	-13722.38
0.9544,0.0456	-13703.71
0.9904,0.0096	-13689.69
0.9210,0.0790	-13706.66
0.8836,0.1164	-13724.45
0.9252,0.0748	-13719.15
0.8676,0.1324	-13711.10
0.9389,0.0611	-13706.45
0.9904,0.0096	-13685.06
0.9177,0.0823	-13713.98
0.8874,0.1126	-13703.89
0.9137,0.0863	-13716.31
0.8767,0.1233	-13716.49
0.9311,0.0689	-13701.28
0.9918,0.0082	-13684.93
0.9156,0.0844	-13709.20
0.9046,0.0954	-13707.20
0.9133,0.0867	-13716.30
0.8571,0.1429	-13726.08
0.9310,0.0690	-13701.29
0.9897,0.0103	-13689.68
0.8998,0.1002	-13707.40
0.9026,0.0974	-13713.96
0.9304,0.0696	-13706.50
0.8755,0.1245	-13720.42
0.9252,0.0748	-13711.61
0.9916,0.0084	-13694.48
0.8830,0.1170	-13728.48
0.8904,0.1096	-13716.24
0.9221,0.0779	-13716.52
0.8549,0.1451	-13726.09
0.9216,0.0784	-13714.04
0.9918,0.0082	-13689.72
0.8732,0.1268	-13712.72
0.8663,0.1337	-13711.18
0.9328,0.0672	-13711.73
0.8580,0.1420	-13731.48
0.9116,0.0884	-13718.61
0.9944,0.0056	-13684.68
0.8821,0.1179	-13710.33
0.8772,0.1228	-13722.37
0.9262,0.0738	-13719.20
0.8364,0.1636	-13726.28
0.9275,0.0725	-13703.99
0.9948,0.0052	-13689.90
0.8762,0.1238	-13718.45
0.8778,0.1222	-13718.43
0.9351,0.0649	-13714.46
0.8417,0.1583	-13724.52
0.9317,0.0683	-13701.26
0.9945,0.0055	-13684.68
0.8839,0.1161	-13706.18
0.9072,0.0928	-13711.66
0.9425,0.0575	-13712.07
0.8321,0.1679	-13729.57
0.9460,0.0540	-13709.38
0.9948,0.0052	-13689.90
0.8924,0.1076	-13722.56
0.9206,0.0794	-13714.03
0.9313,0.0687	-13701.27
0.8513,0.1487	-13727.84
0.9571,0.0429	-13713.07
0.9949,0.0051	-13689.91
0.8681,0.1319	-13726.15
0.9136,0.0864	-13713.95
0.9264,0.0736	-13714.15
0.8757,0.1243	-13720.41
0.9596,0.0404	-13710.16
0.9962,0.0038	-13684.53
0.8484,0.1516	-13720.95
0.8938,0.1062	-13709.82
0.9272,0.0728	-13709.09
0.8729,0.1271	-13726.22
0.9594,0.0406	-13706.98
0.9966,0.0034	-13684.49
0.8721,0.1279	-13731.96
0.8939,0.1061	-13720.47
0.9279,0.0721	-13721.86
0.8685,0.1315	-13726.15
0.9591,0.0409	-13691.19
0.9962,0.0038	-13684.52
0.8634,0.1366	-13720.57
0.8824,0.1176	-13708.30
0.9363,0.0637	-13703.77
0.8774,0.1226	-13724.34
0.9719,0.0281	-13690.33
0.9960,0.0040	-13684.54
0.8364,0.1636	-13737.70
0.8712,0.1288	-13720.46
0.9430,0.0570	-13703.67
0.8977,0.1023	-13720.53
0.9642,0.0358	-13700.71
0.9957,0.0043	-13684.57
0.8518,0.1482	-13715.60
0.8822,0.1178	-13738.51
0.9477,0.0523	-13712.35
0.9103,0.0897	-13718.57
0.9545,0.0455	-13718.92
0.9961,0.0039	-13684.53
0.8595,0.1405	-13722.47
0.8443,0.1557	-13726.16
0.9571,0.0429	-13694.44
0.9227,0.0773	-13709.11
0.9532,0.0468	-13697.66
0.9957,0.0043	-13684.57
0.8750,0.1250	-13734.04
0.8593,0.1407	-13717.04
0.9671,0.0329	-13694.02
0.9173,0.0827	-13713.98
0.9441,0.0559	-13698.01
0.9956,0.0044	-13684.57
0.8523,0.1477	-13729.60
0.8702,0.1298	-13716.66
0.9659,0.0341	-13704.09
0.9146,0.0854	-13713.95
0.9416,0.0584	-13706.47
0.9956,0.0044	-13684.58
0.8579,0.1421	-13724.29
0.8793,0.1207	-13716.42
0.9704,0.0296	-13700.90
0.9022,0.0978	-13713.97
0.9429,0.0571	-13695.27
0.9960,0.0040	-13684.54
0.8844,0.1156	-13718.36
0.8832,0.1168	-13720.39
0.9675,0.0325	-13700.79
0.9107,0.0893	-13718.58
0.9472,0.0528	-13700.77
0.9951,0.0049	-13689.94
0.8776,0.1224	-13712.52
0.8926,0.1074	-13724.69
0.9731,0.0269	-13697.44
0.9034,0.0966	-13716.19
0.9530,0.0470	-13700.68
0.9961,0.0039	-13684.53
0.8857,0.1143	-13710.16
0.9000,0.1000	-13716.18
0.9768,0.0232	-13693.81
0.9297,0.0703	-13701.34
0.9473,0.0527	-13697.88
0.9960,0.0040	-13684.54
0.8744,0.1256	-13724.31
0.9013,0.0987	-13729.46
0.9744,0.0256	-13704.75
0.9367,0.0633	-13709.15
0.9439,0.0561	-13706.49
0.9959,0.0041	-13684.55
0.8649,0.1351	-13720.55
0.8993,0.1007	-13714.00
0.9763,0.0237	-13693.81
0.9414,0.0586	-13709.24
0.9410,0.0590	-13712.00
0.9971,0.0029	-13684.44
0.8633,0.1367	-13720.58
0.8977,0.1023	-13716.19
0.9733,0.0267	-13704.64
0.9373,0.0627	-13701.05
0.9462,0.0538	-13709.39
0.9980,0.0020	-13684.35
0.8588,0.1412	-13720.67
0.8823,0.1177	-13722.41
0.9748,0.0252	-13715.75
0.9537,0.0463	-13712.77
0.9444,0.0556	-13706.50
0.9977,0.0023	-13684.39
0.8710,0.1290	-13716.64
0.8882,0.1118	-13730.77
0.9770,0.0230	-13697.55
0.9581,0.0419	-13697.52
0.9529,0.0471	-13697.67
0.9972,0.0028	-13684.43
0.8755,0.1245	-13730.17
0.8958,0.1042	-13720.50
0.9717,0.0283	-13704.50
0.9684,0.0316	-13697.40
0.9586,0.0414	-13703.80
0.9964,0.0036	-13684.51
0.8787,0.1213	-13716.44
0.8740,0.1260	-13737.86
0.9662,0.0338	-13700.75
0.9686,0.0314	-13690.54
0.9522,0.0478	-13700.69
0.9966,0.0034	-13684.49
0.8546,0.1454	-13724.32
0.8373,0.1627	-13726.26
0.9699,0.0301	-13700.88
0.9622,0.0378	-13703.92
0.9466,0.0534	-13718.03
0.9963,0.0037	-13684.51
0.8327,0.1673	-13732.77
0.8457,0.1543	-13717.64
0.9709,0.0291	-13697.41
0.9578,0.0422	-13700.65
0.9519,0.0481	-13712.63
0.9967,0.0033	-13684.47
0.8083,0.1917	-13725.67
0.8450,0.1550	-13721.06
0.9641,0.0359	-13700.71
0.9582,0.0418	-13710.05
0.9420,0.0580	-13714.83
0.9971,0.0029	-13684.44
0.8058,0.1942	-13735.75
0.8262,0.1738	-13720.27
0.9696,0.0304	-13697.40
0.9522,0.0478	-13697.69
0.9439,0.0561	-13706.49
0.9972,0.0028	-13684.43
0.8035,0.1965	-13732.94
0.8705,0.1295	-13716.65
0.9734,0.0266	-13697.45
0.9438,0.0562	-13712.13
0.9270,0.0730	-13711.63
0.9975,0.0025	-13690.40
0.8128,0.1872	-13724.00
0.8742,0.1258	-13720.43
0.9712,0.0288	-13697.42
0.9397,0.0603	-13706.46
0.9348,0.0652	-13709.12
0.9971,0.0029	-13684.44
0.8372,0.1628	-13714.80
0.8788,0.1212	-13732.28
0.9590,0.0410	-13688.05
0.9377,0.0623	-13714.59
0.9171,0.0829	-13713.98
0.9973,0.0027	-13684.42
0.8280,0.1720	-13729.61
0.8970,0.1030	-13714.03
0.9643,0.0357	-13690.83
0.9215,0.0785	-13706.65
0.9050,0.0950	-13713.95
0.9968,0.0032	-13684.47
0.8463,0.1537	-13719.31
0.8979,0.1021	-13720.54
0.9511,0.0489	-13691.79
0.9215,0.0785	-13714.04
0.8910,0.1090	-13722.54
0.9976,0.0024	-13684.39
0.8821,0.1179	-13712.34
0.8995,0.1005	-13705.22
0.9479,0.0521	-13694.95
0.9059,0.0941	-13709.41
0.9027,0.0973	-13713.96
0.9970,0.0030	-13684.45
0.8632,0.1368	-13737.16
0.8968,0.1032	-13718.35
0.9498,0.0502	-13694.84
0.8947,0.1053	-13718.34
0.8774,0.1226	-13712.53
0.9967,0.0033	-13690.19
0.8544,0.1456	-13715.47
0.8866,0.1134	-13714.23
0.9448,0.0552	-13706.50
0.8946,0.1054	-13722.62
0.8812,0.1188	-13712.38
0.9960,0.0040	-13684.54
0.8684,0.1316	-13720.49
0.8934,0.1066	-13720.46
0.9441,0.0559	-13703.67
0.8988,0.1012	-13711.82
0.8887,0.1113	-13712.11
0.9949,0.0051	-13689.91
0.8613,0.1387	-13713.31
0.8815,0.1185	-13718.38
0.9187,0.0813	-13697.02
0.9097,0.0903	-13711.63
0.9004,0.0996	-13709.58
0.9949,0.0051	-13684.64
0.8298,0.1702	-13734.34
0.8896,0.1104	-13726.68
0.9068,0.0932	-13707.11
0.8945,0.1055	-13709.79
0.8604,0.1396	-13724.27
0.9937,0.0063	-13684.75
0.8547,0.1453	-13720.77
0.8839,0.1161	-13718.36
0.9053,0.0947	-13709.43
0.8984,0.1016	-13718.37
0.8704,0.1296	-13726.18
0.9927,0.0073	-13684.84
0.8395,0.1605	-13726.22
0.8607,0.1393	-13738.84
0.9129,0.0871	-13716.29
0.9069,0.0931	-13707.11
0.8599,0.1401	-13729.72
0.9930,0.0070	-13684.81
0.8450,0.1550	-13724.46
0.8533,0.1467	-13741.94
0.9038,0.0962	-13711.71
0.9195,0.0805	-13706.70
0.8640,0.1360	-13716.87
0.9938,0.0062	-13684.74
0.8313,0.1687	-13726.38
0.8682,0.1318	-13716.73
0.8980,0.1020	-13705.31
0.9343,0.0657	-13703.81
0.8506,0.1494	-13726.10
0.9953,0.0047	-13695.30
0.8200,0.1800	-13723.66
0.8569,0.1431	-13727.87
0.8952,0.1048	-13709.76
0.9428,0.0572	-13706.48
0.8286,0.1714	-13724.87
0.9947,0.0053	-13684.66
0.8361,0.1639	-13723.02
0.8454,0.1546	-13721.05
0.8937,0.1063	-13716.21
0.9334,0.0666	-13706.47
0.8548,0.1452	-13720.77
0.9954,0.0046	-13684.59
0.8690,0.1310	-13720.48
0.8412,0.1588	-13719.53
0.8690,0.1310	-13726.16
0.9297,0.0703	-13706.51
0.8332,0.1668	-13727.95
0.9953,0.0047	-13700.64
0.8605,0.1395	-13724.27
0.8785,0.1215	-13726.33
0.8803,0.1197	-13718.40
0.9349,0.0651	-13703.80
0.8187,0.1813	-13725.22
0.9950,0.0050	-13684.63
0.8620,0.1380	-13724.27
0.8760,0.1240	-13714.55
0.9002,0.0998	-13705.19
0.9303,0.0697	-13706.50
0.7938,0.2062	-13726.42
0.9938,0.0062	-13684.74
0.8752,0.1248	-13714.58
0.8646,0.1354	-13726.11
0.9161,0.0839	-13699.62
0.9267,0.0733	-13714.16
0.8262,0.1738	-13729.63
0.9955,0.0045	-13684.59
0.8487,0.1513	-13733.01
0.8452,0.1548	-13727.85
0.9191,0.0809	-13721.30
0.9272,0.0728	-13706.54
0.8645,0.1355	-13718.70
0.9952,0.0048	-13684.61
0.8633,0.1367	-13716.89
0.8254,0.1746	-13731.19
0.9200,0.0800	-13714.02
0.9448,0.0552	-13700.82
0.8739,0.1261	-13724.30
0.9957,0.0043	-13684.57
0.8618,0.1382	-13733.42
0.8211,0.1789	-13734.28
0.9243,0.0757	-13709.10
0.9510,0.0490	-13700.70
0.8721,0.1279	-13726.21
0.9959,0.0041	-13684.55
0.8659,0.1341	-13722.40
0.8192,0.1808	-13722.19
0.9204,0.0796	-13714.02
0.9566,0.0434	-13694.47
0.8651,0.1349	-13703.82
0.9957,0.0043	-13690.02
0.8274,0.1726	-13728.05
0.8340,0.1660	-13737.62
0.9291,0.0709	-13711.66
0.9627,0.0373	-13703.94
0.8601,0.1399	-13720.64
0.9956,0.0044	-13684.58
0.7909,0.2091	-13730.57
0.8188,0.1812	-13734.27
0.9295,0.0705	-13716.82
0.9598,0.0402	-13697.49
0.8694,0.1306	-13722.37
0.9952,0.0048	-13689.94
0.7981,0.2019	-13727.55
0.8330,0.1670	-13726.35
0.9162,0.0838	-13711.58
0.9478,0.0522	-13700.76
0.8771,0.1229	-13726.30
0.9949,0.0051	-13695.19
0.7809,0.2191	-13736.09
0.7877,0.2123	-13732.02
0.9011,0.0989	-13700.72
0.9512,0.0488	-13700.70
0.8624,0.1376	-13718.76
0.9948,0.0052	-13689.90
0.7268,0.2732	-13743.32
0.8109,0.1891	-13729.92
0.9084,0.0916	-13718.52
0.9415,0.0585	-13703.69
0.8667,0.1333	-13728.01
0.9958,0.0042	-13690.03
0.7392,0.2608	-13738.76
0.7859,0.2141	-13733.38
0.9143,0.0857	-13718.69
0.9619,0.0381	-13707.13
0.8366,0.1634	-13719.74
0.9958,0.0042	-13690.03
0.7458,0.2542	-13744.91
0.7640,0.2360	-13735.42
0.9124,0.0876	-13709.26
0.9536,0.0464	-13691.60
0.8748,0.1252	-13722.37
0.9957,0.0043	-13690.01
0.8119,0.1881	-13732.82
0.7608,0.2392	-13737.88
0.9173,0.0827	-13706.76
0.9604,0.0396	-13700.66
0.8660,0.1340	-13720.53
0.9954,0.0046	-13684.60
0.7900,0.2100	-13734.59
0.7570,0.2430	-13740.28
0.9136,0.0864	-13704.51
0.9504,0.0496	-13706.61
0.8839,0.1161	-13718.36
0.9955,0.0045	-13684.58
0.8119,0.1881	-13729.90
0.7774,0.2226	-13741.18
0.9136,0.0864	-13723.38
0.9456,0.0544	-13700.80
0.8778,0.1222	-13722.37
0.9950,0.0050	-13684.63
0.8497,0.1503	-13717.45
0.7879,0.2121	-13729.38
0.9074,0.0926	-13720.78
0.9585,0.0415	-13713.22
0.8560,0.1440	-13717.17
0.9954,0.0046	-13684.59
0.8461,0.1539	-13729.55
0.7806,0.2194	-13737.37
0.8934,0.1066	-13714.09
0.9587,0.0413	-13719.52
0.8776,0.1224	-13720.40
0.9952,0.0048	-13684.61
0.8601,0.1399	-13713.38
0.7584,0.2416	-13729.95
0.8753,0.1247	-13732.11
0.9610,0.0390	-13694.26
0.8858,0.1142	-13714.25
0.9944,0.0056	-13689.86
0.8757,0.1243	-13730.18
0.7433,0.2567	-13735.37
0.8699,0.1301	-13714.77
0.9611,0.0389	-13700.67
0.8797,0.1203	-13716.41
0.9946,0.0054	-13684.67
0.8756,0.1244	-13722.37
0.7327,0.2673	-13741.10
0.8910,0.1090	-13718.33
0.9598,0.0402	-13700.66
0.8920,0.1080	-13707.78
0.9948,0.0052	-13689.90
0.8890,0.1110	-13716.26
0.7260,0.2740	-13744.33
0.8973,0.1027	-13714.02
0.9409,0.0591	-13706.46
0.8710,0.1290	-13730.01
0.9949,0.0051	-13684.64
0.9088,0.0912	-13700.14
0.7340,0.2660	-13742.06
0.8927,0.1073	-13716.22
0.9434,0.0566	-13714.92
0.8852,0.1148	-13712.22
0.9947,0.0053	-13684.66
0.9075,0.0925	-13716.22
0.7045,0.2955	-13743.47
0.8987,0.1013	-13722.73
0.9362,0.0638	-13701.08
0.8675,0.1325	-13722.38
0.9952,0.0048	-13684.62
0.9154,0.0846	-13711.58
0.7360,0.2640	-13751.22
0.8864,0.1136	-13718.35
0.9302,0.0698	-13719.45
0.8721,0.1279	-13722.37
0.9941,0.0059	-13694.97
0.9367,0.0633	-13698.37
0.7590,0.2410	-13737.93
0.8948,0.1052	-13709.78
0.9342,0.0658	-13706.46
0.8734,0.1266	-13708.85
0.9931,0.0069	-13689.78
0.9340,0.0660	-13698.52
0.7528,0.2472	-13741.50
0.8818,0.1182	-13720.39
0.9324,0.0676	-13701.23
0.8882,0.1118	-13705.90
0.9912,0.0088	-13684.98
0.9377,0.0623	-13703.74
0.7768,0.2232	-13743.68
0.8978,0.1022	-13722.71
0.9333,0.0667	-13709.11
0.8985,0.1015	-13716.19
0.9923,0.0077	-13689.74
0.9281,0.0719	-13706.53
0.7658,0.2342	-13735.35
0.9278,0.0722	-13706.53
0.9286,0.0714	-13711.65
0.9076,0.0924	-13711.65
0.9933,0.0067	-13694.78
0.9336,0.0664	-13701.18
0.7642,0.2358	-13743.65
0.9360,0.0640	-13717.19
0.9274,0.0726	-13701.44
0.9174,0.0826	-13721.20
0.9923,0.0077	-13684.88
0.9418,0.0582	-13698.12
0.8069,0.1931	-13730.03
0.9407,0.0593	-13709.22
0.9383,0.0617	-13709.18
0.9094,0.0906	-13704.71
0.9924,0.0076	-13684.87
0.9512,0.0488	-13697.73
0.8522,0.1478	-13726.09
0.9372,0.0628	-13709.16
0.9196,0.0804	-13718.89
0.8874,0.1126	-13712.15
0.9937,0.0063	-13694.88
0.9532,0.0468	-13700.67
0.8634,0.1366	-13720.57
0.9422,0.0578	-13709.26
0.9326,0.0674	-13716.98
0.9041,0.0959	-13722.93
0.9933,0.0067	-13694.78
0.9447,0.0553	-13697.98
0.8890,0.1110	-13720.42
0.9485,0.0515	-13703.65
0.9165,0.0835	-13723.55
0.8958,0.1042	-13707.59
0.9922,0.0078	-13689.73
0.9506,0.0494	-13697.75
0.9073,0.0927	-13713.94
0.9537,0.0463	-13697.65
0.9157,0.0843	-13706.81
0.9228,0.0772	-13709.11
0.9907,0.0093	-13689.70
0.9458,0.0542	-13697.94
0.9248,0.0752	-13709.09
0.9545,0.0455	-13691.53
0.8986,0.1014	-13705.28
0.9297,0.0703	-13703.92
0.9915,0.0085	-13684.95
0.9504,0.0496	-13709.57
0.9196,0.0804	-13714.01
0.9639,0.0361	-13697.42
0.8976,0.1024	-13714.02
0.9318,0.0682	-13706.48
0.9910,0.0090	-13699.10
0.9521,0.0479	-13700.69
0.9071,0.0929	-13716.22
0.9611,0.0389	-13700.67
0.8773,0.1227	-13728.27
0.9175,0.0825	-13701.94
0.9895,0.0105	-13685.13
0.9544,0.0456	-13694.58
0.9085,0.0915	-13718.53
0.9617,0.0383	-13691.01
0.8988,0.1012	-13711.82
0.9225,0.0775	-13704.15
0.9876,0.0124	-13694.07
0.9596,0.0404	-13700.66
0.9163,0.0837	-13721.15
0.9608,0.0392	-13694.27
0.9019,0.0981	-13718.40
0.9280,0.0720	-13709.09
0.9880,0.0120	-13698.51
0.9562,0.0438	-13691.41
0.9335,0.0665	-13709.11
0.9708,0.0292	-13697.41
0.9202,0.0798	-13706.69
0.9294,0.0706	-13701.36
0.9874,0.0126	-13685.33
0.9607,0.0393	-13700.66
0.9374,0.0626	-13706.45
0.9752,0.0248	-13697.49
0.9155,0.0845	-13706.81
0.9250,0.0750	-13704.07
0.9910,0.0090	-13689.70
0.9498,0.0502	-13706.60
0.9259,0.0741	-13714.14
0.9755,0.0245	-13697.50
0.9234,0.0766	-13711.59
0.9072,0.0928	-13707.10
0.9904,0.0096	-13689.69
0.9420,0.0580	-13706.47
0.9227,0.0773	-13716.55
0.9753,0.0247	-13697.50
0.9131,0.0869	-13716.30
0.8925,0.1075	-13714.10
0.9884,0.0116	-13689.68
0.9554,0.0446	-13697.59
0.9322,0.0678	-13714.34
0.9759,0.0241	-13690.11
0.9223,0.0777	-13711.58
0.9051,0.0949	-13711.69
0.9880,0.0120	-13694.10
0.9597,0.0403	-13700.66
0.9496,0.0504	-13694.85
0.9715,0.0285	-13697.42
0.9264,0.0736	-13698.96
0.8886,0.1114	-13714.18
0.9864,0.0136	-13689.71
0.9672,0.0328	-13690.63
0.9549,0.0451	-13712.87
0.9690,0.0310	-13693.96
0.9353,0.0647	-13703.79
0.9145,0.0855	-13716.32
0.9881,0.0119	-13685.27
0.9706,0.0294	-13693.91
0.9552,0.0448	-13694.54
0.9658,0.0342	-13690.72
0.9374,0.0626	-13701.04
0.9032,0.0968	-13711.72
0.9890,0.0110	-13698.69
0.9644,0.0356	-13704.01
0.9564,0.0436	-13709.92
0.9715,0.0285	-13693.89
0.9414,0.0586	-13703.69
0.9055,0.0945	-13716.20
0.9907,0.0093	-13685.03
0.9702,0.0298	-13690.44
0.9493,0.0507	-13706.59
0.9696,0.0304	-13693.94
0.9316,0.0684	-13703.87
0.9216,0.0784	-13709.12
0.9869,0.0131	-13694.02
0.9712,0.0288	-13697.42
0.9560,0.0440	-13691.42
0.9723,0.0277	-13697.43
0.9277,0.0723	-13709.09
0.9365,0.0635	-13709.15
0.9857,0.0143	-13693.95
0.9742,0.0258	-13697.47
0.9487,0.0513	-13700.74
0.9647,0.0353	-13690.80
0.9353,0.0647	-13706.46
0.9376,0.0624	-13701.03
0.9865,0.0135	-13689.71
0.9772,0.0228	-13686.29
0.9420,0.0580	-13706.47
0.9701,0.0299	-13697.40
0.9380,0.0620	-13711.89
0.9160,0.0840	-13704.41
0.9890,0.0110	-13685.19
0.9732,0.0268	-13686.67
0.9298,0.0702	-13709.09
0.9695,0.0305	-13690.48
0.9191,0.0809	-13704.28
0.9172,0.0828	-13723.60
0.9896,0.0104	-13685.12
0.9784,0.0216	-13693.80
0.9329,0.0671	-13709.10
0.9724,0.0276	-13704.56
0.9081,0.0919	-13713.94
0.9151,0.0849	-13721.09
0.9876,0.0124	-13698.45
0.9822,0.0178	-13689.83
0.9280,0.0720	-13716.75
0.9723,0.0277	-13697.43
0.9160,0.0840	-13711.58
0.9273,0.0727	-13701.45
0.9855,0.0145	-13693.95
0.9845,0.0155	-13689.75
0.9297,0.0703	-13706.51
0.9676,0.0324	-13700.79
0.9240,0.0760	-13711.60
0.9122,0.0878	-13718.62
0.9856,0.0144	-13685.50
0.9851,0.0149	-13685.55
0.9255,0.0745	-13709.09
0.9695,0.0305	-13700.86
0.9339,0.0661	-13706.47
0.9228,0.0772	-13719.03
0.9860,0.0140	-13698.23
0.9832,0.0168	-13689.79
0.9253,0.0747	-13704.06
0.9697,0.0303	-13690.47
0.9431,0.0569	-13712.10
0.9098,0.0902	-13711.62
0.9856,0.0144	-13685.50
0.9795,0.0205	-13693.80
0.9204,0.0796	-13709.13
0.9701,0.0299	-13690.45
0.9520,0.0480	-13700.69
0.9073,0.0927	-13718.50
0.9852,0.0148	-13685.54
0.9777,0.0223	-13693.80
0.9280,0.0720	-13716.76
0.9743,0.0257	-13701.10
0.9557,0.0443	-13700.66
0.9082,0.0918	-13707.06
0.9811,0.0189	-13697.77
0.9741,0.0259	-13690.21
0.9352,0.0648	-13703.79
0.9761,0.0239	-13690.10
0.9663,0.0337	-13700.76
0.9123,0.0877	-13709.26
0.9811,0.0189	-13685.92
0.9705,0.0295	-13700.90
0.9263,0.0737	-13711.62
0.9675,0.0325	-13707.58
0.9609,0.0391	-13691.06
0.9326,0.0674	-13706.48
0.9811,0.0189	-13689.87
0.9695,0.0305	-13687.02
0.9172,0.0828	-13718.79
0.9600,0.0400	-13713.37
0.9615,0.0385	-13707.11
0.9278,0.0722	-13703.98
0.9836,0.0164	-13693.87
0.9675,0.0325	-13697.40
0.9344,0.0656	-13714.43
0.9569,0.0431	-13691.35
0.9425,0.0575	-13703.68
0.9324,0.0676	-13716.97
0.9822,0.0178	-13693.84
0.9718,0.0282	-13697.42
0.9294,0.0706	-13709.09
0.9562,0.0438	-13703.74
0.9509,0.0491	-13700.70
0.9266,0.0734	-13706.55
0.9815,0.0185	-13689.85
0.9657,0.0343	-13694.07
0.9384,0.0616	-13709.18
0.9544,0.0456	-13697.62
0.9510,0.0490	-13694.77
0.9336,0.0664	-13717.04
0.9776,0.0224	-13697.58
0.9616,0.0384	-13694.23
0.9267,0.0733	-13704.01
0.9374,0.0626	-13701.04
0.9475,0.0525	-13712.34
0.9404,0.0596	-13700.94
0.9818,0.0182	-13693.83
0.9515,0.0485	-13703.67
0.9213,0.0787	-13716.50
0.9277,0.0723	-13714.19
0.9485,0.0515	-13703.65
0.9349,0.0651	-13693.14
0.9840,0.0160	-13689.77
0.9432,0.0568	-13700.86
0.9179,0.0821	-13713.99
0.9166,0.0834	-13709.18
0.9619,0.0381	-13700.68
0.9304,0.0696	-13711.68
0.9852,0.0148	-13685.53
0.9454,0.0546	-13697.96
0.9107,0.0893	-13709.29
0.9144,0.0856	-13711.58
0.9667,0.0333	-13697.40
0.9307,0.0693	-13706.49
0.9896,0.0104	-13685.13
0.9517,0.0483	-13703.67
0.9123,0.0877	-13718.62
0.9118,0.0882	-13718.61
0.9608,0.0392	-13703.86
0.9409,0.0591	-13714.76
0.9914,0.0086	-13694.46
0.9453,0.0547	-13709.36
0.8972,0.1028	-13701.03
0.8935,0.1065	-13720.46
0.9644,0.0356	-13697.41
0.9285,0.0715	-13727.03
0.9916,0.0084	-13689.71
0.9437,0.0563	-13703.67
0.9094,0.0906	-13711.63
0.8988,0.1012	-13727.11
0.9604,0.0396	-13716.61
0.9314,0.0686	-13703.88
0.9915,0.0085	-13694.47
0.9376,0.0624	-13695.61
0.9195,0.0805	-13721.32
0.9070,0.0930	-13713.94
0.9502,0.0498	-13709.56
0.9261,0.0739	-13696.45
0.9925,0.0075	-13694.62
0.9501,0.0499	-13706.61
0.9107,0.0893	-13700.01
0.9096,0.0904	-13711.63
0.9530,0.0470	-13706.69
0.9205,0.0795	-13718.92
0.9925,0.0075	-13684.86
0.9573,0.0427	-13697.54
0.8950,0.1050	-13711.91
0.9097,0.0903	-13718.56
0.9547,0.0453	-13712.86
0.9219,0.0781	-13714.05
0.9913,0.0087	-13684.97
0.9539,0.0461	-13700.67
0.8894,0.1106	-13720.42
0.8955,0.1045	-13714.05
0.9572,0.0428	-13706.87
0.9064,0.0936	-13720.75
0.9899,0.0101	-13685.10
0.9556,0.0444	-13709.87
0.8840,0.1160	-13720.39
0.9203,0.0797	-13714.02
0.9584,0.0416	-13694.38
0.9167,0.0833	-13718.77
0.9911,0.0089	-13684.99
0.9551,0.0449	-13709.83
0.8844,0.1156	-13720.39
0.9111,0.0889	-13706.96
0.9566,0.0434	-13694.47
0.9092,0.0908	-13716.24
0.9878,0.0122	-13689.69
0.9595,0.0405	-13713.32
0.8407,0.1593	-13724.54
0.9143,0.0857	-13704.48
0.9511,0.0489	-13697.73
0.9015,0.0985	-13705.12
0.9879,0.0121	-13689.69
0.9699,0.0301	-13700.88
0.8353,0.1647	-13729.55
0.9155,0.0845	-13709.20
0.9452,0.0548	-13706.51
0.8876,0.1124	-13726.61
0.9865,0.0135	-13685.42
0.9628,0.0372	-13700.69
0.8497,0.1503	-13717.45
0.9096,0.0904	-13709.32
0.9472,0.0528	-13694.99
0.9043,0.0957	-13711.70
0.9877,0.0123	-13689.69
0.9581,0.0419	-13694.39
0.8371,0.1629	-13724.63
0.8694,0.1306	-13720.48
0.9417,0.0583	-13709.25
0.9071,0.0929	-13734.44
0.9890,0.0110	-13698.68
0.9661,0.0339	-13700.75
0.8331,0.1669	-13721.52
0.8548,0.1452	-13726.09
0.9509,0.0491	-13703.67
0.9245,0.0755	-13699.08
0.9883,0.0117	-13689.68
0.9572,0.0428	-13700.65
0.8278,0.1722	-13731.18
0.8597,0.1403	-13727.90
0.9505,0.0495	-13703.66
0.9311,0.0689	-13714.30
0.9876,0.0124	-13694.07
0.9606,0.0394	-13710.24
0.8259,0.1741	-13721.85
0.8809,0.1191	-13712.39
0.9548,0.0452	-13694.56
0.9282,0.0718	-13703.97
0.9901,0.0099	-13694.30
0.9665,0.0335	-13704.12
0.8303,0.1697	-13727.99
0.8725,0.1275	-13724.29
0.9580,0.0420	-13706.91
0.9219,0.0781	-13714.05
0.9891,0.0109	-13698.71
0.9670,0.0330	-13707.53
0.8045,0.1955	-13734.34
0.8695,0.1305	-13720.48
0.9592,0.0408	-13700.65
0.9430,0.0570	-13703.67
0.9875,0.0125	-13685.32
0.9719,0.0281	-13700.97
0.8095,0.1905	-13741.53
0.8348,0.1652	-13731.17
0.9569,0.0431	-13700.65
0.9433,0.0567	-13703.67
0.9865,0.0135	-13689.71
0.9742,0.0258	-13697.47
0.8065,0.1935	-13741.46
0.8387,0.1613	-13721.29
0.9543,0.0457	-13700.66
0.9331,0.0669	-13698.56
0.9913,0.0087	-13684.97
0.9805,0.0195	-13701.65
0.7977,0.2023	-13731.69
0.8295,0.1705	-13729.59
0.9488,0.0512	-13694.89
0.9260,0.0740	-13706.56
0.9928,0.0072	-13684.83
0.9797,0.0203	-13686.06
0.8330,0.1670	-13721.53
0.8411,0.1589	-13729.53
0.9513,0.0487	-13703.67
0.9204,0.0796	-13706.68
0.9912,0.0088	-13684.98
0.9786,0.0214	-13693.80
0.8161,0.1839	-13735.76
0.8394,0.1606	-13729.53
0.9488,0.0512	-13703.66
0.9163,0.0837	-13706.79
0.9912,0.0088	-13694.43
0.9797,0.0203	-13693.81
0.7926,0.2074	-13731.85
0.8371,0.1629	-13726.27
0.9539,0.0461	-13700.67
0.9200,0.0800	-13714.02
0.9890,0.0110	-13694.18
0.9746,0.0254	-13693.83
0.7975,0.2025	-13731.70
0.8250,0.1750	-13728.09
0.9653,0.0347	-13710.71
0.9198,0.0802	-13704.25
0.9900,0.0100	-13689.69
0.9674,0.0326	-13707.56
0.8357,0.1643	-13727.92
0.8258,0.1742	-13731.19
0.9718,0.0282	-13704.50
0.9178,0.0822	-13711.57
0.9903,0.0097	-13689.69
0.9724,0.0276	-13693.87
0.8404,0.1596	-13737.84
0.8165,0.1835	-13723.82
0.9706,0.0294	-13693.91
0.9249,0.0751	-13709.09
0.9893,0.0107	-13685.16
0.9730,0.0270	-13690.27
0.8599,0.1401	-13720.65
0.8111,0.1889	-13735.74
0.9663,0.0337	-13690.69
0.9284,0.0716	-13734.71
0.9913,0.0087	-13689.71
0.9692,0.0308	-13693.95
0.8675,0.1325	-13728.02
0.7932,0.2068	-13739.89
0.9690,0.0310	-13693.96
0.9334,0.0666	-13695.91
0.9921,0.0079	-13694.57
0.9706,0.0294	-13711.39
0.8800,0.1200	-13722.39
0.8075,0.1925	-13738.61
0.9690,0.0310	-13687.07
0.9375,0.0625	-13695.62
0.9930,0.0070	-13684.81
0.9653,0.0347	-13690.76
0.8988,0.1012	-13720.55
0.8565,0.1435	-13726.08
0.9715,0.0285	-13693.89
0.9268,0.0732	-13719.24
0.9932,0.0068	-13684.79
0.9724,0.0276	-13708.11
0.9021,0.0979	-13718.41
0.8524,0.1476	-13720.83
0.9662,0.0338	-13704.11
0.9261,0.0739	-13709.09
0.9941,0.0059	-13689.84
0.9697,0.0303	-13700.87
0.8608,0.1392	-13729.73
0.8669,0.1331	-13713.02
0.9626,0.0374	-13697.44
0.9369,0.0631	-13701.06
0.9949,0.0051	-13689.92
0.9666,0.0334	-13697.40
0.8290,0.1710	-13726.44
0.8772,0.1228	-13726.30
0.9624,0.0376	-13703.93
0.9338,0.0662	-13709.11
0.9946,0.0054	-13689.89
0.9678,0.0322	-13707.61
0.8656,0.1344	-13718.67
0.9102,0.0898	-13713.94
0.9546,0.0454	-13712.84
0.9261,0.0739	-13719.20
0.9951,0.0049	-13689.93
0.9703,0.0297	-13704.38
0.8807,0.1193	-13722.39
0.9134,0.0866	-13716.30
0.9606,0.0394	-13697.47
0.9034,0.0966	-13722.90
0.9957,0.0043	-13684.57
0.9710,0.0290	-13704.43
0.8543,0.1457	-13719.01
0.9020,0.0980	-13707.31
0.9624,0.0376	-13697.44
0.9193,0.0807	-13726.17
0.9953,0.0047	-13684.60
0.9779,0.0221	-13690.01
0.8619,0.1381	-13729.76
0.9104,0.0896	-13709.30
0.9642,0.0358	-13690.83
0.9221,0.0779	-13714.05
0.9947,0.0053	-13684.66
0.9799,0.0201	-13693.81
0.8699,0.1301	-13724.27
0.8932,0.1068	-13709.84
0.9716,0.0284	-13690.36
0.9111,0.0889	-13713.94
0.9947,0.0053	-13689.89
0.9806,0.0194	-13713.42
0.9009,0.0991	-13709.56
0.9069,0.0931	-13725.32
0.9700,0.0300	-13700.88
0.9137,0.0863	-13706.87
0.9959,0.0041	-13684.55
0.9810,0.0190	-13701.70
0.8873,0.1127	-13708.03
0.9247,0.0753	-13714.11
0.9634,0.0366	-13703.97
0.9185,0.0815	-13709.15
0.9955,0.0045	-13689.98
0.9819,0.0181	-13689.84
0.8825,0.1175	-13714.34
0.9316,0.0684	-13722.16
0.9718,0.0282	-13697.42
0.9119,0.0881	-13711.60
0.9953,0.0047	-13684.61
0.9846,0.0154	-13685.60
0.8908,0.1092	-13712.04
0.9255,0.0745	-13709.09
0.9735,0.0265	-13697.45
0.9131,0.0869	-13704.54
0.9947,0.0053	-13689.89
0.9806,0.0194	-13693.81
0.8744,0.1256	-13732.07
0.8974,0.1026	-13716.19
0.9716,0.0284	-13697.42
0.9077,0.0923	-13718.51
0.9952,0.0048	-13684.61
0.9804,0.0196	-13697.72
0.8730,0.1270	-13728.15
0.8992,0.1008	-13720.56
0.9695,0.0305	-13700.86
0.8710,0.1290	-13716.64
0.9956,0.0044	-13690.00
0.9816,0.0184	-13701.78
0.8858,0.1142	-13726.54
0.8959,0.1041	-13714.04
0.9776,0.0224	-13705.13
0.8826,0.1174	-13718.37
0.9941,0.0059	-13689.84
0.9760,0.0240	-13686.40
0.9082,0.0918	-13723.10
0.8641,0.1359	-13722.41
0.9798,0.0202	-13689.92
0.8716,0.1284	-13714.70
0.9936,0.0064	-13684.76
0.9737,0.0263	-13693.84
0.9303,0.0697	-13732.41
0.8541,0.1459	-13724.32
0.9774,0.0226	-13690.04
0.8827,0.1173	-13730.48
0.9937,0.0063	-13684.75
0.9732,0.0268	-13693.85
0.9406,0.0594	-13706.46
0.8568,0.1432	-13724.29
0.9807,0.0193	-13689.89
0.8606,0.1394	-13724.27
0.9945,0.0055	-13689.87
0.9672,0.0328	-13697.40
0.9424,0.0576	-13706.47
0.8555,0.1445	-13736.75
0.9744,0.0256	-13697.47
0.8565,0.1435	-13731.44
0.9949,0.0051	-13684.64
0.9691,0.0309	-13693.95
0.9377,0.0623	-13722.72
0.8642,0.1358	-13735.37
0.9810,0.0190	-13697.76
0.8594,0.1406	-13724.28
0.9946,0.0054	-13684.67
0.9651,0.0349	-13697.41
0.9377,0.0623	-13706.45
0.8649,0.1351	-13720.55
0.9799,0.0201	-13689.92
0.8513,0.1487	-13710.40
0.9944,0.0056	-13684.69
0.9672,0.0328	-13697.40
0.9414,0.0586	-13714.80
0.8725,0.1275	-13724.29
0.9776,0.0224	-13693.80
0.8618,0.1382	-13720.60
0.9933,0.0067	-13694.79
0.9680,0.0320	-13711.04
0.9540,0.0460	-13694.61
0.8574,0.1426	-13742.23
0.9789,0.0211	-13689.97
0.8807,0.1193	-13726.39
0.9934,0.0066	-13684.78
0.9620,0.0380	-13690.98
0.9553,0.0447	-13703.72
0.8424,0.1576	-13727.86
0.9747,0.0253	-13693.83
0.8830,0.1170	-13714.33
0.9927,0.0073	-13684.84
0.9680,0.0320	-13690.58
0.9418,0.0582	-13714.82
0.8148,0.1852	-13732.79
0.9755,0.0245	-13701.19
0.8900,0.1100	-13720.43
0.9933,0.0067	-13689.78
0.9674,0.0326	-13694.01
0.9441,0.0559	-13706.49
0.8205,0.1795	-13729.71
0.9793,0.0207	-13689.95
0.9005,0.0995	-13702.97
0.9923,0.0077	-13684.88
0.9735,0.0265	-13701.06
0.9466,0.0534	-13695.03
0.8164,0.1836	-13731.29
0.9813,0.0187	-13693.82
0.8992,0.1008	-13724.94
0.9923,0.0077	-13689.74
0.9754,0.0246	-13693.82
0.9497,0.0503	-13700.72
0.8010,0.1990	-13728.81
0.9851,0.0149	-13689.74
0.9014,0.0986	-13720.61
0.9932,0.0068	-13684.80
0.9753,0.0247	-13686.47
0.9463,0.0537	-13709.39
0.8180,0.1820	-13725.25
0.9834,0.0166	-13693.87
0.9197,0.0803	-13714.01
0.9939,0.0061	-13689.83
0.9679,0.0321	-13704.21
0.9393,0.0607	-13700.98
0.8124,0.1876	-13740.14
0.9855,0.0145	-13685.51
0.9126,0.0874	-13706.90
0.9940,0.0060	-13684.73
0.9711,0.0289	-13697.41
0.9416,0.0584	-13709.25
0.8038,0.1962	-13731.53
0.9857,0.0143	-13685.49
0.9205,0.0795	-13711.58
0.9942,0.0058	-13689.85
0.9673,0.0327	-13694.01
0.9455,0.0545	-13715.07
0.8260,0.1740	-13724.96
0.9878,0.0122	-13698.48
0.9409,0.0591	-13706.46
0.9944,0.0056	-13684.68
0.9641,0.0359	-13704.00
0.9518,0.0482	-13700.69
0.8393,0.1607	-13713.00
0.9846,0.0154	-13685.59
0.9398,0.0602	-13700.96
0.9961,0.0039	-13690.07
0.9553,0.0447	-13712.91
0.9571,0.0429	-13691.33
0.8541,0.1459	-13722.55
0.9864,0.0136	-13694.00
0.9336,0.0664	-13706.47
0.9956,0.0044	-13690.00
0.9561,0.0439	-13709.90
0.9512,0.0488	-13700.70
0.8504,0.1496	-13724.37
0.9836,0.0164	-13693.87
0.9237,0.0763	-13706.61
0.9944,0.0056	-13689.87
0.9533,0.0467	-13697.66
0.9452,0.0548	-13695.12
0.8224,0.1776	-13728.15
0.9806,0.0194	-13689.89
0.9136,0.0864	-13706.87
0.9935,0.0065	-13684.77
0.9503,0.0497	-13694.81
0.9499,0.0501	-13706.60
0.8249,0.1751	-13732.74
0.9797,0.0203	-13693.81
0.8981,0.1019	-13716.19
0.9928,0.0072	-13684.83
0.9470,0.0530	-13703.65
0.9569,0.0431	-13703.75
0.8543,0.1457	-13711.94
0.9807,0.0193	-13685.96
0.9001,0.0999	-13713.99
0.9941,0.0059	-13689.84
0.9305,0.0695	-13706.50
0.9654,0.0346	-13690.75
0.8283,0.1717	-13732.75
0.9800,0.0200	-13689.92
0.8923,0.1077	-13711.99
0.9908,0.0092	-13685.01
0.9187,0.0813	-13716.42
0.9695,0.0305	-13697.40
0.8019,0.1981	-13735.77
0.9809,0.0191	-13697.76
0.9115,0.0885	-13711.61
0.9884,0.0116	-13689.68
0.9373,0.0627	-13709.16
0.9766,0.0234	-13708.74
0.8187,0.1813	-13728.24
0.9806,0.0194	-13689.89
0.9057,0.0943	-13716.20
0.9861,0.0139	-13685.46
0.9342,0.0658	-13714.42
0.9738,0.0262	-13701.07
0.8312,0.1688	-13724.79
0.9840,0.0160	-13689.77
0.9276,0.0724	-13709.09
0.9884,0.0116	-13689.68
0.9199,0.0801	-13721.34
0.9749,0.0251	-13701.14
0.8663,0.1337	-13726.13
0.9829,0.0171	-13685.75
0.9421,0.0579	-13706.47
0.9881,0.0119	-13694.10
0.9104,0.0896	-13720.89
0.9751,0.0249	-13693.82
0.8586,0.1414	-13724.28
0.9777,0.0223	-13697.58
0.9435,0.0565	-13706.48
0.9883,0.0117	-13685.25
0.9005,0.0995	-13722.79
0.9731,0.0269	-13697.44
0.8545,0.1455	-13720.78
0.9751,0.0249	-13690.16
0.9384,0.0616	-13706.45
0.9857,0.0143	-13689.72
0.9176,0.0824	-13706.75
0.9711,0.0289	-13686.87
0.8378,0.1622	-13729.54
0.9697,0.0303	-13697.40
0.9439,0.0561	-13689.55
0.9856,0.0144	-13698.18
0.9240,0.0760	-13709.10
0.9709,0.0291	-13700.92
0.8259,0.1741	-13732.75
0.9668,0.0332	-13690.65
0.9345,0.0655	-13706.46
0.9800,0.0200	-13689.92
0.9110,0.0890	-13718.59
0.9634,0.0366	-13690.89
0.8381,0.1619	-13727.89
0.9625,0.0375	-13687.70
0.9475,0.0525	-13703.65
0.9782,0.0218	-13701.41
0.8759,0.1241	-13720.41
0.9516,0.0484	-13703.67
0.8450,0.1550	-13726.15
0.9647,0.0353	-13704.03
0.9432,0.0568	-13698.05
0.9784,0.0216	-13689.99
0.8825,0.1175	-13714.34
0.9415,0.0585	-13700.91
0.8469,0.1531	-13726.13
0.9645,0.0355	-13694.11
0.9455,0.0545	-13697.95
0.9841,0.0159	-13693.89
0.8701,0.1299	-13728.08
0.9353,0.0647	-13698.44
0.8599,0.1401	-13717.02
0.9682,0.0318	-13697.40
0.9541,0.0459	-13700.67
0.9837,0.0163	-13706.18
0.8487,0.1513	-13729.56
0.9380,0.0620	-13706.45
0.8393,0.1607	-13726.23
0.9669,0.0331	-13690.65
0.9550,0.0450	-13694.55
0.9858,0.0142	-13689.72
0.8660,0.1340	-13720.53
0.9433,0.0567	-13700.86
0.8355,0.1645	-13737.67
0.9655,0.0345	-13690.75
0.9587,0.0413	-13697.51
0.9843,0.0157	-13689.76
0.8589,0.1411	-13726.09
0.9445,0.0555	-13697.99
0.8169,0.1831	-13723.80
0.9660,0.0340	-13690.71
0.9600,0.0400	-13694.30
0.9893,0.0107	-13689.68
0.8725,0.1275	-13720.44
0.9368,0.0632	-13706.45
0.8417,0.1583	-13719.51
0.9637,0.0363	-13694.14
0.9621,0.0379	-13697.44
0.9894,0.0106	-13685.15
0.8852,0.1148	-13720.40
0.9471,0.0529	-13703.65
0.8711,0.1289	-13722.37
0.9606,0.0394	-13700.66
0.9659,0.0341	-13697.40
0.9904,0.0096	-13689.69
0.8885,0.1115	-13714.19
0.9439,0.0561	-13703.67
0.8794,0.1206	-13718.41
0.9634,0.0366	-13690.88
0.9630,0.0370	-13694.17
0.9918,0.0082	-13684.92
0.8697,0.1303	-13720.47
0.9469,0.0531	-13709.42
0.8673,0.1327	-13713.00
0.9623,0.0377	-13697.44
0.9536,0.0464	-13703.69
0.9938,0.0062	-13689.82
0.8763,0.1237	-13726.28
0.9453,0.0547	-13709.36
0.8494,0.1506	-13724.38
0.9594,0.0406	-13706.98
0.9489,0.0511	-13715.34
0.9940,0.0060	-13684.72
0.8818,0.1182	-13722.40
0.9382,0.0618	-13698.29
0.8245,0.1755	-13720.37
0.9593,0.0407	-13703.82
0.9424,0.0576	-13723.24
0.9938,0.0062	-13684.74
0.8943,0.1057	-13709.80
0.9240,0.0760	-13709.10
0.7860,0.2140	-13742.49
0.9593,0.0407	-13694.34
0.9352,0.0648	-13701.12
0.9948,0.0052	-13695.17
0.8962,0.1038	-13714.04
0.9181,0.0819	-13706.74
0.8079,0.1921	-13731.43
0.9587,0.0413	-13703.80
0.9341,0.0659	-13698.51
0.9949,0.0051	-13689.91
0.8828,0.1172	-13720.39
0.9431,0.0569	-13709.29
0.8143,0.1857	-13722.45
0.9570,0.0430	-13706.86
0.9444,0.0556	-13700.83
0.9941,0.0059	-13694.96
0.8752,0.1248	-13712.63
0.9463,0.0537	-13697.92
0.8452,0.1548	-13721.06
0.9566,0.0434	-13697.56
0.9304,0.0696	-13701.31
0.9928,0.0072	-13684.83
0.8546,0.1454	-13727.86
0.9511,0.0489	-13697.73
0.8166,0.1834	-13729.79
0.9523,0.0477	-13706.67
0.9378,0.0622	-13706.45
0.9925,0.0075	-13689.75
0.8490,0.1510	-13726.11
0.9397,0.0603	-13709.20
0.7789,0.2211	-13746.21
0.9543,0.0457	-13697.63
0.9357,0.0643	-13709.13
0.9912,0.0088	-13689.71
0.8331,0.1669	-13723.13
0.9352,0.0648	-13703.79
0.7971,0.2029	-13744.02
0.9413,0.0587	-13703.69
0.9351,0.0649	-13701.12
0.9900,0.0100	-13685.09
0.8532,0.1468	-13731.37
0.9549,0.0451	-13700.66
0.7917,0.2083	-13730.54
0.9487,0.0513	-13703.65
0.9425,0.0575	-13700.88
0.9911,0.0089	-13689.70
0.8338,0.1662	-13727.94
0.9570,0.0430	-13706.86
0.7943,0.2057	-13734.50
0.9349,0.0651	-13706.46
0.9379,0.0621	-13698.31
0.9907,0.0093	-13699.04
0.8535,0.1465	-13731.38
0.9553,0.0447	-13691.47
0.7695,0.2305	-13740.03
0.9425,0.0575	-13706.47
0.9345,0.0655	-13698.49
0.9894,0.0106	-13689.68
0.8534,0.1466	-13726.09
0.9595,0.0405	-13703.82
0.7685,0.2315	-13740.04
0.9545,0.0455	-13703.71
0.9243,0.0757	-13716.60
0.9901,0.0099	-13689.69
0.8577,0.1423	-13718.90
0.9677,0.0323	-13690.60
0.7046,0.2954	-13745.20
0.9616,0.0384	-13700.67
0.9172,0.0828	-13699.55
0.9909,0.0091	-13685.00
0.8458,0.1542	-13727.84
0.9629,0.0371	-13694.18
0.7089,0.2911	-13746.78
0.9561,0.0439	-13706.82
0.9098,0.0902	-13723.18
0.9894,0.0106	-13694.22
0.8203,0.1797	-13734.27
0.9623,0.0377	-13697.44
0.7558,0.2442	-13738.05
0.9612,0.0388	-13697.46
0.8910,0.1090	-13726.74
0.9891,0.0109	-13694.19
0.8042,0.1958	-13741.41
0.9613,0.0387	-13697.46
0.7902,0.2098	-13725.30
0.9625,0.0375	-13700.68
0.9180,0.0820	-13721.24
0.9841,0.0159	-13689.77
0.7901,0.2099	-13733.26
0.9689,0.0311	-13704.28
0.8630,0.1370	-13716.90
0.9665,0.0335	-13690.68
0.9128,0.0872	-13720.99
0.9876,0.0124	-13689.69
0.8143,0.1857	-13731.32
0.9684,0.0316	-13697.40
0.8547,0.1453	-13711.91
0.9670,0.0330	-13707.54
0.8979,0.1021	-13720.54
0.9875,0.0125	-13689.69
0.8319,0.1681	-13729.57
0.9696,0.0304	-13690.47
0.8539,0.1461	-13719.03
0.9667,0.0333	-13697.40
0.8971,0.1029	-13714.02
0.9836,0.0164	-13693.87
0.7896,0.2104	-13739.88
0.9667,0.0333	-13694.03
0.8474,0.1526	-13727.84
0.9711,0.0289	-13690.38
0.8883,0.1117	-13720.41
0.9852,0.0148	-13689.73
0.7737,0.2263	-13735.05
0.9582,0.0418	-13694.39
0.8431,0.1569	-13709.36
0.9727,0.0273	-13697.44
0.8793,0.1207	-13716.43
0.9873,0.0127	-13685.34
0.7844,0.2156	-13737.31
0.9515,0.0485	-13706.65
0.8471,0.1529	-13717.57
0.9597,0.0403	-13691.15
0.8720,0.1280	-13720.45
0.9872,0.0128	-13689.70
0.7702,0.2298	-13733.97
0.9504,0.0496	-13706.61
0.8546,0.1454	-13719.00
0.9583,0.0417	-13703.79
0.8808,0.1192	-13712.39
0.9847,0.0153	-13698.07
0.7994,0.2006	-13734.41
0.9473,0.0527	-13700.77
0.8329,0.1671	-13724.74
0.9614,0.0386	-13697.46
0.9017,0.0983	-13711.75
0.9854,0.0146	-13689.73
0.8140,0.1860	-13725.42
0.9458,0.0542	-13715.09
0.8334,0.1666	-13734.39
0.9679,0.0321	-13697.40
0.9127,0.0873	-13706.90
0.9849,0.0151	-13685.57
0.8052,0.1948	-13735.75
0.9436,0.0564	-13700.85
0.8470,0.1530	-13724.42
0.9642,0.0358	-13697.42
0.9141,0.0859	-13713.95
0.9864,0.0136	-13685.42
0.8270,0.1730	-13745.26
0.9473,0.0527	-13697.87
0.8735,0.1265	-13732.03
0.9620,0.0380	-13703.91
0.9011,0.0989	-13709.56
0.9864,0.0136	-13689.71
0.8429,0.1571	-13721.14
0.9474,0.0526	-13694.98
0.8768,0.1232	-13728.26
0.9695,0.0305	-13693.94
0.8956,0.1044	-13720.49
0.9892,0.0108	-13685.17
0.8447,0.1553	-13731.24
0.9501,0.0499	-13694.82
0.8778,0.1222	-13722.37
0.9724,0.0276	-13697.43
0.8826,0.1174	-13714.34
0.9901,0.0099	-13689.69
0.8554,0.1446	-13724.31
0.9415,0.0585	-13703.69
0.8533,0.1467	-13719.05
0.9720,0.0280	-13693.88
0.8723,0.1277	-13712.76
0.9900,0.0100	-13685.09
0.8757,0.1243	-13716.51
0.9309,0.0691	-13711.69
0.8625,0.1375	-13724.26
0.9737,0.0263	-13690.24
0.8575,0.1425	-13711.73
0.9911,0.0089	-13684.99
0.8664,0.1336	-13726.13
0.9218,0.0782	-13706.65
0.9010,0.0990	-13718.39
0.9728,0.0272	-13697.44
0.8763,0.1237	-13726.28
0.9904,0.0096	-13694.33
0.8664,0.1336	-13726.13
0.9184,0.0816	-13713.99
0.9074,0.0926	-13713.94
0.9756,0.0244	-13701.20
0.8397,0.1603	-13724.57
0.9913,0.0087	-13684.97
0.8589,0.1411	-13733.31
0.9264,0.0736	-13716.69
0.9047,0.0953	-13711.70
0.9730,0.0270	-13693.86
0.8186,0.1814	-13738.79
0.9921,0.0079	-13684.90
0.8518,0.1482	-13724.35
0.9325,0.0675	-13703.85
0.9020,0.0980	-13716.19
0.9805,0.0195	-13697.73
0.8096,0.1904	-13735.74
0.9916,0.0084	-13694.48
0.8506,0.1494	-13724.36
0.9304,0.0696	-13698.72
0.8872,0.1128	-13724.53
0.9860,0.0140	-13685.47
0.8286,0.1714	-13724.87
0.9930,0.0070	-13694.73
0.8744,0.1256	-13714.60
0.9089,0.0911	-13716.23
0.8833,0.1167	-13716.34
0.9847,0.0153	-13685.58
0.8465,0.1535	-13732.96
0.9944,0.0056	-13689.86
0.8303,0.1697	-13732.76
0.8901,0.1099	-13718.33
0.9024,0.0976	-13716.19
0.9837,0.0163	-13689.78
0.8641,0.1359	-13713.16
0.9938,0.0062	-13684.74
0.8169,0.1831	-13731.28
0.9166,0.0834	-13721.16
0.8887,0.1113	-13707.95
0.9755,0.0245	-13693.82
0.8643,0.1357	-13727.96
0.9946,0.0054	-13695.10
0.8666,0.1334	-13724.26
0.9022,0.0978	-13713.97
0.8971,0.1029	-13714.02
0.9749,0.0251	-13701.15
0.8747,0.1253	-13710.71
0.9955,0.0045	-13684.59
0.8920,0.1080	-13714.11
0.9189,0.0811	-13706.72
0.8921,0.1079	-13720.45
0.9723,0.0277	-13697.43
0.8920,0.1080	-13722.56
0.9952,0.0048	-13689.95
0.8971,0.1029	-13716.19
0.8989,0.1011	-13720.56
0.8427,0.1573	-13727.86
0.9768,0.0232	-13693.81
0.8908,0.1092	-13733.02
0.9941,0.0059	-13684.72
0.8941,0.1059	-13724.74
0.8835,0.1165	-13710.26
0.8417,0.1583	-13722.85
0.9801,0.0199	-13686.02
0.8857,0.1143	-13699.92
0.9940,0.0060	-13694.94
0.9047,0.0953	-13720.70
0.8824,0.1176	-13710.31
0.7988,0.2012	-13735.80
0.9773,0.0227	-13708.85
0.8860,0.1140	-13724.50
0.9921,0.0079	-13684.90
0.9054,0.0946	-13716.20
0.8612,0.1388	-13715.14
0.8060,0.1940	-13734.33
0.9749,0.0251	-13697.49
0.8914,0.1086	-13722.54
0.9918,0.0082	-13689.72
0.8924,0.1076	-13707.76
0.8669,0.1331	-13728.01
0.7940,0.2060	-13737.20
0.9733,0.0267	-13697.45
0.8831,0.1169	-13720.39
0.9933,0.0067	-13689.79
0.9083,0.0917	-13720.81
0.8772,0.1228	-13720.41
0.8046,0.1954	-13735.76
0.9786,0.0214	-13693.80
0.8784,0.1216	-13712.49
0.9949,0.0051	-13689.92
0.9059,0.0941	-13720.74
0.8618,0.1382	-13722.44
0.8427,0.1573	-13732.89
0.9776,0.0224	-13690.03
0.9202,0.0798	-13714.02
0.9934,0.0066	-13689.79
0.9189,0.0811	-13711.57
0.8266,0.1734	-13732.75
0.8721,0.1279	-13726.21
0.9792,0.0208	-13689.95
0.9378,0.0622	-13703.74
0.9927,0.0073	-13689.75
0.9161,0.0839	-13716.36
0.8372,0.1628	-13724.63
0.9103,0.0897	-13713.94
0.9812,0.0188	-13685.92
0.9309,0.0691	-13706.49
0.9937,0.0063	-13689.81
0.9070,0.0930	-13723.05
0.8258,0.1742	-13726.52
0.9266,0.0734	-13709.09
0.9829,0.0171	-13689.80
0.9313,0.0687	-13706.49
0.9930,0.0070	-13689.77
0.8943,0.1057	-13705.52
0.8281,0.1719	-13742.18
0.9203,0.0797	-13709.13
0.9790,0.0210	-13697.65
0.9333,0.0667	-13703.83
0.9914,0.0086	-13684.96
0.9011,0.0989	-13709.56
0.8419,0.1581	-13727.86
0.9228,0.0772	-13709.11
0.9767,0.0233	-13701.28
0.9357,0.0643	-13701.10
0.9916,0.0084	-13689.71
0.8839,0.1161	-13722.42
0.8473,0.1527	-13726.13
0.9334,0.0666	-13698.55
0.9776,0.0224	-13693.80
0.9235,0.0765	-13711.59
0.9907,0.0093	-13685.03
0.8798,0.1202	-13710.44
0.8432,0.1568	-13732.90
0.9235,0.0765	-13714.08
0.9734,0.0266	-13693.85
0.9231,0.0769	-13719.04
0.9901,0.0099	-13689.69
0.8642,0.1358	-13726.11
0.8193,0.1807	-13726.71
0.9114,0.0886	-13713.94
0.9748,0.0252	-13697.48
0.9239,0.0761	-13706.60
0.9891,0.0109	-13689.68
0.8797,0.1203	-13714.42
0.8622,0.1378	-13737.10
0.9186,0.0814	-13711.57
0.9766,0.0234	-13693.81
0.9304,0.0696	-13701.31
0.9891,0.0109	-13685.17
0.8716,0.1284	-13714.71
0.8987,0.1013	-13707.46
0.9433,0.0567	-13700.86
0.9744,0.0256	-13690.20
0.9200,0.0800	-13716.46
0.9877,0.0123	-13685.31
0.8624,0.1376	-13720.59
0.8985,0.1015	-13709.65
0.9449,0.0551	-13712.19
0.9764,0.0236	-13690.09
0.9051,0.0949	-13725.22
0.9864,0.0136	-13689.71
0.8637,0.1363	-13713.18
0.8987,0.1013	-13718.37
0.9406,0.0594	-13700.94
0.9790,0.0210	-13693.80
0.8904,0.1096	-13716.24
0.9876,0.0124	-13694.07
0.8672,0.1328	-13737.40
0.9064,0.0936	-13711.67
0.9412,0.0588	-13706.46
0.9782,0.0218	-13693.80
0.8926,0.1074	-13709.87
0.9875,0.0125	-13689.69
0.8607,0.1393	-13731.55
0.9163,0.0837	-13711.58
0.9604,0.0396	-13707.04
0.9739,0.0261	-13708.32
0.8971,0.1029	-13714.02
0.9899,0.0101	-13685.10
0.8797,0.1203	-13712.43
0.9258,0.0742	-13709.09
0.9614,0.0386	-13694.24
0.9695,0.0305	-13697.40
0.8960,0.1040	-13726.96
0.9870,0.0130	-13689.70
0.8823,0.1177	-13724.42
0.9341,0.0659	-13709.12
0.9634,0.0366	-13694.16
0.9698,0.0302	-13690.46
0.8744,0.1256	-13718.48
0.9875,0.0125	-13694.06
0.8798,0.1202	-13708.45
0.9355,0.0645	-13703.78
0.9652,0.0348	-13704.05
0.9635,0.0365	-13710.52
0.8601,0.1399	-13722.46
0.9883,0.0117	-13694.12
0.8957,0.1043	-13716.20
0.9345,0.0655	-13701.15
0.9651,0.0349	-13700.73
0.9601,0.0399	-13694.30
0.8756,0.1244	-13718.46
0.9906,0.0094	-13685.03
0.8845,0.1155	-13722.43
0.9304,0.0696	-13703.91
0.9641,0.0359	-13704.00
0.9609,0.0391	-13697.46
0.8925,0.1075	-13716.22
0.9881,0.0119	-13689.69
0.8956,0.1044	-13718.35
0.9274,0.0726	-13701.44
0.9634,0.0366	-13694.15
0.9612,0.0388	-13694.25
0.9161,0.0839	-13704.41
0.9902,0.0098	-13703.54
0.8713,0.1287	-13730.02
0.9017,0.0983	-13718.40
0.9650,0.0350	-13687.46
0.9583,0.0417	-13716.32
0.9135,0.0865	-13711.59
0.9878,0.0122	-13685.30
0.8312,0.1688	-13727.98
0.8925,0.1075	-13720.45
0.9548,0.0452	-13694.56
0.9630,0.0370	-13697.43
0.8992,0.1008	-13718.37
0.9858,0.0142	-13685.48
0.8259,0.1741	-13734.30
0.8816,0.1184	-13718.38
0.9571,0.0429	-13713.07
0.9600,0.0400	-13700.66
0.8864,0.1136	-13724.51
0.9866,0.0134	-13685.40
0.8226,0.1774	-13734.28
0.8768,0.1232	-13714.52
0.9476,0.0524	-13700.76
0.9494,0.0506	-13700.72
0.8808,0.1192	-13720.39
0.9871,0.0129	-13694.03
0.8335,0.1665	-13732.78
0.8588,0.1412	-13722.48
0.9351,0.0649	-13719.80
0.9459,0.0541	-13700.80
0.8711,0.1289	-13714.72
0.9873,0.0127	-13689.69
0.8236,0.1764	-13726.58
0.8562,0.1438	-13724.30
0.9254,0.0746	-13701.54
0.9481,0.0519	-13706.56
0.8500,0.1500	-13722.64
0.9896,0.0104	-13685.13
0.8157,0.1843	-13729.81
0.8657,0.1343	-13735.44
0.9259,0.0741	-13709.09
0.9523,0.0477	-13706.67
0.8435,0.1565	-13722.80
0.9861,0.0139	-13698.24
0.7855,0.2145	-13730.80
0.8650,0.1350	-13729.83
0.9097,0.0903	-13713.93
0.9458,0.0542	-13689.36
0.8758,0.1242	-13714.55
0.9857,0.0143	-13685.49
0.7737,0.2263	-13736.28
0.8641,0.1359	-13729.81
0.9153,0.0847	-13711.58
0.9338,0.0662	-13706.47
0.9099,0.0901	-13709.31
0.9862,0.0138	-13706.79
0.7788,0.2212	-13729.85
0.8560,0.1440	-13715.39
0.9060,0.0940	-13723.00
0.9198,0.0802	-13706.70
0.9203,0.0797	-13711.58
0.9873,0.0127	-13685.34
0.8395,0.1605	-13719.61
0.8673,0.1327	-13718.63
0.8995,0.1005	-13718.38
0.9139,0.0861	-13718.67
0.9231,0.0769	-13704.13
0.9890,0.0110	-13689.68
0.8635,0.1365	-13724.26
0.8486,0.1514	-13729.56
0.8991,0.1009	-13727.12
0.9251,0.0749	-13701.55
0.9062,0.0938	-13720.74
0.9893,0.0107	-13689.68
0.8729,0.1271	-13733.92
0.8622,0.1378	-13726.10
0.8921,0.1079	-13714.11
0.9468,0.0532	-13697.90
0.8987,0.1013	-13709.64
0.9882,0.0118	-13685.26
0.8710,0.1290	-13722.37
0.8664,0.1336	-13729.87
0.8857,0.1143	-13708.11
0.9316,0.0684	-13703.87
0.9019,0.0981	-13713.97
0.9881,0.0119	-13689.69
0.8593,0.1407	-13722.47
0.8526,0.1474	-13729.60
0.9149,0.0851	-13706.83
0.9395,0.0605	-13706.46
0.8932,0.1068	-13711.96
0.9883,0.0117	-13689.68
0.8666,0.1334	-13722.39
0.8505,0.1495	-13710.46
0.8827,0.1173	-13714.34
0.9362,0.0638	-13693.03
0.8958,0.1042	-13720.50
0.9891,0.0109	-13689.68
0.8647,0.1353	-13724.26
0.8762,0.1238	-13720.41
0.8736,0.1264	-13728.16
0.9425,0.0575	-13698.08
0.8824,0.1176	-13716.36
0.9894,0.0106	-13694.22
0.8649,0.1351	-13716.83
0.8529,0.1471	-13726.09
0.8751,0.1249	-13708.74
0.9463,0.0537	-13700.79
0.8868,0.1132	-13720.40
0.9874,0.0126	-13694.06
0.8733,0.1267	-13724.30
0.8479,0.1521	-13719.25
0.8805,0.1195	-13718.40
0.9350,0.0650	-13703.79
0.9090,0.0910	-13709.33
0.9816,0.0184	-13685.87
0.8708,0.1292	-13716.65
0.8416,0.1584	-13731.20
0.8881,0.1119	-13710.05
0.9210,0.0790	-13704.21
0.8960,0.1040	-13718.35
0.9845,0.0155	-13693.90
0.8636,0.1364	-13713.19
0.8446,0.1554	-13722.77
0.9071,0.0929	-13707.10
0.9325,0.0675	-13693.35
0.9088,0.0912	-13711.64
0.9850,0.0150	-13693.92
0.8640,0.1360	-13720.56
0.8767,0.1233	-13724.33
0.9196,0.0804	-13701.83
0.9367,0.0633	-13711.84
0.9144,0.0856	-13718.69
0.9818,0.0182	-13689.84
0.8809,0.1191	-13728.39
0.9014,0.0986	-13709.55
0.9380,0.0620	-13703.74
0.9310,0.0690	-13703.89
0.9262,0.0738	-13719.21
0.9774,0.0226	-13693.80
0.8746,0.1254	-13706.83
0.8983,0.1017	-13707.47
0.9329,0.0671	-13717.00
0.9299,0.0701	-13706.50
0.9120,0.0880	-13711.60
0.9785,0.0215	-13686.17
0.8575,0.1425	-13722.50
0.8847,0.1153	-13720.39
0.9304,0.0696	-13703.90
0.9096,0.0904	-13709.32
0.9250,0.0750	-13709.09
0.9752,0.0248	-13697.49
0.8710,0.1290	-13728.10
0.9102,0.0898	-13709.30
0.9232,0.0768	-13696.67
0.9142,0.0858	-13709.22
0.9240,0.0760	-13709.10
0.9760,0.0240	-13690.11
0.8507,0.1493	-13724.36
0.9057,0.0943	-13711.68
0.9261,0.0739	-13709.09
0.9072,0.0928	-13716.22
0.9214,0.0786	-13709.12
0.9803,0.0197	-13697.72
0.8497,0.1503	-13719.18
0.9248,0.0752	-13709.09
0.9204,0.0796	-13701.78
0.9129,0.0871	-13728.04
0.9061,0.0939	-13707.14
0.9824,0.0176	-13693.84
0.8879,0.1121	-13712.13
0.9221,0.0779	-13709.11
0.9079,0.0921	-13711.65
0.9190,0.0810	-13706.72
0.8487,0.1513	-13731.29
0.9791,0.0209	-13686.11
0.8946,0.1054	-13705.51
0.9217,0.0783	-13699.25
0.9170,0.0830	-13713.98
0.9014,0.0986	-13725.04
0.8483,0.1517	-13734.72
0.9738,0.0262	-13693.84
0.8981,0.1019	-13714.01
0.9306,0.0694	-13709.09
0.8734,0.1266	-13716.57
0.8698,0.1302	-13718.57
0.8327,0.1673	-13727.96
0.9705,0.0295	-13690.42
0.8944,0.1056	-13718.34
0.9316,0.0684	-13711.71
0.8696,0.1304	-13726.17
0.8930,0.1070	-13711.97
0.8046,0.1954	-13725.85
0.9736,0.0264	-13693.85
0.8978,0.1022	-13718.36
0.9293,0.0707	-13711.66
0.8584,0.1416	-13720.68
0.8656,0.1344	-13724.26
0.8089,0.1911	-13727.09
0.9720,0.0280	-13704.52
0.8941,0.1059	-13714.07
0.9371,0.0629	-13711.86
0.8427,0.1573	-13734.57
0.8907,0.1093	-13712.04
0.8109,0.1891	-13740.11
0.9743,0.0257	-13697.47
0.9033,0.0967	-13709.49
0.9376,0.0624	-13695.61
0.8399,0.1601	-13731.19
0.8733,0.1267	-13718.50
0.7899,0.2101	-13729.29
0.9750,0.0250	-13693.82
0.9214,0.0786	-13709.12
0.9509,0.0491	-13697.74
0.8019,0.1981	-13732.97
0.8779,0.1221	-13732.24
0.8220,0.1780	-13731.22
0.9762,0.0238	-13686.38
0.9129,0.0871	-13704.54
0.9547,0.0453	-13694.57
0.7890,0.2110	-13728.01
0.8792,0.1208	-13720.40
0.7860,0.2140	-13739.88
0.9725,0.0275	-13686.74
0.9028,0.0972	-13725.11
0.9410,0.0590	-13709.23
0.7734,0.2266	-13736.29
0.8841,0.1159	-13730.55
0.7872,0.2128	-13742.50
0.9748,0.0252	-13690.17
0.8958,0.1042	-13709.74
0.9340,0.0660	-13709.11
0.8030,0.1970	-13734.36
0.8883,0.1117	-13718.34
0.8237,0.1763	-13715.79
0.9760,0.0240	-13693.81
0.8794,0.1206	-13726.36
0.9363,0.0637	-13701.08
0.8172,0.1828	-13732.77
0.9013,0.0987	-13713.97
0.8230,0.1770	-13725.06
0.9801,0.0199	-13689.91
0.8954,0.1046	-13718.34
0.9352,0.0648	-13706.46
0.8369,0.1631	-13727.90
0.9115,0.0885	-13711.61
0.8404,0.1596	-13726.21
0.9781,0.0219	-13686.20
0.8785,0.1215	-13718.42
0.9451,0.0549	-13715.04
0.8456,0.1544	-13729.55
0.9008,0.0992	-13718.39
0.8574,0.1426	-13726.08
0.9823,0.0177	-13689.83
0.8721,0.1279	-13714.69
0.9416,0.0584	-13706.47
0.8407,0.1593	-13731.20
0.9097,0.0903	-13704.70
0.8612,0.1388	-13718.79
0.9786,0.0214	-13697.63
0.8650,0.1350	-13731.69
0.9503,0.0497	-13706.61
0.8633,0.1367	-13724.26
0.9307,0.0693	-13706.49
0.8721,0.1279	-13718.53
0.9803,0.0197	-13689.90
0.8713,0.1287	-13724.28
0.9363,0.0637	-13706.45
0.8605,0.1395	-13718.81
0.9310,0.0690	-13706.49
0.8794,0.1206	-13718.41
0.9805,0.0195	-13685.98
0.8796,0.1204	-13718.41
0.9401,0.0599	-13711.96
0.8612,0.1388	-13733.39
0.9344,0.0656	-13711.78
0.8669,0.1331	-13722.39
0.9816,0.0184	-13693.83
0.8829,0.1171	-13722.41
0.9420,0.0580	-13698.11
0.8565,0.1435	-13724.30
0.9400,0.0600	-13706.46
0.8797,0.1203	-13716.42
0.9793,0.0207	-13693.80
0.8927,0.1073	-13728.93
0.9398,0.0602	-13711.95
0.8700,0.1300	-13726.17
0.9459,0.0541	-13706.52
0.8456,0.1544	-13724.44
0.9750,0.0250	-13693.82
0.8935,0.1065	-13718.34
0.9444,0.0556	-13709.33
0.8905,0.1095	-13720.43
0.9450,0.0550	-13700.82
0.8404,0.1596	-13716.24
0.9735,0.0265	-13693.85
0.8684,0.1316	-13722.38
0.9461,0.0539	-13717.98
0.8997,0.1003	-13718.38
0.9457,0.0543	-13692.23
0.8255,0.1745	-13729.64
0.9743,0.0257	-13693.84
0.8800,0.1200	-13722.39
0.9371,0.0629	-13701.05
0.9156,0.0844	-13721.11
0.9515,0.0485	-13697.72
0.8517,0.1483	-13722.60
0.9814,0.0186	-13685.89
0.8547,0.1453	-13722.54
0.9402,0.0598	-13695.44
0.9113,0.0887	-13713.94
0.9512,0.0488	-13703.67
0.8778,0.1222	-13726.32
0.9765,0.0235	-13697.54
0.8500,0.1500	-13722.64
0.9319,0.0681	-13706.48
0.9042,0.0958	-13716.20
0.9548,0.0452	-13697.61
0.8619,0.1381	-13726.10
0.9808,0.0192	-13685.95
0.8610,0.1390	-13720.62
0.9275,0.0725	-13703.99
0.8963,0.1037	-13709.72
0.9489,0.0511	-13706.58
0.8658,0.1342	-13716.80
0.9777,0.0223	-13690.02
0.8679,0.1321	-13712.97
0.9205,0.0795	-13716.48
0.9042,0.0958	-13716.20
0.9501,0.0499	-13703.66
0.8652,0.1348	-13714.97
0.9791,0.0209	-13697.65
0.8563,0.1437	-13726.08
0.9197,0.0803	-13704.26
0.8877,0.1123	-13724.54
0.9272,0.0728	-13711.63
0.8599,0.1401	-13724.27
0.9796,0.0204	-13693.80
0.8415,0.1585	-13726.20
0.9137,0.0863	-13718.67
0.9025,0.0975	-13705.06
0.9112,0.0888	-13706.95
0.8488,0.1512	-13726.11
0.9820,0.0180	-13697.83
0.8211,0.1789	-13725.13
0.9124,0.0876	-13697.54
0.8977,0.1023	-13727.05
0.9186,0.0814	-13709.15
0.8144,0.1856	-13731.32
0.9848,0.0152	-13689.74
0.8318,0.1682	-13729.57
0.8907,0.1093	-13707.85
0.8914,0.1086	-13718.33
0.9085,0.0915	-13718.53
0.8279,0.1721	-13732.75
0.9840,0.0160	-13693.89
0.8398,0.1602	-13729.53
0.8747,0.1253	-13718.48
0.8906,0.1094	-13728.82
0.9086,0.0914	-13716.23
0.8358,0.1642	-13721.41
0.9861,0.0139	-13689.71
0.8609,0.1391	-13718.80
0.8554,0.1446	-13726.09
0.8646,0.1354	-13727.97
0.9150,0.0850	-13711.58
0.8377,0.1623	-13732.82
0.9840,0.0160	-13693.89
0.8637,0.1363	-13718.72
0.8870,0.1130	-13712.16
0.8683,0.1317	-13722.38
0.9231,0.0769	-13709.10
0.8216,0.1784	-13729.69
0.9874,0.0126	-13685.33
0.8456,0.1544	-13721.04
0.8939,0.1061	-13733.26
0.8456,0.1544	-13726.14
0.9274,0.0726	-13706.54
0.8035,0.1965	-13728.72
0.9877,0.0123	-13707.24
0.8698,0.1302	-13724.27
0.9092,0.0908	-13716.24
0.8423,0.1577	-13714.46
0.9450,0.0550	-13697.97
0.8424,0.1576	-13722.83
0.9853,0.0147	-13689.73
0.8532,0.1468	-13717.29
0.9159,0.0841	-13718.74
0.8211,0.1789	-13729.70
0.9497,0.0503	-13706.60
0.8535,0.1465	-13726.09
0.9847,0.0153	-13685.58
0.8394,0.1606	-13731.19
0.9069,0.0931	-13702.56
0.8150,0.1850	-13738.72
0.9516,0.0484	-13703.67
0.8279,0.1721	-13718.61
0.9834,0.0166	-13697.95
0.8403,0.1597	-13736.17
0.8952,0.1048	-13722.63
0.7932,0.2068	-13733.17
0.9504,0.0496	-13712.52
0.8387,0.1613	-13731.18
0.9846,0.0154	-13685.59
0.8343,0.1657	-13721.47
0.9000,0.1000	-13720.58
0.8366,0.1634	-13736.07
0.9409,0.0591	-13700.93
0.8284,0.1716	-13728.03
0.9856,0.0144	-13689.73
0.8223,0.1777	-13737.34
0.8686,0.1314	-13731.82
0.8129,0.1871	-13732.81
0.9454,0.0546	-13700.81
0.8442,0.1558	-13727.85
0.9870,0.0130	-13689.70
0.8240,0.1760	-13735.83
0.8486,0.1514	-13717.50
0.8496,0.1504	-13724.38
0.9551,0.0449	-13700.66
0.8091,0.1909	-13734.30
0.9848,0.0152	-13689.74
0.8211,0.1789	-13732.75
0.8492,0.1508	-13729.57
0.8583,0.1417	-13720.68
0.9685,0.0315	-13693.97
0.8047,0.1953	-13724.42
0.9871,0.0129	-13685.36
0.8167,0.1833	-13737.26
0.8557,0.1443	-13727.86
0.8506,0.1494	-13720.89
0.9794,0.0206	-13709.25
0.8478,0.1522	-13720.97
0.9891,0.0109	-13689.68
0.7842,0.2158	-13738.60
0.8596,0.1404	-13718.84
0.8623,0.1377	-13731.60
0.9757,0.0243	-13693.82
0.8451,0.1549	-13719.36
0.9899,0.0101	-13689.69
0.7916,0.2084	-13731.88
0.8528,0.1472	-13719.07
0.8299,0.1701	-13728.00
0.9758,0.0242	-13690.12
0.8219,0.1781	-13728.16
0.9905,0.0095	-13703.62
0.7930,0.2070	-13734.52
0.8630,0.1370	-13726.10
0.8620,0.1380	-13724.27
0.9772,0.0228	-13686.29
0.8366,0.1634	-13724.64
0.9908,0.0092	-13694.38
0.8324,0.1676	-13723.16
0.8655,0.1345	-13718.68
0.8610,0.1390	-13729.74
0.9746,0.0254	-13690.18
