#isoforms=['ENSG00000101294.SE.1.A.up_ENSG00000101294.SE.1.A.SE1_ENSG00000101294.SE.1.A.dn','ENSG00000101294.SE.1.B.up_ENSG00000101294.SE.1.B.dn']	exon_lens=('ENSG00000101294.SE.1.A.up',99),('ENSG00000101294.SE.1.A.SE1',376),('ENSG00000101294.SE.1.A.dn',89),('ENSG00000101294.SE.1.B.up',99),('ENSG00000101294.SE.1.B.dn',89)	iters=5000	burn_in=500	lag=10	percent_accept=93.23	proposal_type=drift	counts=(0,0):137,(1,0):30,(1,1):43	assigned_counts=0:47,1:26	chrom=chr20	strand=+	mRNA_starts=31527484,31527484	mRNA_ends=31545035,31545035
sampled_psi	log_score
0.2523,0.7477	-462.25
0.2484,0.7516	-456.70
0.3351,0.6649	-466.71
0.3105,0.6895	-469.59
0.2457,0.7543	-459.99
0.2866,0.7134	-468.12
0.2107,0.7893	-459.93
0.3202,0.6798	-468.00
0.3410,0.6590	-463.52
0.2978,0.7022	-466.32
0.2330,0.7670	-467.04
0.2677,0.7323	-468.41
0.2552,0.7448	-461.19
0.3373,0.6627	-466.75
0.3966,0.6034	-469.10
0.2395,0.7605	-465.71
0.2242,0.7758	-464.83
0.2743,0.7257	-466.34
0.2707,0.7293	-459.43
0.3131,0.6869	-470.35
0.3709,0.6291	-467.49
0.2403,0.7597	-463.39
0.1913,0.8087	-460.25
0.2441,0.7559	-461.10
0.2819,0.7181	-462.57
0.2472,0.7528	-461.12
0.3483,0.6517	-465.08
0.2245,0.7755	-466.07
0.2177,0.7823	-466.28
0.2576,0.7424	-463.34
0.2998,0.7002	-462.09
0.2650,0.7350	-468.46
0.3530,0.6470	-465.84
0.2032,0.7968	-461.38
0.2622,0.7378	-464.38
0.2466,0.7534	-463.35
0.2919,0.7081	-464.53
0.2726,0.7274	-468.32
0.3419,0.6581	-466.17
0.1962,0.8038	-467.19
0.2505,0.7495	-466.63
0.2291,0.7709	-462.30
0.2794,0.7206	-461.58
0.2367,0.7633	-463.42
0.3124,0.6876	-465.62
0.1905,0.8095	-463.16
0.2278,0.7722	-463.53
0.2263,0.7737	-470.93
0.2613,0.7387	-461.27
0.2270,0.7730	-462.32
0.3632,0.6368	-466.17
0.1856,0.8144	-455.96
0.2198,0.7802	-461.14
0.2171,0.7829	-458.60
0.2350,0.7650	-456.36
0.1986,0.8014	-458.70
0.3949,0.6051	-469.91
0.1569,0.8431	-458.29
0.2234,0.7766	-467.35
0.2340,0.7660	-458.71
0.2276,0.7724	-463.54
0.1648,0.8352	-461.21
0.3696,0.6304	-469.06
0.1769,0.8231	-465.30
0.2083,0.7917	-470.63
0.2199,0.7801	-461.14
0.2491,0.7509	-460.03
0.1521,0.8479	-451.65
0.4061,0.5939	-468.21
0.2075,0.7925	-466.66
0.2145,0.7855	-463.80
0.2383,0.7617	-458.76
0.2711,0.7289	-464.39
0.1555,0.8445	-461.74
0.4110,0.5890	-470.56
0.2114,0.7886	-461.24
0.2431,0.7569	-459.96
0.2304,0.7696	-463.50
0.2610,0.7390	-463.34
0.1558,0.8442	-465.11
0.4710,0.5290	-471.90
0.2316,0.7684	-464.68
0.2395,0.7605	-462.24
0.2523,0.7477	-462.25
0.2585,0.7415	-461.23
0.1886,0.8114	-463.23
0.4681,0.5319	-472.84
0.2228,0.7772	-466.12
0.2326,0.7674	-464.66
0.3015,0.6985	-466.33
0.2598,0.7402	-462.29
0.2388,0.7612	-463.40
0.5298,0.4702	-472.98
0.2428,0.7572	-465.65
0.2405,0.7595	-466.84
0.3126,0.6874	-464.05
0.2707,0.7293	-459.43
0.2470,0.7530	-463.35
0.5209,0.4791	-473.16
0.2718,0.7282	-465.37
0.2481,0.7519	-457.80
0.3344,0.6656	-470.14
0.2522,0.7478	-467.68
0.2597,0.7403	-469.63
0.5230,0.4770	-473.57
0.2771,0.7229	-467.29
0.2623,0.7377	-462.31
0.3432,0.6568	-468.80
0.2049,0.7951	-464.06
0.2630,0.7370	-463.35
0.5132,0.4868	-473.19
0.2639,0.7361	-465.41
0.2760,0.7240	-459.58
0.3353,0.6647	-464.66
0.2170,0.7830	-463.74
0.2180,0.7820	-458.60
0.5478,0.4522	-473.54
0.2582,0.7418	-458.06
0.3091,0.6909	-468.80
0.3502,0.6498	-471.32
0.2498,0.7502	-462.24
0.2134,0.7866	-454.69
0.5413,0.4587	-473.41
0.2454,0.7546	-465.60
0.2522,0.7478	-463.34
0.3117,0.6883	-464.03
0.2589,0.7411	-458.08
0.2011,0.7989	-458.67
0.5389,0.4611	-473.84
0.2126,0.7874	-458.60
0.2439,0.7561	-461.10
0.3076,0.6924	-467.18
0.2284,0.7716	-459.87
0.2173,0.7827	-458.60
0.5172,0.4828	-473.10
0.1835,0.8165	-464.94
0.2904,0.7096	-463.62
0.3483,0.6517	-465.08
0.2164,0.7836	-461.18
0.2250,0.7750	-463.58
0.5245,0.4755	-473.33
0.2023,0.7977	-454.54
0.2964,0.7036	-465.45
0.3314,0.6686	-465.25
0.2070,0.7930	-458.63
0.2166,0.7834	-463.75
0.5263,0.4737	-473.58
0.1980,0.8020	-460.10
0.3067,0.6933	-463.92
0.3266,0.6734	-466.58
0.2129,0.7871	-457.30
0.2312,0.7688	-462.28
0.5780,0.4220	-475.46
0.2595,0.7405	-464.39
0.3123,0.6877	-466.41
0.2644,0.7356	-463.36
0.2578,0.7422	-459.11
0.2640,0.7360	-466.43
0.6172,0.3828	-472.46
0.2314,0.7686	-461.08
0.3556,0.6444	-465.92
0.2816,0.7184	-463.50
0.2402,0.7598	-458.78
0.2307,0.7693	-459.88
0.6272,0.3728	-476.70
0.2215,0.7785	-464.90
0.3672,0.6328	-469.57
0.2998,0.7002	-467.17
0.2407,0.7593	-463.39
0.1872,0.8128	-458.88
0.6684,0.3316	-474.44
0.2303,0.7697	-458.67
0.4017,0.5983	-471.22
0.3126,0.6874	-467.20
0.2893,0.7107	-468.10
0.2126,0.7874	-459.91
0.6637,0.3363	-474.32
0.2468,0.7532	-463.35
0.3851,0.6149	-466.49
0.3153,0.6847	-467.22
0.2916,0.7084	-467.19
0.1775,0.8225	-454.53
0.6310,0.3690	-473.11
0.2632,0.7368	-465.41
0.3924,0.6076	-469.00
0.2710,0.7290	-466.36
0.3268,0.6732	-468.75
0.1678,0.8322	-464.27
0.6491,0.3509	-477.69
0.2462,0.7538	-458.88
0.4515,0.5485	-471.38
0.2574,0.7426	-465.45
0.3415,0.6585	-470.76
0.1556,0.8444	-465.11
0.6618,0.3382	-475.62
0.2596,0.7404	-460.19
0.4249,0.5751	-470.80
0.2873,0.7127	-461.76
0.3186,0.6814	-462.68
0.1386,0.8614	-461.18
0.6882,0.3118	-471.80
0.2414,0.7586	-457.66
0.3942,0.6058	-471.62
0.2839,0.7161	-462.60
0.3728,0.6272	-469.10
0.1497,0.8503	-453.44
0.6745,0.3255	-478.96
0.2540,0.7460	-465.49
0.4285,0.5715	-469.43
0.2694,0.7306	-464.38
0.3692,0.6308	-471.20
0.1778,0.8222	-457.59
0.7237,0.2763	-475.15
0.2673,0.7327	-464.38
0.3822,0.6178	-470.69
0.2647,0.7353	-462.34
0.3507,0.6493	-470.08
0.1404,0.8596	-459.23
0.7022,0.2978	-470.23
0.2877,0.7123	-469.02
0.3996,0.6004	-469.18
0.2102,0.7898	-457.29
0.3696,0.6304	-466.92
0.1573,0.8427	-459.95
0.7164,0.2836	-476.78
0.3563,0.6437	-468.90
0.4133,0.5867	-470.25
0.2232,0.7768	-461.12
0.4071,0.5929	-468.62
0.1660,0.8340	-466.00
0.6602,0.3398	-476.23
0.3000,0.7000	-460.40
0.4257,0.5743	-471.71
0.1880,0.8120	-455.94
0.3147,0.6853	-467.21
0.1835,0.8165	-460.46
0.6674,0.3326	-474.41
0.3066,0.6934	-468.00
0.4172,0.5828	-469.99
0.2140,0.7860	-458.60
0.2814,0.7186	-460.68
0.1665,0.8335	-467.57
0.6671,0.3329	-471.62
0.3880,0.6120	-470.72
0.4109,0.5891	-470.20
0.2168,0.7832	-463.74
0.2546,0.7454	-464.41
0.1595,0.8405	-458.18
0.7220,0.2780	-475.09
0.3399,0.6601	-468.12
0.4165,0.5835	-469.98
0.2249,0.7751	-459.87
0.2523,0.7477	-467.68
0.1812,0.8188	-465.06
0.7508,0.2492	-472.77
0.3310,0.6690	-466.64
0.3453,0.6547	-467.53
0.2206,0.7794	-461.14
0.3082,0.6918	-463.95
0.2125,0.7875	-470.39
0.7633,0.2367	-476.57
0.3268,0.6732	-463.69
0.3630,0.6370	-469.54
0.2118,0.7882	-458.61
0.3190,0.6810	-464.97
0.2259,0.7741	-464.80
0.8000,0.2000	-467.19
0.3151,0.6849	-467.99
0.3163,0.6837	-467.22
0.2074,0.7926	-461.30
0.2740,0.7260	-470.24
0.2475,0.7525	-463.35
0.7794,0.2206	-473.48
0.3759,0.6241	-469.66
0.2660,0.7340	-466.41
0.2513,0.7487	-463.34
0.2746,0.7254	-461.48
0.2868,0.7132	-462.66
0.7542,0.2458	-470.60
0.4101,0.5899	-469.09
0.2774,0.7226	-463.45
0.2314,0.7686	-458.68
0.2536,0.7464	-466.57
0.2669,0.7331	-464.38
0.7389,0.2611	-470.45
0.4487,0.5513	-471.11
0.2230,0.7770	-464.86
0.2218,0.7782	-461.13
0.2906,0.7094	-460.95
0.2474,0.7526	-465.57
0.7342,0.2658	-474.47
0.3999,0.6001	-471.21
0.2430,0.7570	-457.69
0.1828,0.8172	-464.97
0.3149,0.6851	-463.33
0.2162,0.7838	-465.04
0.7422,0.2578	-474.70
0.4415,0.5585	-472.08
0.2189,0.7811	-466.24
0.2085,0.7915	-459.95
0.2950,0.7050	-463.69
0.2112,0.7888	-461.24
0.6868,0.3132	-472.57
0.4017,0.5983	-471.22
0.2045,0.7955	-468.15
0.1891,0.8109	-461.76
0.2516,0.7484	-465.52
0.2210,0.7790	-461.13
0.6451,0.3549	-476.30
0.4147,0.5853	-470.96
0.2227,0.7773	-457.37
0.2021,0.7979	-457.29
0.2574,0.7426	-465.45
0.1734,0.8266	-463.94
0.6347,0.3653	-475.37
0.3778,0.6222	-469.18
0.2293,0.7707	-458.66
0.1919,0.8081	-458.79
0.2649,0.7351	-466.42
0.1767,0.8233	-459.15
0.6066,0.3934	-475.86
0.3931,0.6069	-468.58
0.2143,0.7857	-461.20
0.1956,0.8044	-457.32
0.3122,0.6878	-462.46
0.1683,0.8317	-457.85
0.5770,0.4230	-473.56
0.3545,0.6455	-465.89
0.1958,0.8042	-453.08
0.1892,0.8108	-467.57
0.3090,0.6910	-463.97
0.1811,0.8189	-454.50
0.4804,0.5196	-472.81
0.3458,0.6542	-465.63
0.2116,0.7884	-459.92
0.2008,0.7992	-461.44
0.2696,0.7304	-461.39
0.2517,0.7483	-462.25
0.4951,0.5049	-472.69
0.3493,0.6507	-471.33
0.3064,0.6936	-468.81
0.2664,0.7336	-462.35
0.2743,0.7257	-462.45
0.2749,0.7251	-466.34
0.4360,0.5640	-469.48
0.3460,0.6540	-468.18
0.3074,0.6926	-461.50
0.2589,0.7411	-465.44
0.2695,0.7305	-461.39
0.2761,0.7239	-469.22
0.4137,0.5863	-470.25
0.3230,0.6770	-468.75
0.3148,0.6852	-465.66
0.2491,0.7509	-464.45
0.2234,0.7766	-464.85
0.3162,0.6838	-469.54
0.3470,0.6530	-469.46
0.3257,0.6743	-470.20
0.2978,0.7022	-463.74
0.2519,0.7481	-468.78
0.2475,0.7525	-461.12
0.3365,0.6635	-467.41
0.3339,0.6661	-470.14
0.3113,0.6887	-466.40
0.3285,0.6715	-463.03
0.2093,0.7907	-459.94
0.3022,0.6978	-466.34
0.2946,0.7054	-461.94
0.3828,0.6172	-473.08
0.3117,0.6883	-464.82
0.3546,0.6454	-468.89
0.2247,0.7753	-468.54
0.3038,0.6962	-469.66
0.2994,0.7006	-464.62
0.3341,0.6659	-466.69
0.3056,0.6944	-467.18
0.4080,0.5920	-470.14
0.2460,0.7540	-462.23
0.3484,0.6516	-468.21
0.3044,0.6956	-465.52
0.3379,0.6621	-464.74
0.2853,0.7147	-463.55
0.4161,0.5839	-469.29
0.2560,0.7440	-463.33
0.3226,0.6774	-462.81
0.3189,0.6811	-464.96
0.3485,0.6515	-468.21
0.2853,0.7147	-464.46
0.4043,0.5957	-470.46
0.2547,0.7453	-468.70
0.3574,0.6426	-473.02
0.3425,0.6575	-462.93
0.3043,0.6957	-468.00
0.2803,0.7197	-469.14
0.3941,0.6059	-468.18
0.2794,0.7206	-468.21
0.4391,0.5609	-471.09
0.3289,0.6711	-468.04
0.3222,0.6778	-466.52
0.2578,0.7422	-469.68
0.3592,0.6408	-467.78
0.2759,0.7241	-457.65
0.4108,0.5892	-471.28
0.3081,0.6919	-472.04
0.3049,0.6951	-468.00
0.2480,0.7520	-464.46
0.3791,0.6209	-471.17
0.2406,0.7594	-458.79
0.3746,0.6254	-468.62
0.3375,0.6625	-468.10
0.2747,0.7253	-468.28
0.2990,0.7010	-458.65
0.4154,0.5846	-469.95
0.2498,0.7502	-458.94
0.3058,0.6942	-467.18
0.3081,0.6919	-463.14
0.2570,0.7430	-464.40
0.2752,0.7248	-466.34
0.3775,0.6225	-466.17
0.2168,0.7832	-458.60
0.2967,0.7033	-465.45
0.2605,0.7395	-466.47
0.2684,0.7316	-457.36
0.2743,0.7257	-467.31
0.3876,0.6124	-467.97
0.2180,0.7820	-461.16
0.2934,0.7066	-468.94
0.2756,0.7244	-461.50
0.2504,0.7496	-465.53
0.2362,0.7638	-458.73
0.3699,0.6301	-465.87
0.2155,0.7845	-465.06
0.2940,0.7060	-464.55
0.3224,0.6776	-467.26
0.2436,0.7564	-457.70
0.2714,0.7286	-466.36
0.3808,0.6192	-467.77
0.2326,0.7674	-465.85
0.3430,0.6570	-464.90
0.3273,0.6727	-463.71
0.2305,0.7695	-465.90
0.2789,0.7211	-466.32
0.4029,0.5971	-471.23
0.2429,0.7571	-462.23
0.3042,0.6958	-467.18
0.3317,0.6683	-465.25
0.2010,0.7990	-461.43
0.2931,0.7069	-465.42
0.3692,0.6308	-469.59
0.2209,0.7791	-456.09
0.3604,0.6396	-468.95
0.3229,0.6771	-468.75
0.2091,0.7909	-466.60
0.2996,0.7004	-464.63
0.3503,0.6497	-465.76
0.2399,0.7601	-465.70
0.3825,0.6175	-468.30
0.3648,0.6352	-469.55
0.1785,0.8215	-462.15
0.2814,0.7186	-468.19
0.3099,0.6901	-464.79
0.2413,0.7587	-462.24
0.3391,0.6609	-470.78
0.3257,0.6743	-465.11
0.1803,0.8197	-456.02
0.2570,0.7430	-463.34
0.2846,0.7154	-467.22
0.2052,0.7948	-455.93
0.3616,0.6384	-467.25
0.3257,0.6743	-467.29
0.1896,0.8104	-457.38
0.2788,0.7212	-464.42
0.2871,0.7129	-469.94
0.2355,0.7645	-457.55
0.3563,0.6437	-466.54
0.3075,0.6925	-468.81
0.2080,0.7920	-463.97
0.2845,0.7155	-466.30
0.3125,0.6875	-468.78
0.2689,0.7311	-469.38
0.3570,0.6430	-465.97
0.3646,0.6354	-468.99
0.2497,0.7503	-457.84
0.2698,0.7302	-466.37
0.2823,0.7177	-463.51
0.2552,0.7448	-462.26
0.4299,0.5701	-470.61
0.3206,0.6794	-467.25
0.2637,0.7363	-463.35
0.2494,0.7506	-462.24
0.2841,0.7159	-460.76
0.2183,0.7817	-463.71
0.4633,0.5367	-472.57
0.3079,0.6921	-467.99
0.2525,0.7475	-465.51
0.2643,0.7357	-459.26
0.2975,0.7025	-464.60
0.2489,0.7511	-465.55
0.3872,0.6128	-469.34
0.3491,0.6509	-466.35
0.2941,0.7059	-461.93
0.2693,0.7307	-464.38
0.2790,0.7210	-465.37
0.2234,0.7766	-459.87
0.3679,0.6321	-467.95
0.3566,0.6434	-471.27
0.2766,0.7234	-463.44
0.2680,0.7320	-467.39
0.2851,0.7149	-464.46
0.2345,0.7655	-461.08
0.3483,0.6517	-466.96
0.3173,0.6827	-463.40
0.2320,0.7680	-465.87
0.2182,0.7818	-457.33
0.2893,0.7107	-461.80
0.2657,0.7343	-463.36
0.3525,0.6475	-469.48
0.3056,0.6944	-468.00
0.2708,0.7292	-463.39
0.2254,0.7746	-464.81
0.2909,0.7091	-468.97
0.2316,0.7684	-470.68
0.3173,0.6827	-463.40
0.2806,0.7194	-463.49
0.2958,0.7042	-461.97
0.2373,0.7627	-464.58
0.2402,0.7598	-464.54
0.2608,0.7392	-466.47
0.2744,0.7256	-464.40
0.3382,0.6618	-464.75
0.2877,0.7123	-462.67
0.2031,0.7969	-461.39
0.2262,0.7738	-461.10
0.2320,0.7680	-457.49
0.2652,0.7348	-462.34
0.3416,0.6584	-462.89
0.2658,0.7342	-463.36
0.2347,0.7653	-458.72
0.2134,0.7866	-462.52
0.2319,0.7681	-457.49
0.2694,0.7306	-461.39
0.3528,0.6472	-467.05
0.2698,0.7302	-464.38
0.2482,0.7518	-461.13
0.2336,0.7664	-463.45
0.2530,0.7470	-464.42
0.2274,0.7726	-464.76
0.2931,0.7069	-462.78
0.2707,0.7293	-466.37
0.2624,0.7376	-467.48
0.2370,0.7630	-465.76
0.2472,0.7528	-457.78
0.2158,0.7842	-461.18
0.2700,0.7300	-467.37
0.2550,0.7450	-465.48
0.2648,0.7352	-461.31
0.1930,0.8070	-455.91
0.2314,0.7686	-464.68
0.2441,0.7559	-458.84
0.2604,0.7396	-464.39
0.2816,0.7184	-467.25
0.3050,0.6950	-468.83
0.1738,0.8262	-459.25
0.2138,0.7862	-457.30
0.2354,0.7646	-459.90
0.2591,0.7409	-463.34
0.2744,0.7256	-463.42
0.2694,0.7306	-462.39
0.2226,0.7774	-461.12
0.2255,0.7745	-458.63
0.2479,0.7521	-460.02
0.2287,0.7713	-462.30
0.2675,0.7325	-467.40
0.3065,0.6935	-463.92
0.2217,0.7783	-466.15
0.2426,0.7574	-461.10
0.2383,0.7617	-464.57
0.2324,0.7676	-461.08
0.2545,0.7455	-468.71
0.2745,0.7255	-462.45
0.2095,0.7905	-461.27
0.2050,0.7950	-462.70
0.2027,0.7973	-462.76
0.2707,0.7293	-457.45
0.2553,0.7447	-463.33
0.2615,0.7385	-464.38
0.1961,0.8039	-464.37
0.1998,0.8002	-457.30
0.2071,0.7929	-462.65
0.2577,0.7423	-471.80
0.2790,0.7210	-463.47
0.3144,0.6856	-464.09
0.2046,0.7954	-462.71
0.2016,0.7984	-458.67
0.1970,0.8030	-458.72
0.2375,0.7625	-464.58
0.2639,0.7361	-464.38
0.3355,0.6645	-467.40
0.2296,0.7704	-458.66
0.1985,0.8015	-465.68
0.1990,0.8010	-457.30
0.2218,0.7782	-462.38
0.2284,0.7716	-461.09
0.2865,0.7135	-466.30
0.2037,0.7963	-462.74
0.2141,0.7859	-456.00
0.2057,0.7943	-466.74
0.2565,0.7435	-461.21
0.2153,0.7847	-456.02
0.3055,0.6945	-468.00
0.2077,0.7923	-457.28
0.2068,0.7932	-459.97
0.2003,0.7997	-461.45
0.2851,0.7149	-466.30
0.1849,0.8151	-458.93
0.3139,0.6861	-468.77
0.1986,0.8014	-461.49
0.2433,0.7567	-462.23
0.2321,0.7679	-457.49
0.2946,0.7054	-461.94
0.2158,0.7842	-461.18
0.2912,0.7088	-465.41
0.2092,0.7908	-458.61
0.2313,0.7687	-458.68
0.2467,0.7533	-462.24
0.2437,0.7563	-465.63
0.2474,0.7526	-465.57
0.2551,0.7449	-464.41
0.1952,0.8048	-462.99
0.2113,0.7887	-457.29
0.2530,0.7470	-457.92
0.2130,0.7870	-466.45
0.2349,0.7651	-458.72
0.2516,0.7484	-460.07
0.1749,0.8251	-462.31
0.2002,0.7998	-465.60
0.2671,0.7329	-458.32
0.2447,0.7553	-465.62
0.2014,0.7986	-461.42
0.2129,0.7871	-462.53
0.2050,0.7950	-455.93
0.2165,0.7835	-461.17
0.2616,0.7384	-464.38
0.3036,0.6964	-465.52
0.1825,0.8175	-458.99
0.2563,0.7437	-462.27
0.1886,0.8114	-466.15
0.2146,0.7854	-457.31
0.2997,0.7003	-466.33
0.3399,0.6601	-466.79
0.2146,0.7854	-458.60
0.2574,0.7426	-463.34
0.1724,0.8276	-457.73
0.2047,0.7953	-460.00
0.3127,0.6873	-465.63
0.3496,0.6504	-469.46
0.2357,0.7643	-466.96
0.2126,0.7874	-459.91
0.1588,0.8412	-451.54
0.1987,0.8013	-457.30
0.2941,0.7059	-465.43
0.3381,0.6619	-468.10
0.2014,0.7986	-460.05
0.1807,0.8193	-456.01
0.1935,0.8065	-458.77
0.2443,0.7557	-464.49
0.3050,0.6950	-465.53
0.3033,0.6967	-463.85
0.2264,0.7736	-462.33
0.1977,0.8023	-461.51
0.1790,0.8210	-459.08
0.2484,0.7516	-466.67
0.2952,0.7048	-461.96
0.2935,0.7065	-463.67
0.2557,0.7443	-464.40
0.2312,0.7688	-469.49
0.1930,0.8070	-461.64
0.2191,0.7809	-464.96
0.2420,0.7580	-467.94
0.3206,0.6794	-463.50
0.2531,0.7469	-463.34
0.2531,0.7469	-466.58
0.1836,0.8164	-458.96
0.2206,0.7794	-463.66
0.2765,0.7235	-466.33
0.3059,0.6941	-462.26
0.2430,0.7570	-469.05
0.3073,0.6927	-464.75
0.2032,0.7968	-460.02
0.2571,0.7429	-467.58
0.2984,0.7016	-467.17
0.2787,0.7213	-467.27
0.2786,0.7214	-472.03
0.3405,0.6595	-467.46
0.2140,0.7860	-465.11
0.2421,0.7579	-463.38
0.3103,0.6897	-463.20
0.2822,0.7178	-468.17
0.2681,0.7319	-462.37
0.3877,0.6123	-467.06
0.2575,0.7425	-465.45
0.2386,0.7614	-464.56
0.2999,0.7001	-466.33
0.3030,0.6970	-462.18
0.2911,0.7089	-463.63
0.4346,0.5654	-469.94
0.2346,0.7654	-465.81
0.2517,0.7483	-461.16
0.3119,0.6881	-466.41
0.3243,0.6757	-463.61
0.2537,0.7463	-465.49
0.3972,0.6028	-470.37
0.2187,0.7813	-462.43
0.2811,0.7189	-471.00
0.2414,0.7586	-463.38
0.3336,0.6664	-467.38
0.2647,0.7353	-460.29
0.4374,0.5626	-471.05
0.2352,0.7648	-462.26
0.3130,0.6870	-466.42
0.2210,0.7790	-461.13
0.3654,0.6346	-469.56
0.3059,0.6941	-464.72
0.3996,0.6004	-468.36
0.2988,0.7012	-461.20
0.2929,0.7071	-461.01
0.2275,0.7725	-457.43
0.3490,0.6510	-468.22
0.2942,0.7058	-461.06
0.4256,0.5744	-470.51
0.2547,0.7453	-463.33
0.2521,0.7479	-467.69
0.2407,0.7593	-471.43
0.3348,0.6652	-464.64
0.2394,0.7606	-458.77
0.4548,0.5452	-470.56
0.2825,0.7175	-467.24
0.2296,0.7704	-458.66
0.2197,0.7803	-466.21
0.2870,0.7130	-461.75
0.2181,0.7819	-461.16
0.4939,0.5061	-472.78
0.3313,0.6687	-467.35
0.2837,0.7163	-463.53
0.2870,0.7130	-462.66
0.3141,0.6859	-465.65
0.2405,0.7595	-462.24
0.4785,0.5215	-472.38
0.3162,0.6838	-465.68
0.2548,0.7452	-461.19
0.3065,0.6935	-468.00
0.3507,0.6493	-462.69
0.2765,0.7235	-466.33
0.4818,0.5182	-472.73
0.2993,0.7007	-462.92
0.2696,0.7304	-459.40
0.3323,0.6677	-468.06
0.3428,0.6572	-467.50
0.2159,0.7841	-457.31
0.4772,0.5228	-472.27
0.3104,0.6896	-465.60
0.2831,0.7169	-464.45
0.3415,0.6585	-468.13
0.3341,0.6659	-468.07
0.2209,0.7791	-457.35
0.4408,0.5592	-471.61
0.3299,0.6701	-465.92
0.2929,0.7071	-461.02
0.2553,0.7447	-460.12
0.3261,0.6739	-465.84
0.2275,0.7725	-462.31
0.4729,0.5271	-472.28
0.3435,0.6565	-465.56
0.2866,0.7134	-460.83
0.2473,0.7527	-454.45
0.2931,0.7069	-466.30
0.2590,0.7410	-464.39
0.4989,0.5011	-472.81
0.2617,0.7383	-464.38
0.2631,0.7369	-467.47
0.2427,0.7573	-464.51
0.2762,0.7238	-460.55
0.2576,0.7424	-462.28
0.5250,0.4750	-473.44
0.2346,0.7654	-461.08
0.2661,0.7339	-461.34
0.1921,0.8079	-470.28
0.2855,0.7145	-462.63
0.2629,0.7371	-466.44
0.5169,0.4831	-473.16
0.2809,0.7191	-469.13
0.2922,0.7078	-464.53
0.1765,0.8235	-453.00
0.2833,0.7167	-461.66
0.2624,0.7376	-462.31
0.5416,0.4584	-472.92
0.2874,0.7126	-465.39
0.2704,0.7296	-471.33
0.2388,0.7612	-461.08
0.2966,0.7034	-468.90
0.3074,0.6926	-467.18
0.5299,0.4701	-473.46
0.2731,0.7269	-465.37
0.2987,0.7013	-464.61
0.2720,0.7280	-464.39
0.2802,0.7198	-462.54
0.3658,0.6342	-467.91
0.4725,0.5275	-472.06
0.3345,0.6655	-466.01
0.2801,0.7199	-465.37
0.3019,0.6981	-470.53
0.2658,0.7342	-465.39
0.3557,0.6443	-464.15
0.4782,0.5218	-472.20
0.3711,0.6289	-466.44
0.2974,0.7026	-465.46
0.2863,0.7137	-467.21
0.2895,0.7105	-463.61
0.3812,0.6188	-469.23
0.4558,0.5442	-471.49
0.3972,0.6028	-468.70
0.2805,0.7195	-460.66
0.3082,0.6918	-469.61
0.2810,0.7190	-471.01
0.3954,0.6046	-469.07
0.4226,0.5774	-470.76
0.4108,0.5892	-470.20
0.2260,0.7740	-462.33
0.2592,0.7408	-463.34
0.2538,0.7462	-465.49
0.4066,0.5934	-469.36
0.4309,0.5691	-472.31
0.3877,0.6123	-468.89
0.2259,0.7741	-466.03
0.3286,0.6714	-466.61
0.2339,0.7661	-455.15
0.3734,0.6266	-468.08
0.3498,0.6502	-468.85
0.3807,0.6193	-464.84
0.2671,0.7329	-464.38
0.3245,0.6755	-466.55
0.2376,0.7624	-466.91
0.3817,0.6183	-469.24
0.3171,0.6829	-466.46
0.3704,0.6296	-468.54
0.2875,0.7125	-463.58
0.3001,0.6999	-464.63
0.2229,0.7771	-464.86
0.3616,0.6384	-464.98
0.3331,0.6669	-471.53
0.3322,0.6678	-463.17
0.3092,0.6908	-465.58
0.3113,0.6887	-464.82
0.2239,0.7761	-463.60
0.3609,0.6391	-468.95
0.3535,0.6465	-468.88
0.3523,0.6477	-468.87
0.2795,0.7205	-463.48
0.3379,0.6621	-465.41
0.2373,0.7627	-465.75
0.3064,0.6936	-463.10
0.3797,0.6203	-465.78
0.3235,0.6765	-470.23
0.3272,0.6728	-468.03
0.3339,0.6661	-468.76
0.1919,0.8081	-458.79
0.3076,0.6924	-463.94
0.3546,0.6454	-468.29
0.2757,0.7243	-461.50
0.3190,0.6810	-467.24
0.3401,0.6599	-466.80
0.2023,0.7977	-453.17
0.3221,0.6779	-467.26
0.3881,0.6119	-467.53
0.2141,0.7859	-465.10
0.3509,0.6491	-467.62
0.2683,0.7317	-463.38
0.1869,0.8131	-460.36
0.3043,0.6957	-469.66
0.3999,0.6001	-469.18
0.2760,0.7240	-466.33
0.2905,0.7095	-463.62
0.2658,0.7342	-460.32
0.2395,0.7605	-459.93
0.2787,0.7213	-467.27
0.3338,0.6662	-466.69
0.2625,0.7375	-466.45
0.3453,0.6547	-468.17
0.3047,0.6953	-470.48
0.1735,0.8265	-457.70
0.2952,0.7048	-465.44
0.3138,0.6862	-466.43
0.2443,0.7557	-463.36
0.3451,0.6549	-467.53
0.3002,0.6998	-468.02
0.1671,0.8329	-459.50
0.3082,0.6918	-464.76
0.2860,0.7140	-464.47
0.2275,0.7725	-462.32
0.3452,0.6548	-466.89
0.2734,0.7266	-464.39
0.2124,0.7876	-458.61
0.2555,0.7445	-463.33
0.3266,0.6734	-466.58
0.2791,0.7209	-463.47
0.3426,0.6574	-470.75
0.3048,0.6952	-470.48
0.2341,0.7659	-456.34
0.2598,0.7402	-469.62
0.3185,0.6815	-462.67
0.2319,0.7681	-464.67
0.2964,0.7036	-464.58
0.3467,0.6533	-468.82
0.1921,0.8079	-458.79
0.3161,0.6839	-465.68
0.3513,0.6487	-470.70
0.1975,0.8025	-460.11
0.2994,0.7006	-466.32
0.3898,0.6102	-468.04
0.2075,0.7925	-465.32
0.3145,0.6855	-464.88
0.3985,0.6015	-468.74
0.2011,0.7989	-457.29
0.3159,0.6841	-465.67
0.3240,0.6760	-465.81
0.2077,0.7923	-463.98
0.2892,0.7108	-461.80
0.4657,0.5343	-471.20
0.1868,0.8132	-460.36
0.3090,0.6910	-467.99
0.2883,0.7117	-459.07
0.2252,0.7748	-458.63
0.3212,0.6788	-469.50
0.4451,0.5549	-470.34
0.2054,0.7946	-455.93
0.2943,0.7057	-459.31
0.2967,0.7033	-465.45
0.2500,0.7500	-462.24
0.2913,0.7087	-467.19
0.4396,0.5604	-471.83
0.1855,0.8145	-460.40
0.2935,0.7065	-464.55
0.2309,0.7691	-456.27
0.2832,0.7168	-465.38
0.2745,0.7255	-465.37
0.4212,0.5788	-471.05
0.1985,0.8015	-461.49
0.2997,0.7003	-467.17
0.2508,0.7492	-463.34
0.2648,0.7352	-460.29
0.2665,0.7335	-462.35
0.3902,0.6098	-471.18
0.1535,0.8465	-456.75
0.2751,0.7249	-461.49
0.2508,0.7492	-462.24
0.2848,0.7152	-467.22
0.2423,0.7577	-459.95
0.3517,0.6483	-467.64
0.1758,0.8242	-463.82
0.2815,0.7185	-468.18
0.2567,0.7433	-464.40
0.3031,0.6969	-468.84
0.2773,0.7227	-466.33
0.3435,0.6565	-469.45
0.1722,0.8278	-464.01
0.2445,0.7555	-464.49
0.2327,0.7673	-461.08
0.2729,0.7271	-459.49
0.2636,0.7364	-463.35
0.2725,0.7275	-461.44
0.1697,0.8303	-454.63
0.2579,0.7421	-463.34
0.2270,0.7730	-458.64
0.2707,0.7293	-464.38
0.2515,0.7485	-466.61
0.3057,0.6943	-457.33
0.1677,0.8323	-457.87
0.2116,0.7884	-458.61
0.1740,0.8260	-460.80
0.2329,0.7671	-457.50
0.2956,0.7044	-467.18
0.2854,0.7146	-462.63
0.1719,0.8281	-456.17
0.2452,0.7548	-463.36
0.1797,0.8203	-460.58
0.2235,0.7765	-463.60
0.3067,0.6933	-468.00
0.2692,0.7308	-462.38
0.1831,0.8169	-461.97
0.2761,0.7239	-465.37
0.1813,0.8187	-452.99
0.2062,0.7938	-465.37
0.3867,0.6133	-468.87
0.2298,0.7702	-459.88
0.1917,0.8083	-458.80
0.2795,0.7205	-462.53
0.1578,0.8422	-456.58
0.2229,0.7771	-458.62
0.3617,0.6383	-470.66
0.2101,0.7899	-463.91
0.1793,0.8207	-466.68
0.2468,0.7532	-464.47
0.1570,0.8430	-454.93
0.2174,0.7826	-465.01
0.3961,0.6039	-468.67
0.2306,0.7694	-467.11
0.1620,0.8380	-459.72
0.2615,0.7385	-461.27
0.1634,0.8366	-462.92
0.2403,0.7597	-461.09
0.4392,0.5608	-471.09
0.2524,0.7476	-455.74
0.1688,0.8312	-461.02
0.2591,0.7409	-465.44
0.2034,0.7966	-462.75
0.2067,0.7933	-465.35
0.3803,0.6197	-471.66
0.2525,0.7475	-461.17
0.1658,0.8342	-467.63
0.2708,0.7292	-462.40
0.2062,0.7938	-458.63
0.2600,0.7400	-462.29
0.3340,0.6660	-464.62
0.2715,0.7285	-470.31
0.1719,0.8281	-454.60
0.3205,0.6795	-468.00
0.2558,0.7442	-459.06
0.2652,0.7348	-458.26
0.3312,0.6688	-461.02
0.2531,0.7469	-461.17
0.1967,0.8033	-458.72
0.3522,0.6478	-467.65
0.2642,0.7358	-465.40
0.2056,0.7944	-464.04
0.3081,0.6919	-465.57
0.3415,0.6585	-468.13
0.2607,0.7393	-465.43
0.2581,0.7419	-463.34
0.2753,0.7247	-468.27
0.2097,0.7903	-458.61
0.3342,0.6658	-466.69
0.3216,0.6784	-466.51
0.2781,0.7219	-463.46
0.2095,0.7905	-458.61
0.2656,0.7344	-459.29
0.2123,0.7877	-463.85
0.3271,0.6729	-465.86
0.3637,0.6363	-466.19
0.2520,0.7480	-462.25
0.2521,0.7479	-464.42
0.2442,0.7558	-458.85
0.2028,0.7972	-457.29
0.2894,0.7106	-470.79
0.3777,0.6223	-467.68
0.2911,0.7089	-464.52
0.2508,0.7492	-467.72
0.2343,0.7657	-461.08
0.2406,0.7594	-465.69
0.2510,0.7490	-465.52
0.3392,0.6608	-464.78
0.2992,0.7008	-467.17
0.2663,0.7337	-463.37
0.2348,0.7652	-466.99
0.2901,0.7099	-460.93
0.2579,0.7421	-465.45
0.2961,0.7039	-467.18
0.2993,0.7007	-468.02
0.2378,0.7622	-461.08
0.2631,0.7369	-465.41
0.2785,0.7215	-459.66
0.2822,0.7178	-465.37
0.2768,0.7232	-462.49
0.3392,0.6608	-465.45
0.1928,0.8072	-460.21
0.2390,0.7610	-461.08
0.2689,0.7311	-460.38
0.2368,0.7632	-459.91
0.2912,0.7088	-466.30
0.2709,0.7291	-461.42
0.2349,0.7651	-461.08
0.2296,0.7704	-461.09
0.2731,0.7269	-463.41
0.2098,0.7902	-466.57
0.2718,0.7282	-459.46
0.2782,0.7218	-465.37
0.2310,0.7690	-462.28
0.2246,0.7754	-458.63
0.2434,0.7566	-466.77
0.2571,0.7429	-461.21
0.3090,0.6910	-465.58
0.2677,0.7323	-466.39
0.2050,0.7950	-459.99
0.2232,0.7768	-463.61
0.2273,0.7727	-463.54
0.2555,0.7445	-467.61
0.3445,0.6555	-468.17
0.3197,0.6803	-464.98
0.2006,0.7994	-454.53
0.1959,0.8041	-460.14
0.2291,0.7709	-465.94
0.2363,0.7637	-466.95
0.3690,0.6310	-466.90
0.2857,0.7143	-462.64
0.1948,0.8052	-468.68
0.1811,0.8189	-454.50
0.2321,0.7679	-464.67
0.2092,0.7908	-462.60
0.3790,0.6210	-472.16
0.3125,0.6875	-464.05
0.1671,0.8329	-456.28
0.2033,0.7967	-460.02
0.2177,0.7823	-457.32
0.2184,0.7816	-462.43
0.3400,0.6600	-470.11
0.3477,0.6523	-467.57
0.1644,0.8356	-459.61
0.2137,0.7863	-469.03
0.2044,0.7956	-464.08
0.2101,0.7899	-461.26
0.3193,0.6807	-472.54
0.3481,0.6519	-468.21
0.1675,0.8325	-462.69
0.2027,0.7973	-457.29
0.2332,0.7668	-457.51
0.2063,0.7937	-465.37
0.3740,0.6260	-466.55
0.3509,0.6491	-463.94
0.1440,0.8560	-457.21
0.2274,0.7726	-459.87
0.2818,0.7182	-462.57
0.2097,0.7903	-458.61
0.3860,0.6140	-467.92
0.3556,0.6444	-470.68
0.1671,0.8329	-469.13
0.2497,0.7503	-461.14
0.2876,0.7124	-463.58
0.2181,0.7819	-454.77
0.3092,0.6908	-467.19
0.3452,0.6548	-467.53
0.1667,0.8333	-448.25
0.2430,0.7570	-461.10
0.2551,0.7449	-464.41
0.1949,0.8051	-458.75
0.2619,0.7381	-466.45
0.3692,0.6308	-467.45
0.1811,0.8189	-462.05
0.2985,0.7015	-463.76
0.3122,0.6878	-467.99
0.2169,0.7831	-465.02
0.2926,0.7074	-467.19
0.3838,0.6162	-468.33
0.1890,0.8110	-460.30
0.3005,0.6995	-468.86
0.3458,0.6542	-472.64
0.1884,0.8116	-467.62
0.2864,0.7136	-461.74
0.3525,0.6475	-468.87
0.2044,0.7956	-461.36
0.2484,0.7516	-460.02
0.2977,0.7023	-464.60
0.2004,0.7996	-458.68
0.2407,0.7593	-459.94
0.2314,0.7686	-467.08
0.2119,0.7881	-463.86
0.2540,0.7460	-461.18
0.3129,0.6871	-467.99
0.1909,0.8091	-458.81
0.2785,0.7215	-467.27
0.2258,0.7742	-466.03
0.1919,0.8081	-461.67
0.2627,0.7373	-464.38
0.3574,0.6426	-467.74
0.1897,0.8103	-460.29
0.2451,0.7549	-465.61
0.2600,0.7400	-460.20
0.1603,0.8397	-454.83
0.2465,0.7535	-461.12
0.3708,0.6292	-470.66
0.2024,0.7976	-455.92
0.2300,0.7700	-467.12
0.2306,0.7694	-461.08
0.1739,0.8261	-459.24
0.2357,0.7643	-461.08
0.3481,0.6519	-467.58
0.2308,0.7692	-459.88
0.2772,0.7228	-463.45
0.2716,0.7284	-466.36
0.1846,0.8154	-461.91
0.2720,0.7280	-462.42
0.3935,0.6065	-469.03
0.2410,0.7590	-459.94
0.2504,0.7496	-465.53
0.2573,0.7427	-463.34
0.1977,0.8023	-453.11
0.2578,0.7422	-463.34
0.3303,0.6697	-470.17
0.2242,0.7758	-464.83
0.2369,0.7631	-463.42
0.2963,0.7037	-461.99
0.2268,0.7732	-462.32
0.3055,0.6945	-465.54
0.3362,0.6638	-466.05
0.2898,0.7102	-464.51
0.2383,0.7617	-459.92
0.2801,0.7199	-462.54
0.1985,0.8015	-461.49
0.3401,0.6599	-464.81
0.3154,0.6846	-467.22
0.2611,0.7389	-464.38
0.2472,0.7528	-458.90
0.2940,0.7060	-463.68
0.1947,0.8053	-467.27
0.3508,0.6492	-469.47
0.3231,0.6769	-464.31
0.2380,0.7620	-465.74
0.2260,0.7740	-462.33
0.2740,0.7260	-470.24
0.2462,0.7538	-465.59
0.3209,0.6791	-466.50
0.3238,0.6762	-468.75
0.2189,0.7811	-458.61
0.2625,0.7375	-464.38
0.2495,0.7505	-466.65
0.2715,0.7285	-462.41
0.3070,0.6930	-468.81
0.2904,0.7096	-465.41
0.1975,0.8025	-464.32
0.3128,0.6872	-464.05
0.2429,0.7571	-464.51
0.2542,0.7458	-460.11
0.2900,0.7100	-459.14
0.3515,0.6485	-467.02
0.1915,0.8085	-458.80
0.2642,0.7358	-465.40
0.2538,0.7462	-462.26
0.2494,0.7506	-460.04
0.3317,0.6683	-469.46
0.3474,0.6526	-464.41
0.1926,0.8074	-458.78
0.2405,0.7595	-462.24
0.2299,0.7701	-464.71
0.2639,0.7361	-458.22
0.4011,0.5989	-470.82
0.3558,0.6442	-468.90
0.2190,0.7810	-461.15
0.2113,0.7887	-458.61
0.2308,0.7692	-457.47
0.2668,0.7332	-461.35
0.3715,0.6285	-468.56
0.3261,0.6739	-465.12
0.2079,0.7921	-469.32
0.2400,0.7600	-462.24
0.2388,0.7612	-471.52
0.2625,0.7375	-466.45
0.3501,0.6499	-465.14
0.2878,0.7122	-465.39
0.2288,0.7712	-470.81
0.2264,0.7736	-453.72
0.2588,0.7412	-461.23
0.3122,0.6878	-468.78
0.3632,0.6368	-465.05
0.3033,0.6967	-463.85
0.2457,0.7543	-456.63
0.2117,0.7883	-459.92
0.3205,0.6795	-466.50
0.3150,0.6850	-467.21
0.3838,0.6162	-468.33
0.3268,0.6732	-468.03
0.2264,0.7736	-461.10
0.2119,0.7881	-462.55
0.2890,0.7110	-465.40
0.3236,0.6764	-467.27
0.3867,0.6133	-469.79
0.3171,0.6829	-464.93
0.2003,0.7997	-457.29
0.2513,0.7487	-467.70
0.2774,0.7226	-467.28
0.2777,0.7223	-463.46
0.3715,0.6285	-467.51
0.2966,0.7034	-467.18
0.2283,0.7717	-461.09
0.2589,0.7411	-457.03
0.2807,0.7193	-463.49
0.3481,0.6519	-465.07
0.2966,0.7034	-468.04
0.2839,0.7161	-467.23
0.2011,0.7989	-462.81
0.2610,0.7390	-453.98
0.2896,0.7104	-464.51
0.3872,0.6128	-468.42
0.2506,0.7494	-464.43
0.2641,0.7359	-460.28
0.2140,0.7860	-465.11
0.2244,0.7756	-463.59
0.3056,0.6944	-466.36
0.3539,0.6461	-465.27
0.2535,0.7465	-465.49
0.2531,0.7469	-464.42
0.2066,0.7934	-459.97
0.2189,0.7811	-458.61
0.3279,0.6721	-465.88
0.3100,0.6900	-471.19
0.3019,0.6981	-466.34
0.2365,0.7635	-463.42
0.2210,0.7790	-458.61
0.2208,0.7792	-458.61
0.3230,0.6770	-466.53
0.3316,0.6684	-465.25
0.3070,0.6930	-461.48
0.2104,0.7896	-454.64
0.2550,0.7450	-460.12
0.2432,0.7568	-459.96
0.3155,0.6845	-467.22
0.3609,0.6391	-467.24
0.2754,0.7246	-463.43
0.2389,0.7611	-459.93
0.3222,0.6778	-465.78
0.2607,0.7393	-461.26
0.3025,0.6975	-462.16
0.3455,0.6545	-470.09
0.2349,0.7651	-464.62
0.2316,0.7684	-462.28
0.3058,0.6942	-463.90
0.1993,0.8007	-464.25
0.2588,0.7412	-465.44
0.3330,0.6670	-467.37
0.2544,0.7456	-464.41
0.1686,0.8314	-454.65
0.3061,0.6939	-463.91
0.1963,0.8037	-461.54
0.2751,0.7249	-463.43
0.3617,0.6383	-468.39
0.2720,0.7280	-467.34
0.2107,0.7893	-463.89
0.2547,0.7453	-470.85
0.1647,0.8353	-459.60
0.2604,0.7396	-463.34
0.3315,0.6685	-468.75
0.2542,0.7458	-463.33
0.2214,0.7786	-467.42
0.2639,0.7361	-465.41
0.1904,0.8096	-460.27
0.2483,0.7517	-461.13
0.3194,0.6806	-466.49
0.2088,0.7912	-459.95
0.2229,0.7771	-464.87
0.2450,0.7550	-464.48
0.2074,0.7926	-466.67
0.2182,0.7818	-463.71
0.3269,0.6731	-465.14
0.2464,0.7536	-464.47
0.2679,0.7321	-463.37
0.2560,0.7440	-467.60
0.1795,0.8205	-457.55
0.2244,0.7756	-467.31
0.3396,0.6604	-467.45
0.3013,0.6987	-462.97
0.2743,0.7257	-464.40
0.2794,0.7206	-463.47
0.1759,0.8241	-468.45
0.1690,0.8310	-459.42
0.3263,0.6737	-465.85
0.3022,0.6978	-466.34
0.2880,0.7120	-464.49
0.3091,0.6909	-467.19
0.2015,0.7985	-465.55
0.1679,0.8321	-461.06
0.3157,0.6843	-469.54
0.2538,0.7462	-460.10
0.2755,0.7245	-462.47
0.3131,0.6869	-469.56
0.2300,0.7700	-462.29
0.1700,0.8300	-459.38
0.2933,0.7067	-457.51
0.2492,0.7508	-463.34
0.2541,0.7459	-461.18
0.3371,0.6629	-467.42
0.2648,0.7352	-466.42
0.1681,0.8319	-457.86
0.2541,0.7459	-462.26
0.2004,0.7996	-462.83
0.2375,0.7625	-464.58
0.2886,0.7114	-461.79
0.2622,0.7378	-465.42
0.1518,0.8482	-458.54
0.2602,0.7398	-460.21
0.1823,0.8177	-460.50
0.2181,0.7819	-461.16
0.2642,0.7358	-460.28
0.2832,0.7168	-470.02
0.1582,0.8418	-456.56
0.2554,0.7446	-455.84
0.1707,0.8293	-459.36
0.2263,0.7737	-457.41
0.2914,0.7086	-468.97
0.2590,0.7410	-461.24
0.1710,0.8290	-462.50
0.2565,0.7435	-468.66
0.1977,0.8023	-461.51
0.2324,0.7676	-464.66
0.2826,0.7174	-462.58
0.2977,0.7023	-467.18
0.1557,0.8443	-454.97
0.2462,0.7538	-462.23
0.1966,0.8034	-460.13
0.2635,0.7365	-462.32
0.2698,0.7302	-467.37
0.2741,0.7259	-466.34
0.1609,0.8391	-458.12
0.2346,0.7654	-458.71
0.1519,0.8481	-463.70
0.2614,0.7386	-467.50
0.2741,0.7259	-464.40
0.2883,0.7117	-466.30
0.1777,0.8223	-459.12
0.1904,0.8096	-454.48
0.1791,0.8209	-459.08
0.3201,0.6799	-465.74
0.2481,0.7519	-462.24
0.2872,0.7128	-462.66
0.1547,0.8453	-456.70
0.2093,0.7907	-461.27
0.1880,0.8120	-464.72
0.2961,0.7039	-461.98
0.2483,0.7517	-464.45
0.2327,0.7673	-463.47
0.1625,0.8375	-459.69
0.1837,0.8163	-460.45
0.2048,0.7952	-465.42
0.3086,0.6914	-464.77
0.3084,0.6916	-469.61
0.2155,0.7845	-463.77
0.1945,0.8055	-457.33
0.1914,0.8086	-457.36
0.1666,0.8334	-453.08
0.2644,0.7356	-461.31
0.3371,0.6629	-462.69
0.1916,0.8084	-460.24
0.1845,0.8155	-455.97
0.1810,0.8190	-465.07
0.1809,0.8191	-457.52
0.2570,0.7430	-464.40
0.3654,0.6346	-467.90
0.1802,0.8198	-465.11
0.1527,0.8473	-458.50
0.1841,0.8159	-460.44
0.1798,0.8202	-452.99
0.2690,0.7310	-462.38
0.3604,0.6396	-467.23
0.1933,0.8067	-457.34
0.1819,0.8181	-462.01
0.2012,0.7988	-458.67
0.1937,0.8063	-454.49
0.2445,0.7555	-458.85
0.3633,0.6367	-469.54
0.2006,0.7994	-458.68
0.1961,0.8039	-462.96
0.1976,0.8024	-458.71
0.1767,0.8233	-460.69
0.2306,0.7694	-459.88
0.3409,0.6591	-468.79
0.2242,0.7758	-467.32
0.1961,0.8039	-465.78
0.2131,0.7869	-461.22
0.1780,0.8220	-456.05
0.2081,0.7919	-461.29
0.3186,0.6814	-471.04
0.2326,0.7674	-464.66
0.1784,0.8216	-459.10
0.2279,0.7721	-463.53
0.1852,0.8148	-469.30
0.2337,0.7663	-462.27
0.2976,0.7024	-468.89
0.2259,0.7741	-459.87
0.2060,0.7940	-464.03
0.3372,0.6628	-466.07
0.1805,0.8195	-459.05
0.2269,0.7731	-457.42
0.2813,0.7187	-464.43
0.2722,0.7278	-464.39
0.2232,0.7768	-459.87
0.3961,0.6039	-468.25
0.2052,0.7948	-469.47
0.2336,0.7664	-459.89
0.2990,0.7010	-463.77
0.3144,0.6856	-463.31
0.2155,0.7845	-457.31
0.4128,0.5872	-470.59
0.1873,0.8127	-454.48
0.2596,0.7404	-466.48
0.2766,0.7234	-462.48
0.3135,0.6865	-464.86
0.2603,0.7397	-468.56
0.3828,0.6172	-470.22
0.1822,0.8178	-465.01
0.2408,0.7592	-462.24
0.2088,0.7912	-455.95
0.3857,0.6143	-471.17
0.2374,0.7626	-461.08
0.3488,0.6512	-464.47
0.2236,0.7764	-462.36
0.2720,0.7280	-463.40
0.1919,0.8081	-457.36
0.4041,0.5959	-469.68
0.2266,0.7734	-462.32
0.3451,0.6549	-471.38
0.2566,0.7434	-460.14
0.2682,0.7318	-468.40
0.1520,0.8480	-456.81
0.3926,0.6074	-469.44
0.2603,0.7397	-456.03
0.3633,0.6367	-469.54
0.2410,0.7590	-463.38
0.2322,0.7678	-461.08
0.1558,0.8442	-460.03
0.3611,0.6389	-467.24
0.2807,0.7193	-465.37
0.3391,0.6609	-468.11
0.2666,0.7334	-468.43
0.1881,0.8119	-463.25
0.1635,0.8365	-456.39
0.3389,0.6611	-464.77
0.2881,0.7119	-463.59
0.3142,0.6858	-467.99
0.2613,0.7387	-464.38
0.2188,0.7812	-457.33
0.1445,0.8555	-471.41
0.3383,0.6617	-468.78
0.3417,0.6583	-467.48
0.2747,0.7253	-466.34
0.2705,0.7295	-463.39
0.2576,0.7424	-461.22
0.1274,0.8726	-456.41
0.3439,0.6561	-468.80
0.3481,0.6519	-470.71
0.2892,0.7108	-471.70
0.2271,0.7729	-465.99
0.2495,0.7505	-458.94
0.1298,0.8702	-458.15
0.3877,0.6123	-468.89
0.3689,0.6311	-469.05
0.2582,0.7418	-466.50
0.2112,0.7888	-461.24
0.2811,0.7189	-469.13
0.1235,0.8765	-458.68
0.3880,0.6120	-472.09
0.3744,0.6256	-468.61
0.2197,0.7803	-456.07
0.1953,0.8047	-461.57
0.2991,0.7009	-465.47
0.1267,0.8733	-456.47
0.3472,0.6528	-468.83
0.3432,0.6568	-469.45
0.1967,0.8033	-458.72
0.2358,0.7642	-461.08
0.3079,0.6921	-463.14
0.1549,0.8451	-454.99
0.3122,0.6878	-465.62
0.3146,0.6854	-465.65
0.2281,0.7719	-461.09
0.2898,0.7102	-468.09
0.2990,0.7010	-468.03
0.1447,0.8553	-457.17
0.2670,0.7330	-460.34
0.3113,0.6887	-467.99
0.2382,0.7618	-457.60
0.2770,0.7230	-461.53
0.2776,0.7224	-467.28
0.1351,0.8649	-455.90
0.2689,0.7311	-462.38
0.3306,0.6694	-465.23
0.2099,0.7901	-469.21
0.2831,0.7169	-463.52
0.2503,0.7497	-461.15
0.1557,0.8443	-463.42
0.2270,0.7730	-457.42
0.3104,0.6896	-464.80
0.2518,0.7482	-464.43
0.2729,0.7271	-466.35
0.2597,0.7403	-467.53
0.1654,0.8346	-464.42
0.2193,0.7807	-467.50
0.2325,0.7675	-457.50
0.2414,0.7586	-467.96
0.2597,0.7403	-461.25
0.2717,0.7283	-468.33
0.1914,0.8086	-455.92
0.2299,0.7701	-459.88
0.2006,0.7994	-466.97
0.2146,0.7854	-462.50
0.1973,0.8027	-460.12
0.2435,0.7565	-465.63
0.1712,0.8288	-459.34
0.2224,0.7776	-459.87
0.1863,0.8137	-458.90
0.1818,0.8182	-462.02
0.2054,0.7946	-457.28
0.2371,0.7629	-459.91
0.1784,0.8216	-460.63
0.2224,0.7776	-459.87
0.2229,0.7771	-463.62
0.2393,0.7607	-464.55
0.1952,0.8048	-454.49
0.1923,0.8077	-460.22
0.1664,0.8336	-462.75
0.2183,0.7817	-463.71
0.2510,0.7490	-462.24
0.2110,0.7890	-463.88
0.2195,0.7805	-461.14
0.2337,0.7663	-458.70
0.1745,0.8255	-453.01
0.2049,0.7951	-459.99
0.2685,0.7315	-461.37
0.2032,0.7968	-461.39
0.2360,0.7640	-464.60
0.2017,0.7983	-462.79
0.2518,0.7482	-461.16
0.2237,0.7763	-464.85
0.2707,0.7293	-467.36
0.2177,0.7823	-456.05
0.2304,0.7696	-459.88
0.2236,0.7764	-466.09
0.2400,0.7600	-456.48
0.2306,0.7694	-458.67
0.3154,0.6846	-466.44
0.1988,0.8012	-458.69
0.2388,0.7612	-465.72
0.2540,0.7460	-462.26
0.2349,0.7651	-459.90
0.2133,0.7867	-463.82
0.3259,0.6741	-465.11
0.2428,0.7572	-456.55
0.2198,0.7802	-463.68
0.2668,0.7332	-465.39
0.2182,0.7818	-461.16
0.2233,0.7767	-463.61
0.3089,0.6911	-472.02
0.2460,0.7540	-461.11
0.2506,0.7494	-461.15
0.2989,0.7011	-464.62
0.1966,0.8034	-454.50
0.1879,0.8121	-463.26
0.2932,0.7068	-456.63
0.2593,0.7407	-467.54
0.2255,0.7745	-459.87
0.2985,0.7015	-466.32
0.2191,0.7809	-466.23
0.2074,0.7926	-457.28
0.2935,0.7065	-467.18
0.2246,0.7754	-466.06
0.1857,0.8143	-461.87
0.2553,0.7447	-460.12
0.2129,0.7871	-463.83
0.2455,0.7545	-459.99
0.3350,0.6650	-468.08
0.1994,0.8006	-461.47
0.1987,0.8013	-462.88
0.2105,0.7895	-463.90
0.2152,0.7848	-462.48
0.2709,0.7291	-461.42
0.3925,0.6075	-469.87
0.2275,0.7725	-463.54
0.2123,0.7877	-461.23
0.2104,0.7896	-461.26
0.2361,0.7639	-463.43
0.2358,0.7642	-463.43
0.4055,0.5945	-469.71
0.2062,0.7938	-457.28
0.2443,0.7557	-465.62
0.2344,0.7656	-456.34
0.2372,0.7628	-459.91
0.2408,0.7592	-465.68
0.4398,0.5602	-471.83
0.2168,0.7832	-463.74
0.2502,0.7498	-467.73
0.2432,0.7568	-465.64
0.2224,0.7776	-461.12
0.1763,0.8237	-456.08
0.3696,0.6304	-469.59
0.2324,0.7676	-462.27
0.2456,0.7544	-464.48
0.2226,0.7774	-456.12
0.2221,0.7779	-464.88
0.1766,0.8234	-456.08
0.3312,0.6688	-464.54
0.2248,0.7752	-466.06
0.2723,0.7277	-458.49
0.2628,0.7372	-468.51
0.2364,0.7636	-458.73
0.1716,0.8284	-457.75
0.3378,0.6622	-466.08
0.2477,0.7523	-460.01
0.3056,0.6944	-468.82
0.2906,0.7094	-464.52
0.2614,0.7386	-466.46
0.2035,0.7965	-461.38
0.3155,0.6845	-462.57
0.2177,0.7823	-465.00
0.2781,0.7219	-462.51
0.2487,0.7513	-460.03
0.2856,0.7144	-465.38
0.1803,0.8197	-456.02
0.3696,0.6304	-470.13
0.1850,0.8150	-455.97
0.2587,0.7413	-464.39
0.2854,0.7146	-466.30
0.2870,0.7130	-467.21
0.1906,0.8094	-467.50
0.3705,0.6295	-471.19
0.1987,0.8013	-464.28
0.3015,0.6985	-466.33
0.2528,0.7472	-457.92
0.2746,0.7254	-465.37
0.1773,0.8227	-468.35
0.3670,0.6330	-467.93
0.2109,0.7891	-462.57
0.3032,0.6968	-463.02
0.2784,0.7216	-465.37
0.2210,0.7790	-456.09
0.1794,0.8206	-456.03
0.3275,0.6725	-466.59
0.2585,0.7415	-464.39
0.2870,0.7130	-463.57
0.3105,0.6895	-464.00
0.2212,0.7788	-461.13
0.1729,0.8271	-463.97
0.3068,0.6932	-467.18
0.2487,0.7513	-463.34
0.2809,0.7191	-463.49
0.3138,0.6862	-465.64
0.2104,0.7896	-466.54
0.1896,0.8104	-467.55
0.2921,0.7079	-465.42
0.2423,0.7577	-463.38
0.3131,0.6869	-460.92
0.3507,0.6493	-467.62
0.2363,0.7637	-461.08
0.1907,0.8093	-454.48
0.2427,0.7573	-458.82
0.2232,0.7768	-466.10
0.3678,0.6322	-468.49
0.3167,0.6833	-465.69
0.2776,0.7224	-464.41
0.2018,0.7982	-455.91
0.2426,0.7574	-464.51
0.2536,0.7464	-461.18
0.3835,0.6165	-468.80
0.3002,0.6998	-466.33
0.2441,0.7559	-456.58
0.1920,0.8080	-461.67
0.2532,0.7468	-460.09
0.2296,0.7704	-462.30
0.3862,0.6138	-467.47
0.3039,0.6961	-464.69
0.2751,0.7249	-464.40
0.2242,0.7758	-459.87
0.2339,0.7661	-456.33
0.2353,0.7647	-474.04
0.3909,0.6091	-470.29
0.3094,0.6906	-469.60
0.2313,0.7687	-467.09
0.2670,0.7330	-463.37
0.2237,0.7763	-464.84
0.2261,0.7739	-458.64
0.4220,0.5780	-472.32
0.3379,0.6621	-466.08
0.2547,0.7453	-468.70
0.2456,0.7544	-464.48
0.2767,0.7233	-461.52
0.2557,0.7443	-461.20
0.4411,0.5589	-470.90
0.3189,0.6811	-464.96
0.2465,0.7535	-460.00
0.2933,0.7067	-462.79
0.3062,0.6938	-464.73
0.2443,0.7557	-457.72
0.4018,0.5982	-468.83
0.2565,0.7435	-464.40
0.2330,0.7670	-463.46
0.3257,0.6743	-466.57
0.3066,0.6934	-460.65
0.2415,0.7585	-463.38
0.3630,0.6370	-469.54
0.2360,0.7640	-464.60
0.1897,0.8103	-457.38
0.3498,0.6502	-470.09
0.3421,0.6579	-463.56
0.2349,0.7651	-458.72
0.3194,0.6806	-465.73
0.2707,0.7293	-460.42
0.2280,0.7720	-467.19
0.3394,0.6606	-467.45
0.3903,0.6097	-467.61
0.1914,0.8086	-460.24
0.3056,0.6944	-468.00
0.2412,0.7588	-463.38
0.2307,0.7693	-463.49
0.2977,0.7023	-468.89
0.3547,0.6453	-468.89
0.1994,0.8006	-458.69
0.3153,0.6847	-465.67
0.2170,0.7830	-465.02
0.2004,0.7996	-455.91
0.2813,0.7187	-467.25
0.3165,0.6835	-467.22
0.2126,0.7874	-457.30
0.2931,0.7069	-461.90
0.2022,0.7978	-458.66
0.1860,0.8140	-467.77
0.2524,0.7476	-461.16
0.3398,0.6602	-466.79
0.2037,0.7963	-460.01
0.3819,0.6181	-472.62
0.2293,0.7707	-459.87
0.2227,0.7773	-466.12
0.2623,0.7377	-466.45
0.3602,0.6398	-467.80
0.2256,0.7744	-458.63
0.3173,0.6827	-462.63
0.2593,0.7407	-463.34
0.2651,0.7349	-466.42
0.2689,0.7311	-460.38
0.3160,0.6840	-464.90
0.2318,0.7682	-461.08
0.2863,0.7137	-458.08
0.2313,0.7687	-461.08
0.2760,0.7240	-463.44
0.3133,0.6867	-466.42
0.2814,0.7186	-462.56
0.2504,0.7496	-461.15
0.3283,0.6717	-465.89
0.2419,0.7581	-462.24
0.2547,0.7453	-461.19
0.3202,0.6798	-471.01
0.2925,0.7075	-461.89
0.2662,0.7338	-460.32
0.3423,0.6577	-470.75
0.2522,0.7478	-457.90
0.2400,0.7600	-470.31
0.3582,0.6418	-469.51
0.2918,0.7082	-465.42
0.2923,0.7077	-465.42
0.3106,0.6894	-460.82
0.2823,0.7177	-463.51
0.2374,0.7626	-458.75
0.3891,0.6109	-470.27
0.2731,0.7269	-466.35
0.2942,0.7058	-462.81
0.2866,0.7134	-462.65
0.3204,0.6796	-464.99
0.2379,0.7621	-463.41
0.3758,0.6242	-470.16
0.3348,0.6652	-469.45
0.2340,0.7660	-462.26
0.2825,0.7175	-466.31
0.3301,0.6699	-465.92
0.2057,0.7943	-458.63
0.3620,0.6380	-471.80
0.3511,0.6489	-467.01
0.2613,0.7387	-461.27
0.2708,0.7292	-461.41
0.3595,0.6405	-470.67
0.1759,0.8241	-463.81
0.3039,0.6961	-463.86
0.3105,0.6895	-470.38
0.2605,0.7395	-462.30
0.2666,0.7334	-462.35
0.3907,0.6093	-471.18
0.2161,0.7839	-459.89
0.2740,0.7260	-467.32
0.3191,0.6809	-464.21
0.2783,0.7217	-468.23
0.2429,0.7571	-464.51
0.3663,0.6337	-466.28
0.2226,0.7774	-468.62
0.2723,0.7277	-467.34
0.3759,0.6241	-471.18
0.2633,0.7367	-461.29
0.2682,0.7318	-464.38
0.3440,0.6560	-468.81
0.2040,0.7960	-462.73
0.3032,0.6968	-468.84
0.3903,0.6097	-468.06
0.2849,0.7151	-465.38
0.2701,0.7299	-464.38
0.3790,0.6210	-468.70
0.2105,0.7895	-459.93
0.3373,0.6627	-468.77
0.3430,0.6570	-469.45
0.2374,0.7626	-458.75
0.2171,0.7829	-457.32
0.3174,0.6826	-464.93
0.2424,0.7576	-465.65
0.2811,0.7189	-467.25
0.3153,0.6847	-465.66
0.2651,0.7349	-461.32
0.2162,0.7838	-457.31
0.2836,0.7164	-464.45
0.2583,0.7417	-462.28
0.2329,0.7671	-458.70
0.3077,0.6923	-466.37
0.2554,0.7446	-464.40
0.1929,0.8071	-460.21
0.2465,0.7535	-464.47
0.2485,0.7515	-465.56
0.2407,0.7593	-459.94
0.3531,0.6469	-465.24
0.2619,0.7381	-467.49
0.2267,0.7733	-454.96
0.2617,0.7383	-463.35
0.2274,0.7726	-464.76
0.2352,0.7648	-458.72
0.3385,0.6615	-470.79
0.2361,0.7639	-468.12
0.2379,0.7621	-459.92
0.2606,0.7394	-465.43
0.2570,0.7430	-465.46
0.2561,0.7439	-464.40
0.2983,0.7017	-467.17
0.2694,0.7306	-463.38
0.2198,0.7802	-458.61
0.2158,0.7842	-456.02
0.2325,0.7675	-461.08
0.2357,0.7643	-464.61
0.2903,0.7097	-468.98
0.2566,0.7434	-464.40
0.2262,0.7738	-461.10
0.1907,0.8093	-458.81
0.2157,0.7843	-463.77
0.2426,0.7574	-464.51
0.2644,0.7356	-464.38
0.2603,0.7397	-460.21
0.2289,0.7711	-465.94
0.1652,0.8348	-459.58
0.2249,0.7751	-458.63
0.2667,0.7333	-465.39
0.2591,0.7409	-462.29
0.2932,0.7068	-465.42
0.2432,0.7568	-457.69
0.1786,0.8214	-459.10
0.2181,0.7819	-456.05
0.2647,0.7353	-463.36
0.3048,0.6952	-468.00
0.2699,0.7301	-464.38
0.2452,0.7548	-467.86
0.1783,0.8217	-469.80
0.2571,0.7429	-466.52
0.2976,0.7024	-466.32
0.2917,0.7083	-463.64
0.2837,0.7163	-462.60
0.2093,0.7907	-461.27
0.2026,0.7974	-464.14
0.2668,0.7332	-473.48
0.2627,0.7373	-462.32
0.2908,0.7092	-468.08
0.2689,0.7311	-461.38
0.2173,0.7827	-459.89
0.2427,0.7573	-461.10
0.3051,0.6949	-470.47
0.2922,0.7078	-468.07
0.2701,0.7299	-462.39
0.2483,0.7517	-462.24
0.2126,0.7874	-465.15
0.2318,0.7682	-459.88
0.2856,0.7144	-458.96
0.2801,0.7199	-468.20
0.3162,0.6838	-469.54
0.2678,0.7322	-460.36
0.2301,0.7699	-461.08
0.2084,0.7916	-467.96
0.2871,0.7129	-462.66
0.2825,0.7175	-461.65
0.2963,0.7037	-468.04
0.2483,0.7517	-466.67
0.3110,0.6890	-465.60
0.2309,0.7691	-458.68
0.2686,0.7314	-463.38
0.2753,0.7247	-462.46
0.3033,0.6967	-468.84
0.2433,0.7567	-454.29
0.2607,0.7393	-462.30
0.2487,0.7513	-462.24
0.2944,0.7056	-471.55
0.2452,0.7548	-465.61
0.3535,0.6465	-467.07
0.2050,0.7950	-461.35
0.3042,0.6958	-462.21
0.2618,0.7382	-463.35
0.2368,0.7632	-458.74
0.2600,0.7400	-460.20
0.3529,0.6471	-467.66
0.2149,0.7851	-463.79
0.2932,0.7068	-467.18
0.2793,0.7207	-467.26
0.2620,0.7380	-462.31
0.2735,0.7265	-470.25
0.3774,0.6226	-469.67
0.2240,0.7760	-459.87
0.2618,0.7382	-459.20
0.2879,0.7121	-463.58
0.2876,0.7124	-467.21
0.2405,0.7595	-459.94
0.4048,0.5952	-468.93
0.2513,0.7487	-463.34
0.2510,0.7490	-455.68
0.2995,0.7005	-462.93
0.2680,0.7320	-466.39
0.2529,0.7471	-462.25
0.4183,0.5817	-469.69
0.2146,0.7854	-463.79
0.2795,0.7205	-464.42
0.2671,0.7329	-465.39
0.3080,0.6920	-464.76
0.2555,0.7445	-461.20
0.4128,0.5872	-469.53
0.1841,0.8159	-460.44
0.2837,0.7163	-462.60
0.2754,0.7246	-461.50
0.3311,0.6689	-466.64
0.2818,0.7182	-469.12
0.4519,0.5481	-471.39
0.2550,0.7450	-463.33
0.3497,0.6503	-467.60
0.2919,0.7081	-471.62
0.3489,0.6511	-463.22
0.2898,0.7102	-466.30
0.4509,0.5491	-471.37
0.2543,0.7457	-461.18
0.3364,0.6636	-466.05
0.2734,0.7266	-470.26
0.3936,0.6064	-468.59
0.2917,0.7083	-463.64
0.4030,0.5970	-468.87
0.2629,0.7371	-462.32
0.2755,0.7245	-466.33
0.2889,0.7111	-465.40
0.3932,0.6068	-469.45
0.2837,0.7163	-463.53
0.4188,0.5812	-469.05
0.2735,0.7265	-466.35
0.2970,0.7030	-465.45
0.3302,0.6698	-468.04
0.3649,0.6351	-467.34
0.2521,0.7479	-466.60
0.4662,0.5338	-472.85
0.2889,0.7111	-465.40
0.2777,0.7223	-460.59
0.3067,0.6933	-463.92
0.3902,0.6098	-469.84
0.2401,0.7599	-464.54
0.4484,0.5516	-471.30
0.2992,0.7008	-465.47
0.2888,0.7112	-463.60
0.3035,0.6965	-464.68
0.4134,0.5866	-467.45
0.2911,0.7089	-463.63
0.4200,0.5800	-472.00
0.2932,0.7068	-469.82
0.3197,0.6803	-461.96
0.3414,0.6586	-468.79
0.3913,0.6087	-468.97
0.2895,0.7105	-463.61
0.3975,0.6025	-471.62
0.2713,0.7287	-462.41
0.2871,0.7129	-468.12
0.3726,0.6274	-469.62
0.4139,0.5861	-469.22
0.3162,0.6838	-461.82
0.4445,0.5555	-471.21
0.2909,0.7091	-464.52
0.2811,0.7189	-463.49
0.3308,0.6692	-464.53
0.4394,0.5606	-469.88
0.2952,0.7048	-465.44
0.4056,0.5944	-469.71
0.2403,0.7597	-461.09
0.2784,0.7216	-464.42
0.3026,0.6974	-467.17
0.4047,0.5953	-472.40
0.2798,0.7202	-468.21
0.4186,0.5814	-470.03
0.2794,0.7206	-466.32
0.3397,0.6603	-466.12
0.2502,0.7498	-461.14
0.4049,0.5951	-470.47
0.2705,0.7295	-462.40
0.4282,0.5718	-470.28
0.3046,0.6954	-461.40
0.2987,0.7013	-466.32
0.2018,0.7982	-455.91
0.3222,0.6778	-466.52
0.2595,0.7405	-463.34
0.3954,0.6046	-469.07
0.3183,0.6817	-467.23
0.2762,0.7238	-469.22
0.2540,0.7460	-466.57
0.3063,0.6937	-464.73
0.2340,0.7660	-459.89
0.3870,0.6130	-469.33
0.3154,0.6846	-464.12
0.2623,0.7377	-465.42
0.2776,0.7224	-464.41
0.2790,0.7210	-463.47
0.1664,0.8336	-454.69
0.3536,0.6464	-467.67
0.3163,0.6837	-464.14
0.2410,0.7590	-463.38
0.2516,0.7484	-466.61
0.2877,0.7123	-461.77
0.1762,0.8238	-465.34
0.3714,0.6286	-467.50
0.3323,0.6677	-465.97
0.2259,0.7741	-462.33
0.2089,0.7911	-461.28
0.3116,0.6884	-464.82
0.1680,0.8320	-454.66
0.3648,0.6352	-466.78
0.3041,0.6959	-472.14
0.2497,0.7503	-463.34
0.1988,0.8012	-457.30
0.3216,0.6784	-462.78
0.1656,0.8344	-457.94
0.3316,0.6684	-470.16
0.3621,0.6379	-471.23
0.2008,0.7992	-464.20
0.1995,0.8005	-460.08
0.3043,0.6957	-463.87
0.1810,0.8190	-459.03
0.3605,0.6395	-469.52
0.4062,0.5938	-469.35
0.1772,0.8228	-460.67
0.2455,0.7545	-461.11
0.3109,0.6891	-464.81
0.1659,0.8341	-454.70
0.3541,0.6459	-470.69
0.4165,0.5835	-469.64
0.1710,0.8290	-456.19
0.2712,0.7288	-461.42
0.3682,0.6318	-466.88
0.1547,0.8453	-455.00
0.3461,0.6539	-467.55
0.3722,0.6278	-468.05
0.1653,0.8347	-457.95
0.2661,0.7339	-464.38
0.3523,0.6477	-467.04
0.1606,0.8394	-456.48
0.3568,0.6432	-468.91
0.3667,0.6333	-466.84
0.1906,0.8094	-453.03
0.2755,0.7245	-462.47
0.3344,0.6656	-464.63
0.1289,0.8711	-458.22
0.4181,0.5819	-472.99
0.3118,0.6882	-465.62
0.1528,0.8472	-463.63
0.2443,0.7557	-467.88
0.3591,0.6409	-471.83
0.1332,0.8668	-456.02
0.3796,0.6204	-470.19
0.3082,0.6918	-467.99
0.2015,0.7985	-458.67
0.2005,0.7995	-455.91
0.2906,0.7094	-468.09
0.1562,0.8438	-460.01
0.3865,0.6135	-467.94
0.3033,0.6967	-469.67
0.2430,0.7570	-461.10
0.2216,0.7784	-459.87
0.2822,0.7178	-462.57
0.1726,0.8274	-467.13
0.4076,0.5924	-470.13
0.3548,0.6452	-467.10
0.2738,0.7262	-468.30
0.2244,0.7756	-461.11
0.2859,0.7141	-468.13
0.1884,0.8116	-464.70
0.4497,0.5503	-472.75
0.3093,0.6907	-464.78
0.2740,0.7260	-462.45
0.1836,0.8164	-455.98
0.2575,0.7425	-461.22
0.1798,0.8202	-460.58
0.4333,0.5667	-469.63
0.2989,0.7011	-463.76
0.2680,0.7320	-464.38
0.2443,0.7557	-472.40
0.2762,0.7238	-464.40
0.2483,0.7517	-461.13
0.3902,0.6098	-470.73
0.2886,0.7114	-462.69
0.2827,0.7173	-460.72
0.2204,0.7796	-459.87
0.2120,0.7880	-462.54
0.2571,0.7429	-461.21
0.3900,0.6100	-469.39
0.2495,0.7505	-460.04
0.2411,0.7589	-466.82
0.2275,0.7725	-459.87
0.2411,0.7589	-458.80
0.2541,0.7459	-463.33
0.4819,0.5181	-472.52
0.2785,0.7215	-464.42
0.2529,0.7471	-462.25
0.2142,0.7858	-458.60
0.2481,0.7519	-458.91
0.2469,0.7531	-465.58
0.4541,0.5459	-471.08
0.2716,0.7284	-467.35
0.2283,0.7717	-461.09
0.2416,0.7584	-462.24
0.2443,0.7557	-459.98
0.2367,0.7633	-464.59
0.4750,0.5250	-472.12
0.2536,0.7464	-461.18
0.2415,0.7585	-461.09
0.3037,0.6963	-463.03
0.2157,0.7843	-457.31
0.2184,0.7816	-463.71
0.4331,0.5669	-470.69
0.2387,0.7613	-457.60
0.2529,0.7471	-464.42
0.3050,0.6950	-466.35
0.1788,0.8212	-454.52
0.2280,0.7720	-463.53
0.4509,0.5491	-470.97
0.2219,0.7781	-461.12
0.2921,0.7079	-460.99
0.2766,0.7234	-466.33
0.1714,0.8286	-457.76
0.2435,0.7565	-457.70
0.4213,0.5787	-470.10
0.2093,0.7907	-465.26
0.3049,0.6951	-461.41
0.2530,0.7470	-457.92
0.1787,0.8213	-459.09
0.2330,0.7670	-464.65
0.4778,0.5222	-472.01
0.2113,0.7887	-459.92
0.3017,0.6983	-460.46
0.2962,0.7038	-465.45
0.1932,0.8068	-458.77
0.1983,0.8017	-461.49
0.4829,0.5171	-472.19
0.1781,0.8219	-459.11
0.2697,0.7303	-468.37
0.3168,0.6832	-467.23
0.1907,0.8093	-460.26
0.2163,0.7837	-457.32
0.4523,0.5477	-471.78
0.1605,0.8395	-459.79
0.2259,0.7741	-464.79
0.2732,0.7268	-462.44
0.2189,0.7811	-457.33
0.1992,0.8008	-462.87
0.4947,0.5053	-472.74
0.1832,0.8168	-455.98
0.2796,0.7204	-465.37
0.2963,0.7037	-465.45
0.1932,0.8068	-460.20
0.2188,0.7812	-459.88
0.4896,0.5104	-472.55
0.1596,0.8404	-463.16
0.3283,0.6717	-463.02
0.3301,0.6699	-466.63
0.1898,0.8102	-463.18
0.2523,0.7477	-469.86
0.4649,0.5351	-472.01
0.1822,0.8178	-462.00
0.3851,0.6149	-470.70
0.2810,0.7190	-462.55
0.1886,0.8114	-454.48
0.2623,0.7377	-460.24
0.4868,0.5132	-472.59
0.1734,0.8266	-456.14
0.3809,0.6191	-469.23
0.2575,0.7425	-461.22
0.1833,0.8167	-455.98
0.2445,0.7555	-462.23
0.4450,0.5550	-471.23
0.2017,0.7983	-461.42
0.3772,0.6228	-470.67
0.2824,0.7176	-462.58
0.2187,0.7813	-467.52
0.2440,0.7560	-465.63
0.3968,0.6032	-470.36
0.2331,0.7669	-463.46
0.3134,0.6866	-467.21
0.3168,0.6832	-467.22
0.2263,0.7737	-461.10
0.2399,0.7601	-458.78
0.3818,0.6182	-469.73
0.2305,0.7695	-462.29
0.2843,0.7157	-459.84
0.2839,0.7161	-468.15
0.2074,0.7926	-465.33
0.2750,0.7250	-471.18
0.3499,0.6501	-469.47
0.2563,0.7437	-461.20
0.3628,0.6372	-468.41
0.2399,0.7601	-461.09
0.2062,0.7938	-459.98
0.2444,0.7556	-464.49
0.3574,0.6426	-468.33
0.2566,0.7434	-465.46
0.3721,0.6279	-470.14
0.2317,0.7683	-463.48
0.2496,0.7504	-465.54
0.2526,0.7474	-459.00
0.3166,0.6834	-465.68
0.2918,0.7082	-463.64
0.3343,0.6657	-466.69
0.1994,0.8006	-454.52
0.2148,0.7852	-461.19
0.2863,0.7137	-462.65
0.3445,0.6555	-463.02
0.3100,0.6900	-466.39
0.3735,0.6265	-467.04
0.2136,0.7864	-462.51
0.2197,0.7803	-459.88
0.3354,0.6646	-466.71
0.3673,0.6327	-470.66
0.3476,0.6524	-468.83
0.4224,0.5776	-470.13
0.2207,0.7793	-461.13
0.2421,0.7579	-462.24
0.2948,0.7052	-463.69
0.3643,0.6357	-466.21
0.3171,0.6829	-467.99
0.3919,0.6081	-466.35
0.1928,0.8072	-457.35
0.2521,0.7479	-466.60
0.2976,0.7024	-462.88
0.3236,0.6764	-462.85
0.2673,0.7327	-468.41
0.3808,0.6192	-466.80
0.1807,0.8193	-459.04
0.2541,0.7459	-460.10
0.3196,0.6804	-466.49
0.2687,0.7313	-467.38
0.2546,0.7454	-459.04
0.3348,0.6652	-466.70
0.2057,0.7943	-464.04
0.2411,0.7589	-457.65
0.2889,0.7111	-461.80
0.2533,0.7467	-461.17
0.2057,0.7943	-464.04
0.2500,0.7500	-460.04
0.2343,0.7657	-461.08
0.2330,0.7670	-459.89
0.2282,0.7718	-459.87
0.3028,0.6972	-468.01
0.1955,0.8045	-457.32
0.2761,0.7239	-463.44
0.2853,0.7147	-461.71
0.2320,0.7680	-463.47
0.2666,0.7334	-462.35
0.3241,0.6759	-468.75
0.2343,0.7657	-467.00
0.2773,0.7227	-460.58
0.2685,0.7315	-463.38
0.2215,0.7785	-461.13
0.2583,0.7417	-469.66
0.3304,0.6696	-467.34
0.2432,0.7568	-465.64
0.2755,0.7245	-464.40
0.3149,0.6851	-463.33
0.2268,0.7732	-463.55
0.1876,0.8124	-460.34
0.3168,0.6832	-469.53
0.2520,0.7480	-462.25
0.2718,0.7282	-461.43
0.3219,0.6781	-467.26
0.2499,0.7501	-465.54
0.1945,0.8055	-467.28
0.2772,0.7228	-461.53
0.2885,0.7115	-463.59
0.2901,0.7099	-463.62
0.3498,0.6502	-466.99
0.2788,0.7212	-460.62
0.2169,0.7831	-458.60
0.2566,0.7434	-467.59
0.2824,0.7176	-463.51
0.3810,0.6190	-468.26
0.3376,0.6624	-468.77
0.2834,0.7166	-462.59
0.2450,0.7550	-465.61
0.2612,0.7388	-464.38
0.3066,0.6934	-465.55
0.3943,0.6057	-469.04
0.3315,0.6685	-467.35
0.3094,0.6906	-467.19
0.2020,0.7980	-454.54
0.3149,0.6851	-462.55
0.2790,0.7210	-463.47
0.3243,0.6757	-469.48
0.3419,0.6581	-466.83
0.3285,0.6715	-468.75
0.2237,0.7763	-464.84
0.2944,0.7056	-467.18
0.2747,0.7253	-467.31
0.3349,0.6651	-466.02
0.3750,0.6250	-466.58
0.3360,0.6640	-467.40
0.2402,0.7598	-461.09
0.2795,0.7205	-455.90
0.2424,0.7576	-464.51
0.3313,0.6687	-465.95
0.3447,0.6553	-469.45
0.3693,0.6307	-470.12
0.2463,0.7537	-463.35
0.2719,0.7281	-468.33
0.2004,0.7996	-454.53
0.3811,0.6189	-468.26
0.3320,0.6680	-470.15
0.3155,0.6845	-461.80
0.2397,0.7603	-464.55
0.2471,0.7529	-463.35
0.1809,0.8191	-462.05
0.2911,0.7089	-464.52
0.2943,0.7057	-470.68
0.3111,0.6889	-467.99
0.2744,0.7256	-463.42
0.2770,0.7230	-468.25
0.2254,0.7746	-459.87
0.2256,0.7744	-463.57
0.2864,0.7136	-467.21
0.3171,0.6829	-464.93
0.2563,0.7437	-456.94
0.2868,0.7132	-466.30
0.2076,0.7924	-458.62
0.1714,0.8286	-464.06
0.2778,0.7222	-462.50
0.3309,0.6691	-463.12
0.2306,0.7694	-463.49
0.2328,0.7672	-459.89
0.1948,0.8052	-458.75
0.1697,0.8303	-456.22
0.2314,0.7686	-459.88
0.3247,0.6753	-465.09
0.2415,0.7585	-464.53
0.2269,0.7731	-464.77
0.2695,0.7305	-460.39
0.1809,0.8191	-463.56
0.2594,0.7406	-469.63
0.3385,0.6615	-465.43
0.2311,0.7689	-464.69
0.2183,0.7817	-463.71
0.3220,0.6780	-463.54
0.1776,0.8224	-460.66
0.2407,0.7593	-465.68
0.2998,0.7002	-463.78
0.2011,0.7989	-462.81
0.2459,0.7541	-463.36
0.3595,0.6405	-465.47
0.1928,0.8072	-464.51
0.2618,0.7382	-467.49
0.3319,0.6681	-463.16
0.2412,0.7588	-458.80
0.2430,0.7570	-458.83
0.3677,0.6323	-466.87
0.1872,0.8128	-460.35
0.2646,0.7354	-462.33
0.2976,0.7024	-468.03
0.2147,0.7853	-467.68
0.2613,0.7387	-462.30
0.3231,0.6769	-469.49
0.1919,0.8081	-464.54
0.2813,0.7187	-467.25
0.2974,0.7026	-468.04
0.2071,0.7929	-459.97
0.2626,0.7374	-466.45
0.3570,0.6430	-466.56
0.2168,0.7832	-462.46
0.2825,0.7175	-469.10
0.2842,0.7158	-463.53
0.2193,0.7807	-467.50
0.2659,0.7341	-467.43
0.3404,0.6596	-466.80
0.2125,0.7875	-461.22
0.3358,0.6642	-467.40
0.2988,0.7012	-463.76
0.2218,0.7782	-458.62
0.2919,0.7081	-465.42
0.3282,0.6718	-465.88
0.1797,0.8203	-465.14
0.3189,0.6811	-464.20
0.2910,0.7090	-467.19
0.2204,0.7796	-461.14
0.3684,0.6316	-466.35
0.3110,0.6890	-464.81
0.1933,0.8067	-454.48
0.3587,0.6413	-465.44
0.3071,0.6929	-468.00
0.1947,0.8053	-460.17
0.3960,0.6040	-469.08
0.2890,0.7110	-463.60
0.2098,0.7902	-458.61
0.4333,0.5667	-470.70
0.2752,0.7248	-466.34
0.1697,0.8303	-456.22
0.3008,0.6992	-463.80
0.2685,0.7315	-463.38
0.2268,0.7732	-461.10
0.3879,0.6121	-469.81
0.2839,0.7161	-464.45
0.1442,0.8558	-455.42
0.3108,0.6892	-462.42
0.2909,0.7091	-460.06
0.2276,0.7724	-459.87
0.3301,0.6699	-468.75
0.2924,0.7076	-465.42
0.1322,0.8678	-463.61
0.3102,0.6898	-464.79
0.2903,0.7097	-461.83
0.2463,0.7537	-467.83
0.3410,0.6590	-466.81
0.2749,0.7251	-463.43
0.1551,0.8449	-454.98
0.3139,0.6861	-467.99
0.3358,0.6642	-464.67
0.2467,0.7533	-462.24
0.3803,0.6197	-469.22
0.2993,0.7007	-467.17
0.1402,0.8598	-461.05
0.3222,0.6778	-466.52
0.3300,0.6700	-468.75
0.2543,0.7457	-464.41
0.4218,0.5782	-469.48
0.2660,0.7340	-467.42
0.1269,0.8731	-460.31
0.2987,0.7013	-463.76
0.3113,0.6887	-464.82
0.2549,0.7451	-463.33
0.4498,0.5502	-470.73
0.2510,0.7490	-462.24
0.1519,0.8481	-467.14
0.3093,0.6907	-470.40
0.3006,0.6994	-462.95
0.2738,0.7262	-466.34
0.4754,0.5246	-472.33
0.2322,0.7678	-461.08
0.1608,0.8392	-458.13
0.2960,0.7040	-460.24
0.2968,0.7032	-462.86
0.2414,0.7586	-466.82
0.4632,0.5368	-471.68
0.2082,0.7918	-465.30
0.2020,0.7980	-460.04
0.2173,0.7827	-461.17
0.2702,0.7298	-465.38
0.1887,0.8113	-463.23
0.4538,0.5462	-471.81
0.2584,0.7416	-460.17
0.2194,0.7806	-462.42
0.2386,0.7614	-456.44
0.3129,0.6871	-464.84
0.1913,0.8087	-460.25
0.4943,0.5057	-472.74
0.2619,0.7381	-461.27
0.2049,0.7951	-462.71
0.2611,0.7389	-460.22
0.2880,0.7120	-465.39
0.2220,0.7780	-464.89
0.5344,0.4656	-474.12
0.2930,0.7070	-465.42
0.2131,0.7869	-458.60
0.2937,0.7063	-465.43
0.2101,0.7899	-463.91
0.2420,0.7580	-462.24
0.4904,0.5096	-472.50
0.3315,0.6685	-465.25
0.2285,0.7715	-463.52
0.2827,0.7173	-464.44
0.2422,0.7578	-461.09
0.2569,0.7431	-461.21
0.4585,0.5415	-471.39
0.2840,0.7160	-468.15
0.2862,0.7138	-464.47
0.2709,0.7291	-465.38
0.2424,0.7576	-467.93
0.2677,0.7323	-467.40
0.4047,0.5953	-468.92
0.2509,0.7491	-468.81
0.3132,0.6868	-467.21
0.2687,0.7313	-460.38
0.2299,0.7701	-458.67
0.2568,0.7432	-461.21
0.4398,0.5602	-471.83
0.2572,0.7428	-464.40
0.2729,0.7271	-468.31
0.2344,0.7656	-453.98
0.2442,0.7558	-461.10
0.2699,0.7301	-462.39
0.4402,0.5598	-471.84
0.2778,0.7222	-466.32
0.2602,0.7398	-461.25
0.2576,0.7424	-466.51
0.2703,0.7297	-466.37
0.2989,0.7011	-465.47
0.3808,0.6192	-470.69
0.3287,0.6713	-465.18
0.2676,0.7324	-464.38
0.2418,0.7582	-465.67
0.2799,0.7201	-468.20
0.2831,0.7169	-463.52
0.3288,0.6712	-467.32
0.3165,0.6835	-466.45
0.2971,0.7029	-466.31
0.2384,0.7616	-464.57
0.2187,0.7813	-466.25
0.2810,0.7190	-463.49
0.3371,0.6629	-468.77
0.2945,0.7055	-467.18
0.2709,0.7291	-466.37
0.2833,0.7167	-465.38
0.2720,0.7280	-465.37
0.2245,0.7755	-466.07
0.3586,0.6414	-468.34
0.2439,0.7561	-465.63
0.2732,0.7268	-467.33
0.2679,0.7321	-467.40
0.2297,0.7703	-465.93
0.2343,0.7657	-464.63
0.2825,0.7175	-463.51
0.2223,0.7777	-458.62
0.3044,0.6956	-463.87
0.2821,0.7179	-463.51
0.2236,0.7764	-462.36
0.2543,0.7457	-465.49
0.2658,0.7342	-465.39
0.2464,0.7536	-456.65
0.2900,0.7100	-465.40
0.2888,0.7112	-460.89
0.2315,0.7685	-457.48
0.2569,0.7431	-460.15
0.2243,0.7757	-463.59
0.2295,0.7705	-463.51
0.2427,0.7573	-461.10
0.2617,0.7383	-464.38
0.2499,0.7501	-456.75
0.2753,0.7247	-458.59
0.2510,0.7490	-461.15
0.2510,0.7490	-465.52
0.2305,0.7695	-462.29
0.2437,0.7563	-463.37
0.2244,0.7756	-462.35
0.2838,0.7162	-465.38
0.2937,0.7063	-464.55
0.2328,0.7672	-463.46
0.2923,0.7077	-468.07
0.2438,0.7562	-466.76
0.1950,0.8050	-460.16
0.3096,0.6904	-464.78
0.3100,0.6900	-465.59
0.2027,0.7973	-458.66
0.2894,0.7106	-463.60
0.2310,0.7690	-463.49
0.2379,0.7621	-462.25
0.3463,0.6537	-470.09
0.3077,0.6923	-466.37
0.1821,0.8179	-466.51
0.3224,0.6776	-468.01
0.2062,0.7938	-470.76
0.2603,0.7397	-462.30
0.3620,0.6380	-470.10
0.2934,0.7066	-467.18
0.1883,0.8117	-464.71
0.3879,0.6121	-468.89
0.2192,0.7808	-454.80
0.2953,0.7047	-466.31
0.3353,0.6647	-467.40
0.2977,0.7023	-458.59
0.2048,0.7952	-465.42
0.3905,0.6095	-469.84
0.1941,0.8059	-465.87
0.3106,0.6894	-467.99
0.2789,0.7211	-460.62
0.2775,0.7225	-464.41
0.2353,0.7647	-455.19
0.3607,0.6393	-465.52
0.2161,0.7839	-462.47
0.2994,0.7006	-466.32
0.2753,0.7247	-463.43
0.2860,0.7140	-460.81
0.2585,0.7415	-462.28
0.3926,0.6074	-470.31
0.2083,0.7917	-462.62
0.3509,0.6491	-465.78
0.3303,0.6697	-469.46
0.2985,0.7015	-467.17
0.2375,0.7625	-461.08
0.3765,0.6235	-466.64
0.2134,0.7866	-455.99
0.3225,0.6775	-469.49
0.3119,0.6881	-467.99
0.2745,0.7255	-463.42
0.2187,0.7813	-461.15
0.3651,0.6349	-467.34
0.2299,0.7701	-463.50
0.2835,0.7165	-467.23
