#isoforms=['ENSG00000211445.SE.0.A.up_ENSG00000211445.SE.0.A.SE1_ENSG00000211445.SE.0.A.dn','ENSG00000211445.SE.0.B.up_ENSG00000211445.SE.0.B.dn']	exon_lens=('ENSG00000211445.SE.0.A.up',136),('ENSG00000211445.SE.0.A.SE1',426),('ENSG00000211445.SE.0.A.dn',154),('ENSG00000211445.SE.0.B.up',179),('ENSG00000211445.SE.0.B.dn',154)	iters=5000	burn_in=500	lag=10	percent_accept=97.72	proposal_type=drift	counts=(0,0):78,(0,1):2,(1,0):4,(1,1):1	assigned_counts=0:4,1:3	chrom=chr5	strand=+	mRNA_starts=151020606,151020563	mRNA_ends=151025493,151025493
sampled_psi	log_score
0.5031,0.4969	-48.01
0.5392,0.4608	-48.16
0.7355,0.2645	-48.56
0.4130,0.5870	-48.13
0.7796,0.2204	-48.84
0.4225,0.5775	-47.79
0.4452,0.5548	-48.06
0.4867,0.5133	-47.96
0.7315,0.2685	-48.54
0.4051,0.5949	-47.77
0.7718,0.2282	-48.79
0.3474,0.6526	-47.74
0.4486,0.5514	-48.05
0.4347,0.5653	-47.82
0.7296,0.2704	-48.53
0.3786,0.6214	-48.24
0.7722,0.2278	-48.79
0.3871,0.6129	-48.21
0.4953,0.5047	-48.00
0.4025,0.5975	-47.76
0.7012,0.2988	-49.25
0.3013,0.6987	-47.80
0.7745,0.2255	-48.81
0.4356,0.5644	-47.82
0.4581,0.5419	-48.04
0.3991,0.6009	-47.76
0.7459,0.2541	-48.62
0.3072,0.6928	-48.60
0.7183,0.2817	-48.47
0.4770,0.5230	-47.93
0.4973,0.5027	-47.99
0.4296,0.5704	-48.09
0.7532,0.2468	-48.67
0.3380,0.6620	-48.42
0.7117,0.2883	-49.34
0.5059,0.4941	-48.00
0.4628,0.5372	-48.03
0.3979,0.6021	-48.17
0.7645,0.2355	-48.74
0.4292,0.5708	-48.09
0.7581,0.2419	-48.70
0.5538,0.4462	-48.23
0.5067,0.4933	-48.00
0.4103,0.5897	-47.77
0.7644,0.2356	-49.91
0.3283,0.6717	-47.76
0.7676,0.2324	-48.76
0.5058,0.4942	-48.02
0.4993,0.5007	-48.00
0.4241,0.5759	-48.10
0.7178,0.2822	-49.40
0.3399,0.6601	-48.41
0.7851,0.2149	-48.88
0.5403,0.4597	-48.17
0.4211,0.5789	-47.79
0.4391,0.5609	-48.07
0.7532,0.2468	-48.67
0.2771,0.7229	-48.83
0.7906,0.2094	-48.92
0.5658,0.4342	-48.29
0.3999,0.6001	-48.17
0.5270,0.4730	-48.00
0.7346,0.2654	-49.58
0.3484,0.6516	-47.74
0.7605,0.2395	-48.71
0.4926,0.5074	-47.98
0.4033,0.5967	-48.16
0.5512,0.4488	-48.01
0.7640,0.2360	-48.73
0.3008,0.6992	-48.65
0.7322,0.2678	-48.54
0.5579,0.4421	-48.02
0.4575,0.5425	-48.04
0.4940,0.5060	-47.98
0.7459,0.2541	-49.70
0.2716,0.7284	-47.89
0.7098,0.2902	-48.43
0.5685,0.4315	-48.03
0.4399,0.5601	-48.07
0.5911,0.4089	-48.43
0.7517,0.2483	-49.76
0.2336,0.7664	-48.07
0.6528,0.3472	-48.84
0.5427,0.4573	-48.18
0.4117,0.5883	-47.78
0.5532,0.4468	-48.23
0.7689,0.2311	-48.77
0.1589,0.8411	-50.44
0.6560,0.3440	-48.22
0.5440,0.4560	-48.19
0.3365,0.6635	-47.75
0.5383,0.4617	-48.16
0.7404,0.2596	-48.59
0.1376,0.8624	-49.11
0.6450,0.3550	-48.19
0.4839,0.5161	-47.95
0.3422,0.6578	-47.75
0.5183,0.4817	-48.00
0.7226,0.2774	-48.49
0.1571,0.8429	-48.80
0.6104,0.3896	-48.10
0.4703,0.5297	-48.02
0.3289,0.6711	-47.76
0.5336,0.4664	-48.00
0.7127,0.2873	-48.45
0.1430,0.8570	-49.02
0.6255,0.3745	-48.14
0.4937,0.5063	-48.01
0.3926,0.6074	-47.75
0.4995,0.5005	-48.00
0.7067,0.2933	-48.42
0.1348,0.8652	-49.16
0.6764,0.3236	-49.03
0.4948,0.5052	-48.00
0.4137,0.5863	-47.78
0.4872,0.5128	-48.01
0.7373,0.2627	-48.57
0.1617,0.8383	-48.74
0.6920,0.3080	-49.16
0.5408,0.4592	-48.17
0.3785,0.6215	-48.24
0.5024,0.4976	-48.01
0.7287,0.2713	-48.53
0.1636,0.8364	-50.35
0.7035,0.2965	-48.40
0.6003,0.3997	-48.08
0.4286,0.5714	-47.80
0.5224,0.4776	-48.09
0.7319,0.2681	-49.55
0.1468,0.8532	-48.96
0.6673,0.3327	-48.96
0.5352,0.4648	-48.15
0.4542,0.5458	-47.86
0.4733,0.5267	-48.02
0.7131,0.2869	-48.45
0.1136,0.8864	-49.60
0.6918,0.3082	-48.35
0.6084,0.3916	-48.54
0.4190,0.5810	-48.11
0.4162,0.5838	-48.12
0.7334,0.2666	-49.56
0.1150,0.8850	-49.57
0.7339,0.2661	-48.55
0.6297,0.3703	-48.15
0.4076,0.5924	-47.77
0.4159,0.5841	-48.12
0.7322,0.2678	-48.54
0.1071,0.8929	-49.76
0.7373,0.2627	-48.57
0.6072,0.3928	-48.09
0.4048,0.5952	-47.77
0.4177,0.5823	-48.12
0.6812,0.3188	-48.31
0.1110,0.8890	-49.66
0.7140,0.2860	-48.45
0.6683,0.3317	-48.96
0.3891,0.6109	-47.75
0.4319,0.5681	-48.08
0.6650,0.3350	-48.94
0.0958,0.9042	-52.32
0.6846,0.3154	-48.32
0.7351,0.2649	-48.56
0.3844,0.6156	-47.75
0.4216,0.5784	-47.79
0.6777,0.3223	-49.04
0.0777,0.9223	-50.70
0.6524,0.3476	-48.84
0.6932,0.3068	-49.17
0.4103,0.5897	-47.77
0.4153,0.5847	-47.78
0.6901,0.3099	-49.15
0.0920,0.9080	-50.20
0.6891,0.3109	-48.34
0.6425,0.3575	-48.18
0.4701,0.5299	-47.90
0.3705,0.6295	-47.74
0.7073,0.2927	-48.42
0.1048,0.8952	-49.82
0.7219,0.2781	-48.49
0.5803,0.4197	-48.37
0.5122,0.4878	-48.00
0.4614,0.5386	-48.03
0.6733,0.3267	-49.00
0.1056,0.8944	-49.80
0.7450,0.2550	-48.62
0.5890,0.4110	-48.42
0.5068,0.4932	-48.00
0.4557,0.5443	-48.04
0.6690,0.3310	-48.27
0.0875,0.9125	-50.34
0.7039,0.2961	-48.40
0.5931,0.4069	-48.44
0.4783,0.5217	-48.02
0.4375,0.5625	-48.07
0.6632,0.3368	-48.25
0.0702,0.9298	-51.02
0.7186,0.2814	-48.47
0.6194,0.3806	-48.12
0.5417,0.4583	-48.17
0.4296,0.5704	-47.81
0.6157,0.3843	-48.58
0.0635,0.9365	-51.34
0.7042,0.2958	-48.41
0.6334,0.3666	-48.70
0.5739,0.4261	-48.34
0.4516,0.5484	-47.85
0.5672,0.4328	-48.30
0.0651,0.9349	-51.26
0.6903,0.3097	-48.35
0.5336,0.4664	-48.14
0.5912,0.4088	-48.43
0.4541,0.5459	-47.86
0.5381,0.4619	-48.01
0.0775,0.9225	-50.71
0.6796,0.3204	-48.30
0.5586,0.4414	-48.02
0.6288,0.3712	-48.67
0.4244,0.5756	-47.80
0.5386,0.4614	-48.01
0.0860,0.9140	-50.40
0.6625,0.3375	-48.92
0.6294,0.3706	-48.67
0.6105,0.3895	-48.10
0.4366,0.5634	-47.82
0.4804,0.5196	-47.94
0.0857,0.9143	-50.40
0.6304,0.3696	-48.15
0.6477,0.3523	-48.20
0.6371,0.3629	-48.17
0.4598,0.5402	-47.88
0.4710,0.5290	-48.02
0.0981,0.9019	-50.01
0.6252,0.3748	-48.13
0.6168,0.3832	-48.11
0.6232,0.3768	-48.63
0.4480,0.5520	-47.85
0.4675,0.5325	-47.90
0.0968,0.9032	-52.28
0.6722,0.3278	-48.28
0.6536,0.3464	-48.21
0.6091,0.3909	-48.10
0.4375,0.5625	-48.07
0.4882,0.5118	-47.96
0.1067,0.8933	-49.77
0.6504,0.3496	-48.82
0.6644,0.3356	-48.25
0.5673,0.4327	-48.30
0.4347,0.5653	-47.82
0.4218,0.5782	-48.11
0.0898,0.9102	-50.27
0.6585,0.3415	-48.23
0.6579,0.3421	-48.23
0.5984,0.4016	-48.08
0.5060,0.4940	-48.00
0.3714,0.6286	-47.74
0.0791,0.9209	-50.65
0.6680,0.3320	-48.26
0.6286,0.3714	-48.67
0.5843,0.4157	-48.05
0.4713,0.5287	-48.02
0.4164,0.5836	-47.78
0.0762,0.9238	-50.76
0.6205,0.3795	-48.12
0.6292,0.3708	-48.14
0.5258,0.4742	-48.10
0.5339,0.4661	-48.00
0.3977,0.6023	-48.17
0.0927,0.9073	-50.17
0.6023,0.3977	-48.50
0.6263,0.3737	-48.14
0.5063,0.4937	-48.00
0.5518,0.4482	-48.01
0.3863,0.6137	-48.21
0.0859,0.9141	-50.40
0.5545,0.4455	-48.02
0.6364,0.3636	-48.72
0.4881,0.5119	-48.01
0.5417,0.4583	-48.01
0.4393,0.5607	-47.83
0.0669,0.9331	-51.17
0.5976,0.4024	-48.47
0.5691,0.4309	-48.03
0.5238,0.4762	-48.00
0.5187,0.4813	-48.07
0.3938,0.6062	-48.19
0.0544,0.9456	-51.85
0.5427,0.4573	-48.18
0.5517,0.4483	-48.22
0.4572,0.5428	-48.04
0.5753,0.4247	-48.04
0.3943,0.6057	-47.75
0.0638,0.9362	-51.33
0.5614,0.4386	-48.27
0.5279,0.4721	-48.00
0.4585,0.5415	-47.87
0.5860,0.4140	-48.06
0.4722,0.5278	-47.91
0.0549,0.9451	-51.82
0.5057,0.4943	-48.02
0.5403,0.4597	-48.01
0.4826,0.5174	-47.94
0.5355,0.4645	-48.15
0.4227,0.5773	-48.10
0.0489,0.9511	-52.21
0.5013,0.4987	-48.01
0.5260,0.4740	-48.00
0.4758,0.5242	-47.92
0.5306,0.4694	-48.12
0.3580,0.6420	-47.74
0.0439,0.9561	-52.58
0.4457,0.5543	-48.06
0.5073,0.4927	-48.00
0.4602,0.5398	-48.04
0.4833,0.5167	-48.01
0.3288,0.6712	-47.76
0.0441,0.9559	-52.56
0.4745,0.5255	-48.02
0.5415,0.4585	-48.01
0.4726,0.5274	-47.91
0.3931,0.6069	-48.19
0.3095,0.6905	-48.59
0.0427,0.9573	-52.68
0.5102,0.4898	-48.04
0.5361,0.4639	-48.15
0.4978,0.5022	-48.00
0.3073,0.6927	-48.60
0.3180,0.6820	-47.77
0.0422,0.9578	-52.72
0.4802,0.5198	-48.01
0.5148,0.4852	-48.00
0.4917,0.5083	-48.01
0.3148,0.6852	-47.78
0.3409,0.6591	-47.75
0.0406,0.9594	-52.86
0.5122,0.4878	-48.00
0.4965,0.5035	-48.00
0.5249,0.4751	-48.10
0.2895,0.7105	-47.83
0.2845,0.7155	-47.85
0.0540,0.9460	-51.88
0.5299,0.4701	-48.00
0.5403,0.4597	-48.01
0.5283,0.4717	-48.00
0.2817,0.7183	-47.86
0.3255,0.6745	-47.76
0.0553,0.9447	-51.80
0.4854,0.5146	-48.01
0.4599,0.5401	-48.04
0.5150,0.4850	-48.00
0.3439,0.6561	-48.39
0.3428,0.6572	-47.74
0.0462,0.9538	-52.40
0.5576,0.4424	-48.25
0.4572,0.5428	-48.04
0.5241,0.4759	-48.00
0.3544,0.6456	-47.74
0.3348,0.6652	-48.44
0.0408,0.9592	-52.84
0.5515,0.4485	-48.22
0.4486,0.5514	-48.05
0.5327,0.4673	-48.13
0.4055,0.5945	-47.77
0.3215,0.6785	-48.51
0.0383,0.9617	-56.29
0.5134,0.4866	-48.00
0.4828,0.5172	-47.94
0.4732,0.5268	-48.02
0.4300,0.5700	-47.81
0.2903,0.7097	-47.83
0.0384,0.9616	-53.05
0.4899,0.5101	-48.01
0.4640,0.5360	-48.03
0.4928,0.5072	-47.98
0.4518,0.5482	-47.85
0.2895,0.7105	-47.83
0.0447,0.9553	-52.52
0.4907,0.5093	-48.01
0.4725,0.5275	-48.02
0.4240,0.5760	-48.10
0.3809,0.6191	-47.74
0.2913,0.7087	-47.83
0.0505,0.9495	-52.10
0.4765,0.5235	-47.92
0.4760,0.5240	-48.02
0.3963,0.6037	-47.76
0.4170,0.5830	-47.78
0.2688,0.7312	-48.90
0.0418,0.9582	-52.76
0.4318,0.5682	-48.08
0.4886,0.5114	-48.01
0.3717,0.6283	-47.74
0.4381,0.5619	-48.07
0.3015,0.6985	-47.80
0.0409,0.9591	-52.83
0.3784,0.6216	-48.24
0.5417,0.4583	-48.17
0.3400,0.6600	-48.41
0.4741,0.5259	-47.92
0.3045,0.6955	-48.62
0.0473,0.9527	-52.33
0.3570,0.6430	-47.74
0.6783,0.3217	-48.30
0.3675,0.6325	-47.74
0.4784,0.5216	-48.02
0.2930,0.7070	-47.82
0.0578,0.9422	-51.65
0.3290,0.6710	-48.47
0.6724,0.3276	-49.00
0.4142,0.5858	-47.78
0.4809,0.5191	-48.01
0.3127,0.6873	-47.78
0.0655,0.9345	-51.24
0.2967,0.7033	-47.81
0.6987,0.3013	-49.22
0.3786,0.6214	-48.24
0.4381,0.5619	-47.82
0.3499,0.6501	-47.74
0.0739,0.9261	-50.86
0.3408,0.6592	-47.75
0.6816,0.3184	-48.31
0.3898,0.6102	-47.75
0.4054,0.5946	-48.15
0.4169,0.5831	-48.12
0.0643,0.9357	-51.30
0.3548,0.6452	-48.34
0.6912,0.3088	-48.35
0.3764,0.6236	-48.25
0.4367,0.5633	-47.82
0.3724,0.6276	-48.26
0.0672,0.9328	-51.16
0.3421,0.6579	-47.75
0.6904,0.3096	-49.15
0.3819,0.6181	-47.74
0.4757,0.5243	-47.92
0.3736,0.6264	-47.74
0.0707,0.9293	-51.00
0.4186,0.5814	-47.79
0.6839,0.3161	-49.09
0.4279,0.5721	-47.80
0.4448,0.5552	-47.84
0.3918,0.6082	-48.19
0.0662,0.9338	-51.21
0.4261,0.5739	-48.10
0.6685,0.3315	-48.26
0.3993,0.6007	-47.76
0.4696,0.5304	-47.90
0.3630,0.6370	-48.30
0.0594,0.9406	-51.56
0.4281,0.5719	-48.09
0.6771,0.3229	-48.29
0.3757,0.6243	-47.74
0.4337,0.5663	-47.81
0.3504,0.6496	-47.74
0.0758,0.9242	-50.78
0.4583,0.5417	-47.87
0.7190,0.2810	-48.48
0.3811,0.6189	-47.74
0.4438,0.5562	-47.84
0.3031,0.6969	-48.63
0.0672,0.9328	-51.16
0.4797,0.5203	-47.93
0.7432,0.2568	-48.61
0.3592,0.6408	-48.32
0.5134,0.4866	-48.05
0.2763,0.7237	-48.84
0.0683,0.9317	-51.11
0.5264,0.4736	-48.00
0.6949,0.3051	-48.37
0.3277,0.6723	-48.48
0.4139,0.5861	-48.13
0.2837,0.7163	-47.85
0.0825,0.9175	-50.52
0.5098,0.4902	-48.04
0.7457,0.2543	-49.70
0.3585,0.6415	-47.74
0.4607,0.5393	-47.88
0.2781,0.7219	-48.82
0.0744,0.9256	-53.36
0.5277,0.4723	-48.00
0.7832,0.2168	-48.87
0.4071,0.5929	-48.15
0.4799,0.5201	-47.93
0.2977,0.7023	-47.81
0.0736,0.9264	-53.41
0.5220,0.4780	-48.09
0.7922,0.2078	-48.94
0.4431,0.5569	-48.06
0.4179,0.5821	-47.78
0.2873,0.7127	-48.75
0.0692,0.9308	-51.06
0.5291,0.4709	-48.00
0.7776,0.2224	-50.08
0.4710,0.5290	-47.91
0.4306,0.5694	-47.81
0.3099,0.6901	-47.79
0.0786,0.9214	-50.67
0.5148,0.4852	-48.00
0.7795,0.2205	-50.10
0.4995,0.5005	-48.00
0.3935,0.6065	-47.75
0.3103,0.6897	-47.79
0.0761,0.9239	-50.77
0.5432,0.4568	-48.18
0.7774,0.2226	-48.83
0.4814,0.5186	-47.94
0.3193,0.6807	-48.53
0.2929,0.7071	-48.71
0.0829,0.9171	-50.51
0.4906,0.5094	-47.97
0.8214,0.1786	-49.19
0.4801,0.5199	-47.93
0.3979,0.6021	-48.17
0.3230,0.6770	-47.76
0.0845,0.9155	-50.45
0.4502,0.5498	-48.05
0.8252,0.1748	-49.23
0.4530,0.5470	-47.86
0.4325,0.5675	-47.81
0.3352,0.6648	-47.75
0.0848,0.9152	-50.44
0.3378,0.6622	-47.75
0.8238,0.1762	-49.21
0.4971,0.5029	-47.99
0.4403,0.5597	-47.83
0.2831,0.7169	-47.85
0.1070,0.8930	-49.77
0.3635,0.6365	-47.74
0.8193,0.1807	-49.17
0.5366,0.4634	-48.00
0.5031,0.4969	-48.00
0.2636,0.7364	-47.92
0.0963,0.9037	-52.30
0.3405,0.6595	-47.75
0.7772,0.2228	-48.82
0.5388,0.4612	-48.16
0.5434,0.4566	-48.01
0.3021,0.6979	-48.64
0.1132,0.8868	-49.61
0.3699,0.6301	-47.74
0.7727,0.2273	-48.79
0.5923,0.4077	-48.07
0.5184,0.4816	-48.07
0.2783,0.7217	-47.87
0.1213,0.8787	-49.43
0.3673,0.6327	-47.74
0.8186,0.1814	-49.16
0.4899,0.5101	-48.01
0.4708,0.5292	-48.02
0.2393,0.7607	-48.04
0.1336,0.8664	-51.05
0.3608,0.6392	-48.31
0.8206,0.1794	-49.18
0.5491,0.4509	-48.01
0.4604,0.5396	-47.88
0.2131,0.7869	-48.21
0.1385,0.8615	-49.10
0.3249,0.6751	-48.49
0.8449,0.1551	-49.44
0.5380,0.4620	-48.01
0.4306,0.5694	-48.09
0.2053,0.7947	-49.63
0.1270,0.8730	-49.31
0.3480,0.6520	-47.74
0.8667,0.1333	-49.71
0.5586,0.4414	-48.02
0.4401,0.5599	-47.83
0.1809,0.8191	-48.51
0.1224,0.8776	-51.38
0.3538,0.6462	-47.74
0.8653,0.1347	-51.55
0.5831,0.4169	-48.05
0.4809,0.5191	-47.94
0.2003,0.7997	-49.70
0.1057,0.8943	-49.80
0.4284,0.5716	-48.09
0.8627,0.1373	-49.65
0.5653,0.4347	-48.03
0.4277,0.5723	-47.80
0.2295,0.7705	-48.10
0.1116,0.8884	-49.65
0.4130,0.5870	-47.78
0.8245,0.1755	-49.22
0.5787,0.4213	-48.04
0.4746,0.5254	-48.02
0.2757,0.7243	-47.88
0.1468,0.8532	-48.96
0.3775,0.6225	-47.74
0.8680,0.1320	-51.61
0.5642,0.4358	-48.28
0.4169,0.5831	-47.78
0.3013,0.6987	-48.64
0.1330,0.8670	-49.20
0.3402,0.6598	-47.75
0.8548,0.1452	-49.55
0.5384,0.4616	-48.01
0.4233,0.5767	-47.79
0.2353,0.7647	-48.06
0.1410,0.8590	-49.05
0.3130,0.6870	-48.57
0.8451,0.1549	-49.44
0.5308,0.4692	-48.13
0.4309,0.5691	-47.81
0.2647,0.7353	-47.92
0.1800,0.8200	-48.52
0.3690,0.6310	-48.28
0.8666,0.1334	-51.58
0.5838,0.4162	-48.05
0.3915,0.6085	-47.75
0.3237,0.6763	-47.76
0.1972,0.8028	-49.75
0.3331,0.6669	-48.45
0.8747,0.1253	-49.82
0.5902,0.4098	-48.43
0.4844,0.5156	-47.95
0.3025,0.6975	-48.64
0.2169,0.7831	-49.47
0.3858,0.6142	-48.21
0.8880,0.1120	-50.03
0.5370,0.4630	-48.00
0.4322,0.5678	-47.81
0.2967,0.7033	-48.68
0.2207,0.7793	-49.42
0.3809,0.6191	-47.74
0.8983,0.1017	-50.21
0.4749,0.5251	-47.92
0.3847,0.6153	-47.75
0.3409,0.6591	-48.41
0.2208,0.7792	-48.16
0.3462,0.6538	-47.74
0.8870,0.1130	-50.01
0.3995,0.6005	-48.17
0.4100,0.5900	-47.77
0.3380,0.6620	-48.42
0.2086,0.7914	-48.25
0.3771,0.6229	-47.74
0.8946,0.1054	-50.14
0.3878,0.6122	-47.75
0.4202,0.5798	-48.11
0.2935,0.7065	-47.82
0.2538,0.7462	-47.97
0.3893,0.6107	-48.20
0.8925,0.1075	-50.10
0.3932,0.6068	-48.19
0.4303,0.5697	-48.09
0.3248,0.6752	-47.76
0.2426,0.7574	-48.02
0.3896,0.6104	-47.75
0.8868,0.1132	-50.01
0.4046,0.5954	-48.15
0.4236,0.5764	-48.10
0.3200,0.6800	-47.77
0.2426,0.7574	-48.02
0.4202,0.5798	-47.79
0.8915,0.1085	-50.09
0.4261,0.5739	-48.10
0.4344,0.5656	-47.82
0.2613,0.7387	-47.93
0.2104,0.7896	-49.56
0.4270,0.5730	-48.09
0.8646,0.1354	-51.53
0.4579,0.5421	-48.04
0.4358,0.5642	-48.08
0.2869,0.7131	-47.84
0.2282,0.7718	-49.33
0.4185,0.5815	-47.79
0.8714,0.1286	-49.77
0.4565,0.5435	-47.87
0.4083,0.5917	-48.14
0.2724,0.7276	-48.87
0.2575,0.7425	-49.01
0.4356,0.5644	-47.82
0.8482,0.1518	-49.48
0.5030,0.4970	-48.00
0.3875,0.6125	-47.75
0.3103,0.6897	-47.79
0.2331,0.7669	-48.08
0.4010,0.5990	-48.16
0.8481,0.1519	-51.19
0.5389,0.4611	-48.01
0.3576,0.6424	-48.32
0.2760,0.7240	-47.88
0.2632,0.7368	-47.92
0.3787,0.6213	-47.74
0.8693,0.1307	-49.74
0.5853,0.4147	-48.40
0.3643,0.6357	-47.74
0.2684,0.7316	-47.90
0.2822,0.7178	-47.86
0.3493,0.6507	-47.74
0.8717,0.1283	-51.69
0.6091,0.3909	-48.54
0.3965,0.6035	-47.76
0.2114,0.7886	-48.23
0.2999,0.7001	-47.81
0.3264,0.6736	-47.76
0.8794,0.1206	-49.89
0.5851,0.4149	-48.05
0.3811,0.6189	-47.74
0.2184,0.7816	-48.17
0.3381,0.6619	-47.75
0.3593,0.6407	-48.32
0.8672,0.1328	-49.71
0.5765,0.4235	-48.35
0.3026,0.6974	-47.80
0.2318,0.7682	-49.28
0.3022,0.6978	-48.64
0.3523,0.6477	-47.74
0.8748,0.1252	-49.82
0.5972,0.4028	-48.07
0.2312,0.7688	-48.09
0.2498,0.7502	-47.99
0.3103,0.6897	-48.58
0.3627,0.6373	-47.74
0.8905,0.1095	-50.07
0.5605,0.4395	-48.27
0.3093,0.6907	-47.79
0.2706,0.7294	-48.89
0.3236,0.6764	-48.50
0.3628,0.6372	-47.74
0.8850,0.1150	-49.98
0.5543,0.4457	-48.02
0.3434,0.6566	-47.74
0.2779,0.7221	-47.87
0.3318,0.6682	-47.75
0.3211,0.6789	-48.52
0.8768,0.1232	-49.85
0.5775,0.4225	-48.04
0.2833,0.7167	-48.78
0.3068,0.6932	-47.79
0.3258,0.6742	-47.76
0.3560,0.6440	-47.74
0.8818,0.1182	-49.93
0.5656,0.4344	-48.03
0.2718,0.7282	-47.89
0.2493,0.7507	-47.99
0.3847,0.6153	-47.75
0.4447,0.5553	-47.84
0.8932,0.1068	-50.11
0.6032,0.3968	-48.09
0.2719,0.7281	-47.89
0.2567,0.7433	-49.02
0.3868,0.6132	-48.21
0.4385,0.5615	-48.07
0.8728,0.1272	-49.79
0.5614,0.4386	-48.27
0.2673,0.7327	-47.91
0.2807,0.7193	-48.80
0.3696,0.6304	-47.74
0.4772,0.5228	-48.02
0.9058,0.0942	-50.35
0.6185,0.3815	-48.60
0.3206,0.6794	-47.77
0.3046,0.6954	-48.62
0.3486,0.6514	-47.74
0.4875,0.5125	-48.01
0.9072,0.0928	-50.38
0.5850,0.4150	-48.40
0.3004,0.6996	-47.81
0.2747,0.7253	-47.88
0.3301,0.6699	-47.76
0.4256,0.5744	-48.10
0.9183,0.0817	-50.62
0.5527,0.4473	-48.02
0.3170,0.6830	-47.77
0.3474,0.6526	-47.74
0.2933,0.7067	-47.82
0.4435,0.5565	-47.84
0.9218,0.0782	-50.70
0.5762,0.4238	-48.04
0.3110,0.6890	-48.58
0.3613,0.6387	-47.74
0.3112,0.6888	-48.58
0.4607,0.5393	-48.04
0.9186,0.0814	-50.63
0.5559,0.4441	-48.24
0.3176,0.6824	-47.77
0.3612,0.6388	-48.31
0.3629,0.6371	-48.30
0.3683,0.6317	-47.74
0.9015,0.0985	-50.27
0.4758,0.5242	-48.02
0.3628,0.6372	-47.74
0.3674,0.6326	-47.74
0.3490,0.6510	-48.36
0.3595,0.6405	-47.74
0.8980,0.1020	-50.20
0.4653,0.5347	-48.03
0.3998,0.6002	-47.76
0.3445,0.6555	-48.39
0.3109,0.6891	-48.58
0.3278,0.6722	-47.76
0.9007,0.0993	-50.25
0.4777,0.5223	-47.93
0.4130,0.5870	-48.13
0.3926,0.6074	-47.75
0.2853,0.7147	-48.76
0.2973,0.7027	-47.81
0.9014,0.0986	-50.26
0.4951,0.5049	-48.00
0.4326,0.5674	-47.81
0.3979,0.6021	-47.76
0.2648,0.7352	-47.92
0.2672,0.7328	-47.91
0.8807,0.1193	-49.91
0.4946,0.5054	-47.98
0.4471,0.5529	-48.06
0.4330,0.5670	-48.08
0.3244,0.6756	-47.76
0.2867,0.7133	-47.84
0.8837,0.1163	-49.96
0.4531,0.5469	-47.86
0.4742,0.5258	-48.02
0.4221,0.5779	-47.79
0.3168,0.6832	-47.77
0.2740,0.7260	-48.86
0.8831,0.1169	-49.95
0.4422,0.5578	-47.83
0.3504,0.6496	-48.36
0.4411,0.5589	-48.07
0.3333,0.6667	-47.75
0.2879,0.7121	-47.84
0.9001,0.0999	-50.24
0.4618,0.5382	-48.03
0.3410,0.6590	-47.75
0.4950,0.5050	-47.98
0.2960,0.7040	-48.68
0.2595,0.7405	-48.99
0.9027,0.0973	-50.29
0.4482,0.5518	-47.85
0.3277,0.6723	-48.48
0.5155,0.4845	-48.00
0.2591,0.7409	-48.99
0.3185,0.6815	-48.53
0.9014,0.0986	-50.26
0.4011,0.5989	-47.76
0.3525,0.6475	-47.74
0.4504,0.5496	-47.85
0.2493,0.7507	-47.99
0.3004,0.6996	-47.81
0.8877,0.1123	-50.02
0.3564,0.6436	-47.74
0.3151,0.6849	-47.78
0.4555,0.5445	-48.04
0.2360,0.7640	-48.06
0.2786,0.7214	-47.87
0.8605,0.1395	-49.63
0.3522,0.6478	-48.35
0.3267,0.6733	-48.48
0.4976,0.5024	-47.99
0.2696,0.7304	-47.90
0.2758,0.7242	-47.88
0.8647,0.1353	-49.68
0.3925,0.6075	-47.75
0.2788,0.7212	-48.82
0.5002,0.4998	-48.00
0.2284,0.7716	-48.11
0.3129,0.6871	-47.78
0.8878,0.1122	-50.02
0.3977,0.6023	-48.17
0.2765,0.7235	-48.84
0.4530,0.5470	-48.05
0.3061,0.6939	-47.79
0.2956,0.7044	-47.82
0.8926,0.1074	-50.10
0.4465,0.5535	-47.84
0.3116,0.6884	-48.58
0.4995,0.5005	-48.00
0.2922,0.7078	-47.83
0.2870,0.7130	-47.84
0.8857,0.1143	-49.99
0.4714,0.5286	-48.02
0.3497,0.6503	-47.74
0.4343,0.5657	-47.82
0.2523,0.7477	-47.97
0.2680,0.7320	-47.91
0.8820,0.1180	-49.93
0.5085,0.4915	-48.03
0.3321,0.6679	-47.75
0.4200,0.5800	-47.79
0.2553,0.7447	-47.96
0.2634,0.7366	-47.92
0.8859,0.1141	-49.99
0.5171,0.4829	-48.07
0.3482,0.6518	-47.74
0.4161,0.5839	-47.78
0.2610,0.7390	-47.93
0.2874,0.7126	-48.75
0.9180,0.0820	-50.61
0.5026,0.4974	-48.01
0.4437,0.5563	-48.06
0.4850,0.5150	-48.01
0.2549,0.7451	-47.96
0.3082,0.6918	-47.79
0.9248,0.0752	-50.78
0.4721,0.5279	-47.91
0.4498,0.5502	-47.85
0.4441,0.5559	-48.06
0.2637,0.7363	-47.92
0.3245,0.6755	-47.76
0.9226,0.0774	-50.72
0.4927,0.5073	-48.01
0.4290,0.5710	-47.80
0.4767,0.5233	-47.92
0.2617,0.7383	-47.93
0.2768,0.7232	-47.87
0.9408,0.0592	-51.24
0.5492,0.4508	-48.01
0.3306,0.6694	-48.46
0.4761,0.5239	-48.02
0.2573,0.7427	-49.01
0.3126,0.6874	-47.78
0.9469,0.0531	-51.45
0.5636,0.4364	-48.28
0.3357,0.6643	-47.75
0.4314,0.5686	-48.09
0.2591,0.7409	-47.94
0.3608,0.6392	-47.74
0.9505,0.0495	-51.58
0.5781,0.4219	-48.04
0.3636,0.6364	-48.30
0.4381,0.5619	-47.82
0.3053,0.6947	-47.80
0.3191,0.6809	-48.53
0.9429,0.0571	-51.31
0.5652,0.4348	-48.29
0.3547,0.6453	-48.34
0.4581,0.5419	-47.87
0.3138,0.6862	-47.78
0.3018,0.6982	-48.64
0.9467,0.0533	-51.44
0.5769,0.4231	-48.04
0.3678,0.6322	-48.28
0.4230,0.5770	-47.79
0.3463,0.6537	-47.74
0.2642,0.7358	-47.92
0.9497,0.0503	-51.55
0.5326,0.4674	-48.00
0.3125,0.6875	-47.78
0.4711,0.5289	-48.02
0.3422,0.6578	-47.75
0.2324,0.7676	-49.28
0.9366,0.0634	-51.10
0.6229,0.3771	-48.13
0.3010,0.6990	-47.80
0.4742,0.5258	-47.92
0.3346,0.6654	-47.75
0.2329,0.7671	-48.08
0.9405,0.0595	-51.23
0.6225,0.3775	-48.63
0.3033,0.6967	-48.63
0.5029,0.4971	-48.00
0.3882,0.6118	-48.20
0.2397,0.7603	-48.04
0.9438,0.0562	-51.34
0.6551,0.3449	-48.22
0.3490,0.6510	-47.74
0.5190,0.4810	-48.08
0.3946,0.6054	-48.18
0.2355,0.7645	-48.06
0.9445,0.0555	-51.36
0.6660,0.3340	-48.25
0.3538,0.6462	-48.34
0.5461,0.4539	-48.01
0.3608,0.6392	-48.31
0.2356,0.7644	-48.06
0.9483,0.0517	-51.50
0.6929,0.3071	-48.36
0.3269,0.6731	-47.76
0.5516,0.4484	-48.01
0.4001,0.5999	-48.17
0.2247,0.7753	-48.13
0.9457,0.0543	-51.40
0.6867,0.3133	-48.33
0.3152,0.6848	-47.78
0.5752,0.4248	-48.34
0.4257,0.5743	-47.80
0.2550,0.7450	-47.96
0.9404,0.0596	-51.22
0.6884,0.3116	-48.34
0.3563,0.6437	-47.74
0.5791,0.4209	-48.05
0.3910,0.6090	-48.19
0.1950,0.8050	-48.37
0.9395,0.0605	-51.20
0.7088,0.2912	-48.43
0.3620,0.6380	-48.31
0.5893,0.4107	-48.42
0.3719,0.6281	-48.26
0.1810,0.8190	-48.51
0.9401,0.0599	-51.22
0.6845,0.3155	-48.32
0.4145,0.5855	-48.13
0.5883,0.4117	-48.06
0.4474,0.5526	-48.06
0.1941,0.8059	-49.80
0.9436,0.0564	-51.33
0.6666,0.3334	-48.26
0.4060,0.5940	-47.77
0.6135,0.3865	-48.57
0.4405,0.5595	-47.83
0.2282,0.7718	-48.11
0.9489,0.0511	-51.52
0.6738,0.3262	-48.28
0.3713,0.6287	-48.27
0.6321,0.3679	-48.15
0.4226,0.5774	-47.79
0.2425,0.7575	-49.16
0.9427,0.0573	-51.30
0.6870,0.3130	-49.12
0.3992,0.6008	-48.17
0.6563,0.3437	-48.87
0.4720,0.5280	-48.02
0.2286,0.7714	-48.11
0.9387,0.0613	-51.17
0.6958,0.3042	-48.37
0.3741,0.6259	-47.74
0.6980,0.3020	-48.38
0.4964,0.5036	-48.00
0.2559,0.7441	-47.96
0.9395,0.0605	-51.19
0.6928,0.3072	-48.36
0.3650,0.6350	-47.74
0.6760,0.3240	-48.29
0.4576,0.5424	-47.87
0.2739,0.7261	-47.88
0.9399,0.0601	-51.21
0.7047,0.2953	-48.41
0.3776,0.6224	-48.24
0.6550,0.3450	-48.86
0.4183,0.5817	-47.79
0.2489,0.7511	-47.99
0.9447,0.0553	-51.37
0.7278,0.2722	-49.50
0.4515,0.5485	-47.85
0.6526,0.3474	-48.21
0.4093,0.5907	-47.77
0.2542,0.7458	-47.96
0.9469,0.0531	-51.45
0.7242,0.2758	-48.50
0.4658,0.5342	-48.03
0.6429,0.3571	-48.18
0.4099,0.5901	-48.14
0.2248,0.7752	-48.13
0.9504,0.0496	-51.58
0.7479,0.2521	-48.63
0.4387,0.5613	-47.82
0.6582,0.3418	-48.23
0.3623,0.6377	-47.74
0.2297,0.7703	-48.10
0.9578,0.0422	-51.90
0.7669,0.2331	-48.75
0.4019,0.5981	-48.16
0.6694,0.3306	-48.97
0.3666,0.6334	-47.74
0.1966,0.8034	-48.35
0.9459,0.0541	-51.41
0.7591,0.2409	-48.70
0.4691,0.5309	-47.90
0.6342,0.3658	-48.16
0.4076,0.5924	-47.77
0.2291,0.7709	-48.10
0.9484,0.0516	-54.41
0.7671,0.2329	-48.75
0.4823,0.5177	-48.01
0.5917,0.4083	-48.06
0.4202,0.5798	-47.79
0.1906,0.8094	-48.41
0.9323,0.0677	-50.98
0.7726,0.2274	-48.79
0.4540,0.5460	-47.86
0.5452,0.4548	-48.01
0.3433,0.6567	-47.74
0.2047,0.7953	-48.28
0.9297,0.0703	-50.91
0.7279,0.2721	-49.51
0.4230,0.5770	-48.10
0.5782,0.4218	-48.36
0.3964,0.6036	-47.76
0.2089,0.7911	-48.25
0.9320,0.0680	-50.97
0.7329,0.2671	-49.56
0.4381,0.5619	-47.82
0.5604,0.4396	-48.02
0.3468,0.6532	-47.74
0.2510,0.7490	-47.98
0.9412,0.0588	-51.25
0.6767,0.3233	-48.29
0.3824,0.6176	-47.74
0.5037,0.4963	-48.00
0.2786,0.7214	-47.87
0.2752,0.7248	-47.88
0.9503,0.0497	-51.57
0.6971,0.3029	-48.37
0.3866,0.6134	-47.75
0.4623,0.5377	-47.88
0.3025,0.6975	-48.64
0.2645,0.7355	-47.92
0.9489,0.0511	-54.44
0.6991,0.3009	-48.38
0.3778,0.6222	-47.74
0.5118,0.4882	-48.05
0.2976,0.7024	-47.81
0.2892,0.7108	-48.73
0.9445,0.0555	-51.36
0.6700,0.3300	-48.27
0.3475,0.6525	-47.74
0.4743,0.5257	-48.02
0.2973,0.7027	-47.81
0.2563,0.7437	-49.02
0.9562,0.0438	-51.82
0.7273,0.2727	-48.52
0.3522,0.6478	-48.35
0.4728,0.5272	-47.91
0.2739,0.7261	-47.88
0.1908,0.8092	-48.41
0.9589,0.0411	-51.95
0.7476,0.2524	-48.63
0.3434,0.6566	-48.39
0.5152,0.4848	-48.06
0.2733,0.7267	-47.89
0.2163,0.7837	-48.19
0.9535,0.0465	-51.70
0.7572,0.2428	-48.69
0.3270,0.6730	-47.76
0.5167,0.4833	-48.00
0.2335,0.7665	-48.07
0.2225,0.7775	-48.15
0.9495,0.0505	-51.54
0.7713,0.2287	-48.78
0.3190,0.6810	-48.53
0.5621,0.4379	-48.02
0.1972,0.8028	-49.75
0.2393,0.7607	-49.20
0.9472,0.0528	-54.34
0.7856,0.2144	-48.89
0.3057,0.6943	-48.61
0.5448,0.4552	-48.01
0.2339,0.7661	-48.07
0.3003,0.6997	-47.81
0.9432,0.0568	-51.32
0.7753,0.2247	-48.81
0.2744,0.7256	-47.88
0.5387,0.4613	-48.16
0.3039,0.6961	-48.63
0.2991,0.7009	-47.81
0.9372,0.0628	-51.12
0.7608,0.2392	-48.71
0.2762,0.7238	-48.84
0.6185,0.3815	-48.12
0.2842,0.7158	-47.85
0.3074,0.6926	-47.79
0.9390,0.0610	-51.18
0.7484,0.2516	-49.73
0.3171,0.6829	-47.77
0.5769,0.4231	-48.04
0.3102,0.6898	-48.58
0.3040,0.6960	-47.80
0.9307,0.0693	-50.93
0.7425,0.2575	-48.60
0.2817,0.7183	-47.86
0.5362,0.4638	-48.15
0.2681,0.7319	-48.91
0.3458,0.6542	-48.38
0.9246,0.0754	-50.77
0.7625,0.2375	-49.89
0.2960,0.7040	-47.82
0.5576,0.4424	-48.25
0.2561,0.7439	-49.02
0.3564,0.6436	-48.33
0.9173,0.0827	-50.60
0.7752,0.2248	-48.81
0.2999,0.7001	-47.81
0.5199,0.4801	-48.00
0.2819,0.7181	-47.86
0.3496,0.6504	-48.36
0.9196,0.0804	-50.65
0.7943,0.2057	-48.95
0.2736,0.7264	-47.88
0.5514,0.4486	-48.22
0.2421,0.7579	-48.03
0.4066,0.5934	-47.77
0.9234,0.0766	-50.74
0.7732,0.2268	-48.80
0.2662,0.7338	-47.91
0.5531,0.4469	-48.02
0.2400,0.7600	-48.04
0.4722,0.5278	-47.91
0.9094,0.0906	-50.42
0.7599,0.2401	-48.71
0.2209,0.7791	-49.42
0.4786,0.5214	-48.02
0.2527,0.7473	-49.06
0.4720,0.5280	-47.91
0.9136,0.0864	-50.51
0.7680,0.2320	-48.76
0.1877,0.8123	-48.44
0.4704,0.5296	-47.91
0.2330,0.7670	-48.08
0.5080,0.4920	-48.00
0.9184,0.0816	-50.62
0.7557,0.2443	-49.81
0.1922,0.8078	-48.39
0.4494,0.5506	-47.85
0.2662,0.7338	-47.91
0.5070,0.4930	-48.03
0.9145,0.0855	-50.53
0.7218,0.2782	-48.49
0.1856,0.8144	-48.46
0.4918,0.5082	-48.01
0.2574,0.7426	-47.95
0.4856,0.5144	-47.95
0.9019,0.0981	-50.27
0.7125,0.2875	-49.35
0.1708,0.8292	-48.63
0.5137,0.4863	-48.00
0.2900,0.7100	-48.73
0.4902,0.5098	-47.97
0.8913,0.1087	-50.08
0.7470,0.2530	-49.71
0.1466,0.8534	-48.96
0.5493,0.4507	-48.01
0.2599,0.7401	-47.94
0.4929,0.5071	-48.01
0.9008,0.0992	-50.25
0.7303,0.2697	-48.53
0.1547,0.8453	-48.84
0.5642,0.4358	-48.28
0.2448,0.7552	-48.01
0.4934,0.5066	-47.98
0.9010,0.0990	-52.46
0.7645,0.2355	-48.74
0.1617,0.8383	-48.74
0.6272,0.3728	-48.66
0.2662,0.7338	-47.91
0.4605,0.5395	-47.88
0.8983,0.1017	-50.21
0.7576,0.2424	-48.69
0.1502,0.8498	-48.91
0.6291,0.3709	-48.14
0.2773,0.7227	-47.87
0.4627,0.5373	-47.88
0.9155,0.0845	-50.56
0.7285,0.2715	-48.52
0.1240,0.8760	-49.37
0.6272,0.3728	-48.66
0.2922,0.7078	-47.83
0.4656,0.5344	-47.89
0.8993,0.1007	-50.23
0.6592,0.3408	-48.23
0.1213,0.8787	-49.43
0.5469,0.4531	-48.20
0.3316,0.6684	-48.45
0.5184,0.4816	-48.07
0.8863,0.1137	-52.05
0.6035,0.3965	-48.09
0.1047,0.8953	-49.83
0.4819,0.5181	-47.94
0.3286,0.6714	-48.47
0.4723,0.5277	-48.02
0.8924,0.1076	-52.22
0.6092,0.3908	-48.54
0.1278,0.8722	-49.29
0.5164,0.4836	-48.07
0.3463,0.6537	-48.38
0.4641,0.5359	-47.89
0.8669,0.1331	-49.71
0.6178,0.3822	-48.12
0.1282,0.8718	-49.29
0.4328,0.5672	-47.81
0.3368,0.6632	-48.43
0.4434,0.5566	-48.06
0.8476,0.1524	-51.18
0.6006,0.3994	-48.49
0.1638,0.8362	-48.71
0.4163,0.5837	-48.12
0.3713,0.6287	-48.27
0.4441,0.5559	-48.06
0.8430,0.1570	-49.42
0.5876,0.4124	-48.41
0.1205,0.8795	-49.45
0.3843,0.6157	-47.75
0.3979,0.6021	-48.17
0.4010,0.5990	-47.76
0.8399,0.1601	-51.04
0.5750,0.4250	-48.04
0.1550,0.8450	-50.53
0.3707,0.6293	-48.27
0.3886,0.6114	-47.75
0.4070,0.5930	-48.15
0.8369,0.1631	-50.98
0.5887,0.4113	-48.06
0.1576,0.8424	-48.80
0.3543,0.6457	-47.74
0.3907,0.6093	-47.75
0.4599,0.5401	-48.04
0.8246,0.1754	-49.22
0.6092,0.3908	-48.10
0.1491,0.8509	-48.92
0.3141,0.6859	-48.56
0.3959,0.6041	-47.76
0.5181,0.4819	-48.07
0.8422,0.1578	-49.41
0.5980,0.4020	-48.47
0.1592,0.8408	-48.77
0.3556,0.6444	-47.74
0.3805,0.6195	-47.74
0.5348,0.4652	-48.14
0.8270,0.1730	-50.81
0.6096,0.3904	-48.10
0.1671,0.8329	-48.67
0.4231,0.5769	-47.79
0.3737,0.6263	-47.74
0.6143,0.3857	-48.11
0.8092,0.1908	-49.08
0.6208,0.3792	-48.12
0.1796,0.8204	-48.52
0.4322,0.5678	-47.81
0.3880,0.6120	-47.75
0.5375,0.4625	-48.01
0.7761,0.2239	-48.82
0.6101,0.3899	-48.10
0.1586,0.8414	-48.78
0.3904,0.6096	-48.20
0.4699,0.5301	-48.02
0.4937,0.5063	-47.98
0.7706,0.2294	-48.78
0.6321,0.3679	-48.69
0.2000,0.8000	-49.71
0.4192,0.5808	-48.11
0.4338,0.5662	-47.81
0.5149,0.4851	-48.00
0.7803,0.2197	-48.85
0.6190,0.3810	-48.12
0.2006,0.7994	-48.32
0.4316,0.5684	-48.09
0.4361,0.5639	-48.08
0.6030,0.3970	-48.09
0.7319,0.2681	-48.54
0.6225,0.3775	-48.13
0.2015,0.7985	-48.31
0.3910,0.6090	-48.19
0.4548,0.5452	-48.04
0.6133,0.3867	-48.57
0.6966,0.3034	-49.20
0.6773,0.3227	-48.30
0.2458,0.7542	-48.01
0.3761,0.6239	-47.74
0.4602,0.5398	-47.88
0.6159,0.3841	-48.11
0.6597,0.3403	-48.89
0.6404,0.3596	-48.17
0.2561,0.7439	-47.96
0.4000,0.6000	-48.17
0.3660,0.6340	-48.29
0.5601,0.4399	-48.02
0.5817,0.4183	-48.05
0.5986,0.4014	-48.08
0.3149,0.6851	-48.55
0.4013,0.5987	-47.76
0.3755,0.6245	-47.74
0.5466,0.4534	-48.01
0.5932,0.4068	-48.07
0.5954,0.4046	-48.07
0.2716,0.7284	-47.89
0.3901,0.6099	-47.75
0.3887,0.6113	-48.20
0.6120,0.3880	-48.10
0.5853,0.4147	-48.05
0.5923,0.4077	-48.44
0.2417,0.7583	-48.03
0.4157,0.5843	-47.78
0.3744,0.6256	-47.74
0.6636,0.3364	-48.25
0.6062,0.3938	-48.52
0.5650,0.4350	-48.29
0.2056,0.7944	-48.27
0.4875,0.5125	-48.01
0.4144,0.5856	-48.13
0.6958,0.3042	-48.37
0.5944,0.4056	-48.45
0.5214,0.4786	-48.00
0.2265,0.7735	-48.12
0.4636,0.5364	-47.89
0.4689,0.5311	-47.90
0.6933,0.3067	-48.36
0.5778,0.4222	-48.36
0.5361,0.4639	-48.00
0.2254,0.7746	-48.13
0.4901,0.5099	-47.97
0.5161,0.4839	-48.00
0.6761,0.3239	-48.29
0.6244,0.3756	-48.13
0.5824,0.4176	-48.38
0.2327,0.7673	-49.27
0.5851,0.4149	-48.05
0.5656,0.4344	-48.03
0.6220,0.3780	-48.13
0.6800,0.3200	-48.31
0.6537,0.3463	-48.21
0.2422,0.7578	-48.03
0.6051,0.3949	-48.52
0.5805,0.4195	-48.05
0.6313,0.3687	-48.69
0.6869,0.3131	-49.12
0.6917,0.3083	-49.16
0.1888,0.8112	-49.88
0.6056,0.3944	-48.52
0.5309,0.4691	-48.00
0.6269,0.3731	-48.14
0.6453,0.3547	-48.19
0.7665,0.2335	-48.75
0.2082,0.7918	-48.25
0.5778,0.4222	-48.04
0.4829,0.5171	-48.01
0.6513,0.3487	-48.21
0.6984,0.3016	-48.38
0.7679,0.2321	-48.76
0.1965,0.8035	-49.76
0.5890,0.4110	-48.06
0.5280,0.4720	-48.11
0.6666,0.3334	-48.26
0.6803,0.3197	-48.31
0.7758,0.2242	-50.06
0.1936,0.8064	-48.38
0.5875,0.4125	-48.06
0.5694,0.4306	-48.03
0.6886,0.3114	-48.34
0.7138,0.2862	-49.36
0.7798,0.2202	-48.84
0.2265,0.7735	-48.12
0.5657,0.4343	-48.03
0.5594,0.4406	-48.02
0.6036,0.3964	-48.09
0.7029,0.2971	-48.40
0.7437,0.2563	-49.67
0.2466,0.7534	-49.12
0.5759,0.4241	-48.35
0.6043,0.3957	-48.51
0.6394,0.3606	-48.17
0.6775,0.3225	-48.30
0.6834,0.3166	-48.32
0.1969,0.8031	-48.35
0.5686,0.4314	-48.03
0.5974,0.4026	-48.07
0.6350,0.3650	-48.16
0.6783,0.3217	-48.30
0.6528,0.3472	-48.21
0.1991,0.8009	-49.72
0.5825,0.4175	-48.05
0.6047,0.3953	-48.51
0.6020,0.3980	-48.08
0.7296,0.2704	-48.53
0.6322,0.3678	-48.69
0.2303,0.7697	-48.09
0.6065,0.3935	-48.52
0.5953,0.4047	-48.46
0.6180,0.3820	-48.12
0.6754,0.3246	-48.29
0.6077,0.3923	-48.09
0.2219,0.7781	-48.15
0.6262,0.3738	-48.65
0.6635,0.3365	-48.25
0.5910,0.4090	-48.06
0.6962,0.3038	-49.20
0.6101,0.3899	-48.55
0.2550,0.7450	-47.96
0.5738,0.4262	-48.04
0.6983,0.3017	-48.38
0.6000,0.4000	-48.49
0.7141,0.2859	-49.37
0.6269,0.3731	-48.14
0.2938,0.7062	-48.70
0.5798,0.4202	-48.37
0.6886,0.3114	-49.13
0.5625,0.4375	-48.02
0.7274,0.2726	-48.52
0.5578,0.4422	-48.02
0.3405,0.6595	-48.41
0.5742,0.4258	-48.04
0.6411,0.3589	-48.18
0.5347,0.4653	-48.14
0.7170,0.2830	-48.47
0.5833,0.4167	-48.39
0.3353,0.6647	-47.75
0.6589,0.3411	-48.23
0.6849,0.3151	-48.32
0.5213,0.4787	-48.00
0.7157,0.2843	-48.46
0.6146,0.3854	-48.11
0.3032,0.6968	-47.80
0.7041,0.2959	-49.27
0.7080,0.2920	-48.42
0.5212,0.4788	-48.00
0.6935,0.3065	-48.36
0.6275,0.3725	-48.14
0.2832,0.7168	-47.85
0.7112,0.2888	-49.34
0.7599,0.2401	-48.71
0.5162,0.4838	-48.00
0.6981,0.3019	-49.22
0.5983,0.4017	-48.47
0.2363,0.7637	-48.06
0.7009,0.2991	-48.39
0.7275,0.2725	-48.52
0.5135,0.4865	-48.05
0.7219,0.2781	-48.49
0.6411,0.3589	-48.18
0.2375,0.7625	-48.05
0.6729,0.3271	-48.28
0.7221,0.2779	-48.49
0.5899,0.4101	-48.43
0.7049,0.2951	-49.28
0.5841,0.4159	-48.05
0.2412,0.7588	-48.03
0.6529,0.3471	-48.21
0.7342,0.2658	-48.56
0.6022,0.3978	-48.08
0.7221,0.2779	-48.49
0.5874,0.4126	-48.06
0.2245,0.7755	-48.13
0.6419,0.3581	-48.18
0.7372,0.2628	-49.60
0.5883,0.4117	-48.42
0.6931,0.3069	-48.36
0.6651,0.3349	-48.94
0.2801,0.7199	-47.86
0.6385,0.3615	-48.17
0.7521,0.2479	-48.66
0.5485,0.4515	-48.21
0.6433,0.3567	-48.18
0.6524,0.3476	-48.21
0.3474,0.6526	-47.74
0.5587,0.4413	-48.26
0.7740,0.2260	-50.03
0.5843,0.4157	-48.05
0.6389,0.3611	-48.17
0.6818,0.3182	-49.07
0.3635,0.6365	-47.74
0.5367,0.4633	-48.15
0.7822,0.2178	-48.86
0.6596,0.3404	-48.23
0.6372,0.3628	-48.17
0.7054,0.2946	-48.41
0.3364,0.6636	-48.43
0.5681,0.4319	-48.03
0.8017,0.1983	-49.01
0.6448,0.3552	-48.78
0.6480,0.3520	-48.81
0.7014,0.2986	-48.39
0.2978,0.7022	-47.81
0.5934,0.4066	-48.07
0.7667,0.2333	-48.75
0.6814,0.3186	-48.31
0.6454,0.3546	-48.79
0.7027,0.2973	-48.40
0.2631,0.7369	-47.93
0.5323,0.4677	-48.00
0.7410,0.2590	-48.59
0.6600,0.3400	-48.90
0.6677,0.3323	-48.26
0.7015,0.2985	-49.25
0.2924,0.7076	-47.83
0.5438,0.4562	-48.18
0.6992,0.3008	-48.38
0.6747,0.3253	-48.29
0.7210,0.2790	-48.49
0.7078,0.2922	-48.42
0.2807,0.7193	-47.86
0.5413,0.4587	-48.17
0.6765,0.3235	-48.29
0.6773,0.3227	-48.30
0.7517,0.2483	-48.66
0.6685,0.3315	-48.26
0.2668,0.7332	-47.91
0.5300,0.4700	-48.12
0.6807,0.3193	-48.31
0.6528,0.3472	-48.21
0.7663,0.2337	-49.94
0.6345,0.3655	-48.16
0.2667,0.7333	-47.91
0.5368,0.4632	-48.15
0.6345,0.3655	-48.16
0.6811,0.3189	-49.07
0.7860,0.2140	-50.19
0.6369,0.3631	-48.16
0.2911,0.7089	-47.83
0.5379,0.4621	-48.01
0.5707,0.4293	-48.03
0.6810,0.3190	-48.31
0.8111,0.1889	-49.10
0.6477,0.3523	-48.80
0.2557,0.7443	-47.96
0.5009,0.4991	-48.01
0.5519,0.4481	-48.22
0.7073,0.2927	-49.30
0.8226,0.1774	-49.20
0.6705,0.3295	-48.27
0.2258,0.7742	-48.12
0.4875,0.5125	-47.96
0.5441,0.4559	-48.19
0.6923,0.3077	-49.17
0.7936,0.2064	-48.95
0.6905,0.3095	-48.35
0.2024,0.7976	-48.30
0.4432,0.5568	-47.83
0.5063,0.4937	-48.03
0.6493,0.3507	-48.20
0.7626,0.2374	-48.72
0.6322,0.3678	-48.15
0.2357,0.7643	-48.06
0.4241,0.5759	-47.80
0.5800,0.4200	-48.05
0.7067,0.2933	-48.42
0.7677,0.2323	-48.76
0.6138,0.3862	-48.11
0.2228,0.7772	-48.14
0.4217,0.5783	-47.79
0.5743,0.4257	-48.34
0.7162,0.2838	-48.46
0.7835,0.2165	-48.87
0.6346,0.3654	-48.71
0.2608,0.7392	-47.93
0.3784,0.6216	-47.74
0.5369,0.4631	-48.00
0.7008,0.2992	-48.39
0.8003,0.1997	-49.00
0.6886,0.3114	-48.34
0.2843,0.7157	-47.85
0.3896,0.6104	-48.20
0.5082,0.4918	-48.00
0.6901,0.3099	-48.35
0.8009,0.1991	-49.01
0.6468,0.3532	-48.19
0.2567,0.7433	-49.02
0.3861,0.6139	-48.21
0.5231,0.4769	-48.00
0.6862,0.3138	-49.11
0.8137,0.1863	-50.59
0.6824,0.3176	-48.31
0.2301,0.7699	-49.30
0.3695,0.6305	-48.27
0.5396,0.4604	-48.17
0.7078,0.2922	-48.42
0.8275,0.1725	-49.25
0.7063,0.2937	-48.42
0.2410,0.7590	-49.18
0.3800,0.6200	-47.74
0.6058,0.3942	-48.52
0.7098,0.2902	-49.33
0.7887,0.2113	-48.91
0.6550,0.3450	-48.86
0.2094,0.7906	-48.24
0.3983,0.6017	-47.76
0.6195,0.3805	-48.61
0.6588,0.3412	-48.89
0.7889,0.2111	-48.91
0.6270,0.3730	-48.66
0.1702,0.8298	-50.22
0.3957,0.6043	-47.76
0.6198,0.3802	-48.12
0.6311,0.3689	-48.15
0.7675,0.2325	-48.76
0.6593,0.3407	-48.89
0.1810,0.8190	-48.51
0.3927,0.6073	-47.75
0.6221,0.3779	-48.13
0.6136,0.3864	-48.11
0.7028,0.2972	-49.26
0.6271,0.3729	-48.66
0.1973,0.8027	-48.35
0.3214,0.6786	-48.51
0.6054,0.3946	-48.52
0.5493,0.4507	-48.21
0.6638,0.3362	-48.25
0.6115,0.3885	-48.56
0.1658,0.8342	-48.69
0.3766,0.6234	-47.74
0.5320,0.4680	-48.00
0.5581,0.4419	-48.25
0.6957,0.3043	-49.20
0.6121,0.3879	-48.10
0.1395,0.8605	-49.08
0.3837,0.6163	-47.75
0.5047,0.4953	-48.00
0.5677,0.4323	-48.30
0.7145,0.2855	-48.45
0.6017,0.3983	-48.08
0.1321,0.8679	-49.21
0.4556,0.5444	-48.04
0.5000,0.5000	-48.00
0.5889,0.4111	-48.42
0.7143,0.2857	-48.45
0.6079,0.3921	-48.53
0.1476,0.8524	-48.95
0.4363,0.5637	-47.82
0.5427,0.4573	-48.18
0.6086,0.3914	-48.10
0.7385,0.2615	-48.58
0.6369,0.3631	-48.16
0.1293,0.8707	-49.27
0.4047,0.5953	-47.77
0.5516,0.4484	-48.22
0.5980,0.4020	-48.08
0.6641,0.3359	-48.93
0.5721,0.4279	-48.33
0.1404,0.8596	-50.88
0.3895,0.6105	-47.75
0.5510,0.4490	-48.01
0.6109,0.3891	-48.55
0.6854,0.3146	-48.33
0.4950,0.5050	-47.98
0.1575,0.8425	-48.80
0.3814,0.6186	-47.74
0.5653,0.4347	-48.03
0.5869,0.4131	-48.06
0.6937,0.3063	-49.18
0.4663,0.5337	-48.03
0.1974,0.8026	-48.34
0.4425,0.5575	-48.06
0.5503,0.4497	-48.22
0.6285,0.3715	-48.14
0.6678,0.3322	-48.96
0.4995,0.5005	-48.00
0.1673,0.8327	-48.67
0.4327,0.5673	-47.81
0.5799,0.4201	-48.05
0.5435,0.4565	-48.01
0.6335,0.3665	-48.70
0.5288,0.4712	-48.12
0.1892,0.8108	-48.42
0.4858,0.5142	-47.95
0.5694,0.4306	-48.03
0.5992,0.4008	-48.08
0.5519,0.4481	-48.01
0.4790,0.5210	-47.93
0.1971,0.8029	-48.35
0.5098,0.4902	-48.04
0.5767,0.4233	-48.04
0.6353,0.3647	-48.72
0.5875,0.4125	-48.06
0.5122,0.4878	-48.05
0.1645,0.8355	-48.70
0.4219,0.5781	-47.79
0.5628,0.4372	-48.28
0.7087,0.2913	-48.43
0.6281,0.3719	-48.67
0.5814,0.4186	-48.05
0.1895,0.8105	-48.42
0.3745,0.6255	-48.25
0.5587,0.4413	-48.02
0.6853,0.3147	-48.33
0.6414,0.3586	-48.18
0.5777,0.4223	-48.36
0.2142,0.7858	-48.21
0.3734,0.6266	-48.26
0.5962,0.4038	-48.46
0.6729,0.3271	-48.28
0.6456,0.3544	-48.79
0.6714,0.3286	-48.27
0.2251,0.7749	-48.13
0.3560,0.6440	-47.74
0.5638,0.4362	-48.28
0.6761,0.3239	-49.03
0.6315,0.3685	-48.15
0.6124,0.3876	-48.10
0.2162,0.7838	-48.19
0.4154,0.5846	-47.78
0.5471,0.4529	-48.20
0.6687,0.3313	-48.26
0.6199,0.3801	-48.61
0.6332,0.3668	-48.70
0.2251,0.7749	-48.13
0.3981,0.6019	-48.17
0.4836,0.5164	-48.01
0.6317,0.3683	-48.15
0.5965,0.4035	-48.46
0.6237,0.3763	-48.13
0.2759,0.7241	-48.84
0.3288,0.6712	-48.47
0.5174,0.4826	-48.00
0.6306,0.3694	-48.68
0.5910,0.4090	-48.06
0.6765,0.3235	-49.03
0.3135,0.6865	-47.78
0.3902,0.6098	-47.75
0.5210,0.4790	-48.00
0.6348,0.3652	-48.16
0.6704,0.3296	-48.98
0.7042,0.2958	-49.27
0.3267,0.6733	-47.76
0.4240,0.5760	-48.10
0.5267,0.4733	-48.11
0.6168,0.3832	-48.59
0.6456,0.3544	-48.19
0.7279,0.2721	-48.52
0.3299,0.6701	-47.76
0.4232,0.5768	-47.79
0.5080,0.4920	-48.00
0.7069,0.2931	-49.30
0.6583,0.3417	-48.23
0.7073,0.2927	-48.42
0.3314,0.6686	-48.46
0.4444,0.5556	-47.84
0.4436,0.5564	-47.84
0.6763,0.3237	-49.03
0.6752,0.3248	-49.02
0.7192,0.2808	-48.48
0.3487,0.6513	-48.37
0.4963,0.5037	-48.00
0.4464,0.5536	-48.06
0.7025,0.2975	-48.40
0.7009,0.2991	-48.39
0.7258,0.2742	-48.51
0.3168,0.6832	-48.54
0.5038,0.4962	-48.02
0.4325,0.5675	-47.81
0.6600,0.3400	-48.23
0.6231,0.3769	-48.13
0.7514,0.2486	-48.65
0.3210,0.6790	-48.52
0.4081,0.5919	-47.77
0.4655,0.5345	-48.03
0.6596,0.3404	-48.89
0.5990,0.4010	-48.08
0.6907,0.3093	-49.15
0.3811,0.6189	-48.23
0.4119,0.5881	-48.13
0.4400,0.5600	-47.83
0.6294,0.3706	-48.14
0.5872,0.4128	-48.06
0.7142,0.2858	-49.37
0.3608,0.6392	-47.74
0.4264,0.5736	-48.10
0.4423,0.5577	-47.83
0.6132,0.3868	-48.11
0.5604,0.4396	-48.02
0.6894,0.3106	-48.34
0.3141,0.6859	-47.78
0.4594,0.5406	-48.04
0.4138,0.5862	-47.78
0.6130,0.3870	-48.57
0.4949,0.5051	-48.00
0.6906,0.3094	-49.15
0.3014,0.6986	-47.80
0.4343,0.5657	-47.82
0.4490,0.5510	-48.05
0.5813,0.4187	-48.05
0.4635,0.5365	-47.89
0.7097,0.2903	-49.33
0.3765,0.6235	-47.74
0.5195,0.4805	-48.08
0.4156,0.5844	-47.78
0.5637,0.4363	-48.03
0.4653,0.5347	-47.89
0.7437,0.2563	-48.61
0.3949,0.6051	-48.18
0.5730,0.4270	-48.33
0.4535,0.5465	-48.05
0.6043,0.3957	-48.09
0.4305,0.5695	-47.81
0.7261,0.2739	-48.51
0.4004,0.5996	-48.16
0.6327,0.3673	-48.70
0.4957,0.5043	-48.00
0.6321,0.3679	-48.15
0.3895,0.6105	-48.20
0.7548,0.2452	-48.68
0.3689,0.6311	-48.28
0.6063,0.3937	-48.52
0.4661,0.5339	-47.89
0.6016,0.3984	-48.49
0.4008,0.5992	-48.16
0.7581,0.2419	-48.70
0.3490,0.6510	-47.74
0.5949,0.4051	-48.45
0.4597,0.5403	-47.88
0.6587,0.3413	-48.23
0.4208,0.5792	-47.79
0.8006,0.1994	-49.01
0.3288,0.6712	-47.76
0.6256,0.3744	-48.14
0.4308,0.5692	-48.09
0.7004,0.2996	-48.39
0.4461,0.5539	-47.84
0.8146,0.1854	-49.13
0.3260,0.6740	-47.76
0.6192,0.3808	-48.12
0.4252,0.5748	-48.10
0.5953,0.4047	-48.07
0.4502,0.5498	-47.85
0.7963,0.2037	-48.97
0.3475,0.6525	-47.74
0.6095,0.3905	-48.54
0.3765,0.6235	-47.74
0.5520,0.4480	-48.01
0.5266,0.4734	-48.11
0.8128,0.1872	-49.11
0.3326,0.6674	-47.75
0.5698,0.4302	-48.31
0.4373,0.5627	-48.07
0.5539,0.4461	-48.02
0.5477,0.4523	-48.20
0.8332,0.1668	-49.31
0.3162,0.6838	-47.77
0.5267,0.4733	-48.11
0.3702,0.6298	-48.27
0.5706,0.4294	-48.03
0.5360,0.4640	-48.00
0.8009,0.1991	-49.01
0.3650,0.6350	-48.29
0.4527,0.5473	-48.05
0.3019,0.6981	-47.80
0.5854,0.4146	-48.05
0.4856,0.5144	-47.95
0.7938,0.2062	-50.30
0.3893,0.6107	-47.75
0.4364,0.5636	-47.82
0.3127,0.6873	-47.78
0.6322,0.3678	-48.69
0.4560,0.5440	-48.04
0.7967,0.2033	-50.34
0.4064,0.5936	-48.15
0.3694,0.6306	-47.74
0.3988,0.6012	-47.76
0.6302,0.3698	-48.15
0.4053,0.5947	-47.77
0.7968,0.2032	-48.97
0.4002,0.5998	-48.17
0.3240,0.6760	-47.76
0.3893,0.6107	-47.75
0.6852,0.3148	-48.33
0.3865,0.6135	-47.75
0.8008,0.1992	-50.40
0.3948,0.6052	-48.18
0.3045,0.6955	-48.62
0.4344,0.5656	-48.08
0.6606,0.3394	-48.90
0.4395,0.5605	-48.07
0.8065,0.1935	-49.06
0.3884,0.6116	-48.20
0.3199,0.6801	-47.77
0.4950,0.5050	-47.98
0.6556,0.3444	-48.22
0.4698,0.5302	-48.02
0.8590,0.1410	-49.61
0.3345,0.6655	-48.44
0.3159,0.6841	-48.55
0.4622,0.5378	-48.03
0.6720,0.3280	-48.28
0.5030,0.4970	-48.00
0.8449,0.1551	-49.44
0.3238,0.6762	-47.76
0.3215,0.6785	-47.77
0.4617,0.5383	-47.88
0.6284,0.3716	-48.14
0.5537,0.4463	-48.23
0.8377,0.1623	-49.36
0.2855,0.7145	-47.85
0.2986,0.7014	-47.81
0.4588,0.5412	-47.87
0.5872,0.4128	-48.06
0.5881,0.4119	-48.41
0.8174,0.1826	-49.15
0.2896,0.7104	-48.73
0.2704,0.7296	-47.90
0.4454,0.5546	-47.84
0.5762,0.4238	-48.35
0.5091,0.4909	-48.04
0.8267,0.1733	-49.24
0.3312,0.6688	-47.75
0.2828,0.7172	-48.78
0.4292,0.5708	-47.81
0.5501,0.4499	-48.01
0.4989,0.5011	-48.00
0.8271,0.1729	-49.25
0.3400,0.6600	-47.75
0.2760,0.7240	-47.88
0.3621,0.6379	-48.30
0.5147,0.4853	-48.06
0.4900,0.5100	-47.97
0.8311,0.1689	-49.29
0.3363,0.6637	-47.75
0.2357,0.7643	-48.06
0.3019,0.6981	-48.64
0.5596,0.4404	-48.26
0.4294,0.5706	-47.81
0.8402,0.1598	-49.38
0.3051,0.6949	-48.62
0.2280,0.7720	-48.11
0.2517,0.7483	-47.98
0.5841,0.4159	-48.39
0.4485,0.5515	-47.85
0.8144,0.1856	-49.13
0.2782,0.7218	-47.87
0.2064,0.7936	-48.27
0.2162,0.7838	-48.19
0.5816,0.4184	-48.38
0.4852,0.5148	-47.95
0.8006,0.1994	-49.01
0.3190,0.6810	-48.53
0.2040,0.7960	-49.65
0.2086,0.7914	-48.25
0.5951,0.4049	-48.07
0.4779,0.5221	-47.93
0.7940,0.2060	-48.95
0.3661,0.6339	-47.74
0.1939,0.8061	-49.80
0.2429,0.7571	-48.02
0.5586,0.4414	-48.02
0.4333,0.5667	-48.08
0.7837,0.2163	-48.87
0.3390,0.6610	-48.42
0.1831,0.8169	-48.48
0.2507,0.7493	-47.98
0.5943,0.4057	-48.07
0.4831,0.5169	-47.94
0.7260,0.2740	-49.49
0.3572,0.6428	-47.74
0.2037,0.7963	-48.29
0.2744,0.7256	-47.88
0.5501,0.4499	-48.01
0.4668,0.5332	-48.03
0.6851,0.3149	-48.33
0.3027,0.6973	-47.80
0.2234,0.7766	-48.14
0.3041,0.6959	-47.80
0.5597,0.4403	-48.26
0.4961,0.5039	-47.99
0.6839,0.3161	-48.32
0.3229,0.6771	-47.76
0.1984,0.8016	-48.34
0.3536,0.6464	-47.74
0.5609,0.4391	-48.02
0.5219,0.4781	-48.00
0.6617,0.3383	-48.24
0.3749,0.6251	-47.74
0.1644,0.8356	-48.70
0.3404,0.6596	-47.75
0.5130,0.4870	-48.05
0.5478,0.4522	-48.01
0.6661,0.3339	-48.25
0.3457,0.6543	-47.74
0.1848,0.8152	-48.47
0.3330,0.6670	-47.75
0.5465,0.4535	-48.01
0.5576,0.4424	-48.25
0.5864,0.4136	-48.06
0.3866,0.6134	-47.75
0.1928,0.8072	-48.39
0.3295,0.6705	-48.47
0.5385,0.4615	-48.01
0.5817,0.4183	-48.05
0.5790,0.4210	-48.36
0.3275,0.6725	-47.76
0.2427,0.7573	-48.02
0.2919,0.7081	-48.71
0.5374,0.4626	-48.16
0.5893,0.4107	-48.42
0.6392,0.3608	-48.17
0.3732,0.6268	-47.74
0.2561,0.7439	-49.02
0.2973,0.7027	-48.67
0.5162,0.4838	-48.06
0.5893,0.4107	-48.06
0.6731,0.3269	-48.28
0.3842,0.6158	-47.75
0.2843,0.7157	-47.85
0.3451,0.6549	-47.74
0.6089,0.3911	-48.54
0.5911,0.4089	-48.06
0.6828,0.3172	-49.08
0.3697,0.6303	-47.74
0.3220,0.6780	-47.77
0.3761,0.6239	-48.25
0.5944,0.4056	-48.07
0.5833,0.4167	-48.05
0.7282,0.2718	-48.52
0.3479,0.6521	-47.74
0.3079,0.6921	-48.60
0.3744,0.6256	-48.25
0.5422,0.4578	-48.18
0.6255,0.3745	-48.65
0.7048,0.2952	-48.41
0.3056,0.6944	-47.79
0.3111,0.6889	-47.78
0.3262,0.6738	-47.76
0.5203,0.4797	-48.08
0.5629,0.4371	-48.02
0.7078,0.2922	-48.42
0.3395,0.6605	-48.41
0.3387,0.6613	-48.42
0.3196,0.6804	-47.77
0.4418,0.5582	-48.07
0.5629,0.4371	-48.28
0.7319,0.2681	-48.54
0.3113,0.6887	-47.78
0.4167,0.5833	-48.12
0.3048,0.6952	-47.80
0.4711,0.5289	-47.91
0.5670,0.4330	-48.03
0.7437,0.2563	-48.61
0.2793,0.7207	-48.81
0.3687,0.6313	-48.28
0.3027,0.6973	-48.64
0.4789,0.5211	-47.93
0.5941,0.4059	-48.45
0.7658,0.2342	-48.75
0.2904,0.7096	-47.83
0.3967,0.6033	-47.76
0.2929,0.7071	-47.82
0.4787,0.5213	-47.93
0.5892,0.4108	-48.06
0.7501,0.2499	-49.75
0.3260,0.6740	-47.76
0.3651,0.6349	-47.74
0.2789,0.7211	-47.87
0.4871,0.5129	-47.96
0.5389,0.4611	-48.01
0.6958,0.3042	-49.20
0.3293,0.6707	-47.76
0.3661,0.6339	-47.74
0.2891,0.7109	-48.73
0.4406,0.5594	-47.83
0.5490,0.4510	-48.21
0.6685,0.3315	-48.26
0.3159,0.6841	-47.78
0.3104,0.6896	-48.58
0.3089,0.6911	-47.79
0.5132,0.4868	-48.00
0.5960,0.4040	-48.07
0.5956,0.4044	-48.07
0.3426,0.6574	-47.74
0.2660,0.7340	-48.93
0.2840,0.7160	-48.77
0.5832,0.4168	-48.39
0.5294,0.4706	-48.12
0.5583,0.4417	-48.02
0.2774,0.7226	-47.87
0.2369,0.7631	-48.06
0.2902,0.7098	-47.83
0.5457,0.4543	-48.01
0.5621,0.4379	-48.27
0.5588,0.4412	-48.26
0.2842,0.7158	-47.85
0.1973,0.8027	-48.35
0.3301,0.6699	-48.46
0.5528,0.4472	-48.02
0.5347,0.4653	-48.14
0.5552,0.4448	-48.02
0.3424,0.6576	-47.74
0.1659,0.8341	-50.30
0.3199,0.6801	-47.77
0.5666,0.4334	-48.03
0.5474,0.4526	-48.01
0.5870,0.4130	-48.41
0.3997,0.6003	-48.17
0.1673,0.8327	-50.27
0.3013,0.6987	-48.64
0.5878,0.4122	-48.41
0.4867,0.5133	-47.96
0.5746,0.4254	-48.34
0.3887,0.6113	-47.75
0.1797,0.8203	-50.04
0.2854,0.7146	-47.85
0.5953,0.4047	-48.46
0.4304,0.5696	-47.81
0.5978,0.4022	-48.08
0.4001,0.5999	-47.76
0.2406,0.7594	-49.18
0.3597,0.6403	-48.32
0.5506,0.4494	-48.01
0.4121,0.5879	-47.78
0.6441,0.3559	-48.18
0.3897,0.6103	-47.75
0.2499,0.7501	-49.08
0.3408,0.6592	-47.75
0.5197,0.4803	-48.00
0.3879,0.6121	-48.20
0.6160,0.3840	-48.11
0.3932,0.6068	-47.75
0.2759,0.7241	-48.84
0.3428,0.6572	-48.40
0.5464,0.4536	-48.01
0.4691,0.5309	-48.03
0.5731,0.4269	-48.04
0.3741,0.6259	-48.26
0.3137,0.6863	-48.56
0.3415,0.6585	-48.40
0.5266,0.4734	-48.11
0.4673,0.5327	-48.03
0.5804,0.4196	-48.37
0.3629,0.6371	-47.74
0.2789,0.7211	-47.87
0.3216,0.6784	-47.77
0.4910,0.5090	-47.97
0.4851,0.5149	-48.01
0.6050,0.3950	-48.09
0.3882,0.6118	-47.75
0.2820,0.7180	-48.79
0.3423,0.6577	-47.74
0.5071,0.4929	-48.03
0.4199,0.5801	-47.79
0.5648,0.4352	-48.29
0.4095,0.5905	-48.14
0.3102,0.6898	-47.79
0.3723,0.6277	-47.74
0.4907,0.5093	-47.97
0.4411,0.5589	-48.07
0.5796,0.4204	-48.37
0.4287,0.5713	-47.80
0.3070,0.6930	-48.61
0.4039,0.5961	-47.77
0.5128,0.4872	-48.05
0.4631,0.5369	-48.03
0.5212,0.4788	-48.00
0.4227,0.5773	-47.79
0.3270,0.6730	-48.48
0.4144,0.5856	-47.78
0.4703,0.5297	-48.02
0.4615,0.5385	-47.88
0.5431,0.4569	-48.18
0.4242,0.5758	-48.10
0.3029,0.6971	-47.80
0.3899,0.6101	-47.75
0.4956,0.5044	-48.00
0.5084,0.4916	-48.00
0.5608,0.4392	-48.02
0.4482,0.5518	-48.05
0.2767,0.7233	-47.87
0.3895,0.6105	-47.75
0.5264,0.4736	-48.11
0.5399,0.4601	-48.01
0.5358,0.4642	-48.15
0.4428,0.5572	-47.83
0.2843,0.7157	-47.85
0.3750,0.6250	-48.25
0.4968,0.5032	-48.00
0.5025,0.4975	-48.00
0.4984,0.5016	-48.00
0.4320,0.5680	-48.08
0.2982,0.7018	-47.81
0.4230,0.5770	-48.10
0.5215,0.4785	-48.00
0.5141,0.4859	-48.00
0.5072,0.4928	-48.00
0.4252,0.5748	-47.80
0.2906,0.7094	-47.83
0.4277,0.5723	-48.09
0.4776,0.5224	-47.93
0.4800,0.5200	-48.01
0.5223,0.4777	-48.09
0.4437,0.5563	-48.06
0.2640,0.7360	-47.92
0.4481,0.5519	-48.05
0.5180,0.4820	-48.07
0.5150,0.4850	-48.06
0.4964,0.5036	-47.99
0.4252,0.5748	-47.80
0.2813,0.7187	-47.86
0.4260,0.5740	-47.80
0.4981,0.5019	-48.00
0.4924,0.5076	-48.01
0.5839,0.4161	-48.05
0.4633,0.5367	-48.03
0.3050,0.6950	-47.80
0.4893,0.5107	-48.01
0.3970,0.6030	-47.76
0.4956,0.5044	-48.00
0.5561,0.4439	-48.24
0.5426,0.4574	-48.18
0.3329,0.6671	-47.75
0.4972,0.5028	-47.99
0.4522,0.5478	-47.86
0.5178,0.4822	-48.00
0.5842,0.4158	-48.05
0.5575,0.4425	-48.25
0.3649,0.6351	-47.74
0.4229,0.5771	-48.10
0.4274,0.5726	-48.09
0.4889,0.5111	-48.01
0.5897,0.4103	-48.42
0.5272,0.4728	-48.11
0.3759,0.6241	-48.25
0.4782,0.5218	-48.02
0.4628,0.5372	-48.03
0.4620,0.5380	-48.03
0.5745,0.4255	-48.04
0.4542,0.5458	-48.04
0.3884,0.6116	-47.75
0.4704,0.5296	-47.91
0.5352,0.4648	-48.00
0.5314,0.4686	-48.00
0.5740,0.4260	-48.34
0.4208,0.5792	-47.79
0.3806,0.6194	-47.74
0.5131,0.4869	-48.00
0.6019,0.3981	-48.50
0.5016,0.4984	-48.00
0.5436,0.4564	-48.01
0.4810,0.5190	-47.94
0.3671,0.6329	-47.74
0.5484,0.4516	-48.21
0.5977,0.4023	-48.08
0.5551,0.4449	-48.02
0.4690,0.5310	-47.90
0.5096,0.4904	-48.00
0.3646,0.6354	-47.74
0.5361,0.4639	-48.15
0.6192,0.3808	-48.12
0.6287,0.3713	-48.67
0.4751,0.5249	-48.02
0.5348,0.4652	-48.00
0.3784,0.6216	-47.74
0.4750,0.5250	-47.92
0.5732,0.4268	-48.04
0.6216,0.3784	-48.62
0.4643,0.5357	-47.89
0.5904,0.4096	-48.43
0.4109,0.5891	-47.77
0.4108,0.5892	-47.77
0.5331,0.4669	-48.14
0.5936,0.4064	-48.07
0.4830,0.5170	-47.94
0.6601,0.3399	-48.23
0.3773,0.6227	-47.74
0.4147,0.5853	-47.78
0.5174,0.4826	-48.00
0.6095,0.3905	-48.10
0.5156,0.4844	-48.00
0.6407,0.3593	-48.75
0.4322,0.5678	-48.08
0.4390,0.5610	-47.83
0.5448,0.4552	-48.19
0.5993,0.4007	-48.08
0.5087,0.4913	-48.00
0.6021,0.3979	-48.50
0.4648,0.5352	-47.89
0.5080,0.4920	-48.03
0.5262,0.4738	-48.11
0.5246,0.4754	-48.10
0.5234,0.4766	-48.09
0.6455,0.3545	-48.19
0.4851,0.5149	-48.01
0.5026,0.4974	-48.01
0.5545,0.4455	-48.02
0.5384,0.4616	-48.16
0.5282,0.4718	-48.11
0.6644,0.3356	-48.25
0.4753,0.5247	-47.92
0.4661,0.5339	-47.89
0.4865,0.5135	-48.01
0.5423,0.4577	-48.01
0.5341,0.4659	-48.00
0.6481,0.3519	-48.20
0.4956,0.5044	-48.00
0.5020,0.4980	-48.00
0.4570,0.5430	-47.87
0.5649,0.4351	-48.03
0.6167,0.3833	-48.11
0.6642,0.3358	-48.25
0.5013,0.4987	-48.01
0.5850,0.4150	-48.40
0.4719,0.5281	-47.91
0.5694,0.4306	-48.31
0.6316,0.3684	-48.69
0.7412,0.2588	-48.59
0.5271,0.4729	-48.11
0.6180,0.3820	-48.12
0.4024,0.5976	-48.16
0.5701,0.4299	-48.32
0.6159,0.3841	-48.58
0.7342,0.2658	-48.56
0.4839,0.5161	-47.95
0.5764,0.4236	-48.04
0.4022,0.5978	-47.76
0.6053,0.3947	-48.09
0.6170,0.3830	-48.59
0.7089,0.2911	-48.43
0.4809,0.5191	-48.01
0.5562,0.4438	-48.24
0.4152,0.5848	-47.78
0.5229,0.4771	-48.00
0.6155,0.3845	-48.58
0.7064,0.2936	-48.42
0.5460,0.4540	-48.19
0.5755,0.4245	-48.04
0.3646,0.6354	-48.29
0.5062,0.4938	-48.03
0.6347,0.3653	-48.71
0.7367,0.2633	-49.60
0.5439,0.4561	-48.01
0.6001,0.3999	-48.49
0.3798,0.6202	-48.23
0.4746,0.5254	-48.02
0.6520,0.3480	-48.84
0.7550,0.2450	-48.68
0.5703,0.4297	-48.32
0.5383,0.4617	-48.01
0.3825,0.6175	-48.22
0.4580,0.5420	-47.87
0.6601,0.3399	-48.23
0.7381,0.2619	-48.58
0.5167,0.4833	-48.07
0.5503,0.4497	-48.22
0.3558,0.6442	-47.74
0.4980,0.5020	-48.00
0.7505,0.2495	-48.65
0.7414,0.2586	-49.65
0.5113,0.4887	-48.05
0.4927,0.5073	-48.01
0.3259,0.6741	-47.76
0.5225,0.4775	-48.09
0.7224,0.2776	-48.49
0.7379,0.2621	-48.58
0.5393,0.4607	-48.01
0.4895,0.5105	-47.97
0.3522,0.6478	-47.74
0.4949,0.5051	-48.00
0.7460,0.2540	-48.62
0.6638,0.3362	-48.25
0.5978,0.4022	-48.47
0.4683,0.5317	-47.90
0.4394,0.5606	-47.83
0.4773,0.5227	-47.93
0.7263,0.2737	-48.51
0.6513,0.3487	-48.21
0.6181,0.3819	-48.12
0.4793,0.5207	-47.93
0.4255,0.5745	-48.10
0.4769,0.5231	-47.92
0.6826,0.3174	-48.32
0.5532,0.4468	-48.23
0.6607,0.3393	-48.24
0.4770,0.5230	-48.02
0.4174,0.5826	-48.12
0.4533,0.5467	-47.86
0.6800,0.3200	-49.06
0.4609,0.5391	-47.88
0.6746,0.3254	-49.01
0.5016,0.4984	-48.00
0.3866,0.6134	-47.75
0.3961,0.6039	-47.76
0.6086,0.3914	-48.10
0.4624,0.5376	-47.88
0.6158,0.3842	-48.58
0.5244,0.4756	-48.00
0.3621,0.6379	-47.74
0.4810,0.5190	-47.94
0.5633,0.4367	-48.03
0.3721,0.6279	-47.74
0.6208,0.3792	-48.62
0.5412,0.4588	-48.17
0.3866,0.6134	-48.21
0.4762,0.5238	-47.92
0.5762,0.4238	-48.04
0.3953,0.6047	-48.18
0.6113,0.3887	-48.10
0.5745,0.4255	-48.04
0.3714,0.6286	-47.74
0.4321,0.5679	-48.08
0.5614,0.4386	-48.27
0.3494,0.6506	-47.74
0.6212,0.3788	-48.12
0.6426,0.3574	-48.18
0.3814,0.6186	-47.74
0.3900,0.6100	-47.75
0.5161,0.4839	-48.06
0.3384,0.6616	-48.42
0.6067,0.3933	-48.53
0.5984,0.4016	-48.08
0.3410,0.6590	-48.40
0.4193,0.5807	-47.79
0.5626,0.4374	-48.28
0.3438,0.6562	-47.74
0.6346,0.3654	-48.16
0.6259,0.3741	-48.14
0.3272,0.6728	-47.76
0.4131,0.5869	-47.78
0.4873,0.5127	-47.96
0.3474,0.6526	-47.74
0.6162,0.3838	-48.11
0.6425,0.3575	-48.77
0.3393,0.6607	-48.41
0.4417,0.5583	-48.07
0.4804,0.5196	-48.01
0.3640,0.6360	-48.30
0.5553,0.4447	-48.02
0.7106,0.2894	-48.44
0.3569,0.6431	-47.74
0.4210,0.5790	-47.79
0.4334,0.5666	-48.08
0.4439,0.5561	-47.84
0.5641,0.4359	-48.03
0.7114,0.2886	-49.34
0.3512,0.6488	-48.35
0.4148,0.5852	-48.12
0.4150,0.5850	-47.78
0.3973,0.6027	-48.17
0.5594,0.4406	-48.26
0.7368,0.2632	-48.57
0.3588,0.6412	-47.74
0.3739,0.6261	-48.26
0.3867,0.6133	-47.75
0.4253,0.5747	-47.80
0.6215,0.3785	-48.62
0.7415,0.2585	-49.65
0.3253,0.6747	-47.76
0.4479,0.5521	-47.85
0.3869,0.6131	-48.21
0.4113,0.5887	-48.13
0.5451,0.4549	-48.01
0.7527,0.2473	-48.66
0.3319,0.6681	-47.75
0.4519,0.5481	-47.86
0.3160,0.6840	-47.78
0.4000,0.6000	-48.17
0.5242,0.4758	-48.00
0.7085,0.2915	-48.43
0.3487,0.6513	-47.74
0.4965,0.5035	-47.99
0.3313,0.6687	-47.75
0.4310,0.5690	-48.09
0.5184,0.4816	-48.00
0.7351,0.2649	-48.56
0.3344,0.6656	-47.75
0.4673,0.5327	-48.03
0.3122,0.6878	-48.57
0.4107,0.5893	-47.77
0.4899,0.5101	-48.01
0.6849,0.3151	-49.10
0.2948,0.7052	-47.82
0.4781,0.5219	-47.93
0.3729,0.6271	-47.74
0.3649,0.6351	-47.74
0.4845,0.5155	-48.01
0.6902,0.3098	-49.15
0.2674,0.7326	-47.91
0.4368,0.5632	-47.82
0.4620,0.5380	-48.03
0.3577,0.6423	-47.74
0.4977,0.5023	-48.00
0.6343,0.3657	-48.16
0.2905,0.7095	-48.72
0.3801,0.6199	-47.74
0.4443,0.5557	-47.84
0.3265,0.6735	-48.48
0.4588,0.5412	-48.04
0.6198,0.3802	-48.12
0.3230,0.6770	-47.76
0.4249,0.5751	-47.80
0.4932,0.5068	-47.98
0.3417,0.6583	-47.75
0.3548,0.6452	-48.34
0.5894,0.4106	-48.06
0.3737,0.6263	-48.26
0.3700,0.6300	-47.74
0.4654,0.5346	-47.89
0.3355,0.6645	-47.75
0.4040,0.5960	-47.77
0.5004,0.4996	-48.00
0.3394,0.6606	-48.41
0.3688,0.6312	-48.28
0.4758,0.5242	-48.02
0.4207,0.5793	-47.79
0.3867,0.6133	-47.75
0.4777,0.5223	-48.02
0.3362,0.6638	-47.75
0.3537,0.6463	-48.34
0.4441,0.5559	-48.06
0.4616,0.5384	-47.88
0.3465,0.6535	-48.38
0.5081,0.4919	-48.00
0.3181,0.6819	-47.77
0.3132,0.6868	-47.78
0.4887,0.5113	-48.01
0.4846,0.5154	-48.01
0.3924,0.6076	-48.19
0.4974,0.5026	-47.99
0.3259,0.6741	-47.76
0.2646,0.7354	-47.92
0.5545,0.4455	-48.02
0.4538,0.5462	-47.86
0.4297,0.5703	-48.09
0.5113,0.4887	-48.05
0.3243,0.6757	-47.76
0.3025,0.6975	-47.80
0.5070,0.4930	-48.03
0.4778,0.5222	-47.93
0.4184,0.5816	-47.79
0.5590,0.4410	-48.02
0.2474,0.7526	-48.00
0.2808,0.7192	-48.80
0.5789,0.4211	-48.36
0.4890,0.5110	-48.01
0.4047,0.5953	-47.77
0.5405,0.4595	-48.01
0.2391,0.7609	-48.04
0.3060,0.6940	-47.79
0.5874,0.4126	-48.06
0.4833,0.5167	-48.01
0.3897,0.6103	-47.75
0.5284,0.4716	-48.12
0.3211,0.6789	-47.77
0.3127,0.6873	-48.57
0.5725,0.4275	-48.04
0.5177,0.4823	-48.00
0.4310,0.5690	-47.81
0.5452,0.4548	-48.19
0.3181,0.6819	-47.77
0.3858,0.6142	-47.75
0.6342,0.3658	-48.71
0.5776,0.4224	-48.04
0.3985,0.6015	-47.76
0.5853,0.4147	-48.05
0.2901,0.7099	-47.83
0.3575,0.6425	-48.32
0.6015,0.3985	-48.49
0.5126,0.4874	-48.00
0.3380,0.6620	-48.42
0.6329,0.3671	-48.15
0.2889,0.7111	-47.84
0.4054,0.5946	-47.77
0.6237,0.3763	-48.13
0.5177,0.4823	-48.00
0.3315,0.6685	-47.75
0.6397,0.3603	-48.75
0.2544,0.7456	-49.04
0.4041,0.5959	-47.77
0.5515,0.4485	-48.22
0.5030,0.4970	-48.00
0.3843,0.6157	-48.22
0.6791,0.3209	-48.30
0.2202,0.7798	-48.16
0.3650,0.6350	-47.74
0.5570,0.4430	-48.25
0.5336,0.4664	-48.00
0.3715,0.6285	-47.74
0.6817,0.3183	-48.31
0.2363,0.7637	-48.06
0.3478,0.6522	-48.37
0.5599,0.4401	-48.26
0.5195,0.4805	-48.00
0.3396,0.6604	-48.41
0.6423,0.3577	-48.18
0.2089,0.7911	-48.25
0.3087,0.6913	-47.79
0.5882,0.4118	-48.42
0.5383,0.4617	-48.01
0.3473,0.6527	-48.37
0.6455,0.3545	-48.19
0.2318,0.7682	-49.28
0.2950,0.7050	-48.69
0.5860,0.4140	-48.06
0.4799,0.5201	-47.93
0.3049,0.6951	-47.80
0.6701,0.3299	-48.27
0.2298,0.7702	-48.10
0.3132,0.6868	-47.78
0.6051,0.3949	-48.09
0.4613,0.5387	-48.03
0.3280,0.6720	-47.76
0.6506,0.3494	-48.83
0.2021,0.7979	-48.30
0.2856,0.7144	-47.85
0.6051,0.3949	-48.09
0.4777,0.5223	-47.93
0.3274,0.6726	-47.76
0.6462,0.3538	-48.19
0.1999,0.8001	-48.32
0.2192,0.7808	-48.17
0.6219,0.3781	-48.13
0.4337,0.5663	-48.08
0.3713,0.6287	-48.27
0.6017,0.3983	-48.50
0.2167,0.7833	-48.19
0.1975,0.8025	-48.34
0.6046,0.3954	-48.09
0.4608,0.5392	-47.88
0.3370,0.6630	-48.43
0.5950,0.4050	-48.07
0.2248,0.7752	-49.37
0.2490,0.7510	-47.99
0.5290,0.4710	-48.12
0.4767,0.5233	-48.02
0.3653,0.6347	-47.74
0.5754,0.4246	-48.04
0.2156,0.7844	-49.49
0.3059,0.6941	-48.61
0.5068,0.4932	-48.03
0.4866,0.5134	-47.96
0.3486,0.6514	-47.74
0.6564,0.3436	-48.22
0.2590,0.7410	-47.94
0.2790,0.7210	-47.87
0.5135,0.4865	-48.05
0.4509,0.5491	-47.85
0.3763,0.6237	-48.25
0.6523,0.3477	-48.21
0.2346,0.7654	-49.25
0.2809,0.7191	-47.86
