#isoforms=['ENSG00000101294.SE.1.A.up_ENSG00000101294.SE.1.A.SE1_ENSG00000101294.SE.1.A.dn','ENSG00000101294.SE.1.B.up_ENSG00000101294.SE.1.B.dn']	exon_lens=('ENSG00000101294.SE.1.A.up',99),('ENSG00000101294.SE.1.A.SE1',376),('ENSG00000101294.SE.1.A.dn',89),('ENSG00000101294.SE.1.B.up',99),('ENSG00000101294.SE.1.B.dn',89)	iters=5000	burn_in=500	lag=10	percent_accept=97.68	proposal_type=drift	counts=(0,0):3136,(1,0):564	assigned_counts=0:564	chrom=chr20	strand=+	mRNA_starts=31527484,31527484	mRNA_ends=31545035,31545035
sampled_psi	log_score
0.9563,0.0437	-3402.36
0.9368,0.0632	-3403.51
0.9751,0.0249	-3401.30
0.9550,0.0450	-3402.44
0.9703,0.0297	-3401.57
0.9456,0.0544	-3402.99
0.9586,0.0414	-3402.23
0.9354,0.0646	-3403.60
0.9751,0.0249	-3401.30
0.9600,0.0400	-3402.15
0.9755,0.0245	-3401.28
0.9453,0.0547	-3403.01
0.9555,0.0445	-3402.41
0.9507,0.0493	-3402.69
0.9766,0.0234	-3401.22
0.9619,0.0381	-3402.04
0.9762,0.0238	-3401.24
0.9358,0.0642	-3403.57
0.9534,0.0466	-3402.54
0.9410,0.0590	-3403.26
0.9789,0.0211	-3401.09
0.9535,0.0465	-3402.53
0.9794,0.0206	-3401.06
0.9366,0.0634	-3403.53
0.9516,0.0484	-3402.64
0.9424,0.0576	-3403.18
0.9845,0.0155	-3400.78
0.9624,0.0376	-3402.02
0.9815,0.0185	-3400.95
0.9374,0.0626	-3403.48
0.9577,0.0423	-3402.29
0.9417,0.0583	-3403.22
0.9872,0.0128	-3400.64
0.9670,0.0330	-3401.75
0.9807,0.0193	-3400.99
0.9254,0.0746	-3404.21
0.9497,0.0503	-3402.75
0.9559,0.0441	-3402.39
0.9845,0.0155	-3400.78
0.9629,0.0371	-3401.99
0.9807,0.0193	-3400.99
0.9316,0.0684	-3403.82
0.9486,0.0514	-3402.81
0.9622,0.0378	-3402.03
0.9821,0.0179	-3400.91
0.9611,0.0389	-3402.09
0.9788,0.0212	-3401.10
0.9398,0.0602	-3403.33
0.9401,0.0599	-3403.31
0.9635,0.0365	-3401.95
0.9836,0.0164	-3400.83
0.9673,0.0327	-3401.74
0.9773,0.0227	-3401.18
0.9348,0.0652	-3403.63
0.9323,0.0677	-3403.78
0.9684,0.0316	-3401.67
0.9854,0.0146	-3400.74
0.9649,0.0351	-3401.88
0.9778,0.0222	-3401.15
0.9460,0.0540	-3402.97
0.9451,0.0549	-3403.02
0.9652,0.0348	-3401.85
0.9882,0.0118	-3400.58
0.9711,0.0289	-3401.53
0.9765,0.0235	-3401.22
0.9527,0.0473	-3402.58
0.9392,0.0608	-3403.37
0.9625,0.0375	-3402.01
0.9876,0.0124	-3400.61
0.9601,0.0399	-3402.15
0.9762,0.0238	-3401.24
0.9490,0.0510	-3402.79
0.9444,0.0556	-3403.06
0.9549,0.0451	-3402.45
0.9864,0.0136	-3400.68
0.9562,0.0438	-3402.37
0.9810,0.0190	-3400.97
0.9619,0.0381	-3402.05
0.9474,0.0526	-3402.88
0.9612,0.0388	-3402.09
0.9865,0.0135	-3400.67
0.9598,0.0402	-3402.16
0.9830,0.0170	-3400.86
0.9662,0.0338	-3401.80
0.9619,0.0381	-3402.04
0.9643,0.0357	-3401.91
0.9863,0.0137	-3400.68
0.9605,0.0395	-3402.12
0.9816,0.0184	-3400.94
0.9606,0.0394	-3402.12
0.9530,0.0470	-3402.56
0.9657,0.0343	-3401.83
0.9820,0.0180	-3400.92
0.9618,0.0382	-3402.05
0.9843,0.0157	-3400.79
0.9612,0.0388	-3402.09
0.9429,0.0571	-3403.15
0.9704,0.0296	-3401.56
0.9843,0.0157	-3400.79
0.9562,0.0438	-3402.37
0.9817,0.0183	-3400.93
0.9574,0.0426	-3402.31
0.9550,0.0450	-3402.44
0.9663,0.0337	-3401.79
0.9831,0.0169	-3400.86
0.9619,0.0381	-3402.04
0.9800,0.0200	-3401.03
0.9560,0.0440	-3402.38
0.9542,0.0458	-3402.49
0.9606,0.0394	-3402.12
0.9815,0.0185	-3400.95
0.9611,0.0389	-3402.09
0.9753,0.0247	-3401.29
0.9523,0.0477	-3402.60
0.9580,0.0420	-3402.27
0.9594,0.0406	-3402.19
0.9833,0.0167	-3400.85
0.9603,0.0397	-3402.13
0.9705,0.0295	-3401.56
0.9581,0.0419	-3402.26
0.9544,0.0456	-3402.48
0.9600,0.0400	-3402.16
0.9843,0.0157	-3400.80
0.9611,0.0389	-3402.09
0.9673,0.0327	-3401.74
0.9596,0.0404	-3402.17
0.9592,0.0408	-3402.20
0.9556,0.0444	-3402.41
0.9851,0.0149	-3400.75
0.9619,0.0381	-3402.04
0.9688,0.0312	-3401.65
0.9586,0.0414	-3402.23
0.9656,0.0344	-3401.84
0.9452,0.0548	-3403.01
0.9867,0.0133	-3400.66
0.9617,0.0383	-3402.05
0.9732,0.0268	-3401.41
0.9530,0.0470	-3402.56
0.9667,0.0333	-3401.77
0.9601,0.0399	-3402.14
0.9825,0.0175	-3400.89
0.9615,0.0385	-3402.07
0.9756,0.0244	-3401.27
0.9639,0.0361	-3401.93
0.9602,0.0398	-3402.14
0.9718,0.0282	-3401.48
0.9796,0.0204	-3401.05
0.9596,0.0404	-3402.18
0.9797,0.0203	-3401.04
0.9589,0.0411	-3402.21
0.9646,0.0354	-3401.89
0.9707,0.0293	-3401.55
0.9800,0.0200	-3401.03
0.9633,0.0367	-3401.96
0.9800,0.0200	-3401.03
0.9635,0.0365	-3401.96
0.9656,0.0344	-3401.83
0.9737,0.0263	-3401.38
0.9794,0.0206	-3401.06
0.9638,0.0362	-3401.94
0.9798,0.0202	-3401.04
0.9646,0.0354	-3401.89
0.9602,0.0398	-3402.14
0.9715,0.0285	-3401.50
0.9831,0.0169	-3400.86
0.9578,0.0422	-3402.28
0.9775,0.0225	-3401.17
0.9542,0.0458	-3402.49
0.9613,0.0387	-3402.08
0.9781,0.0219	-3401.14
0.9824,0.0176	-3400.90
0.9664,0.0336	-3401.79
0.9812,0.0188	-3400.96
0.9599,0.0401	-3402.16
0.9657,0.0343	-3401.83
0.9783,0.0217	-3401.12
0.9854,0.0146	-3400.74
0.9720,0.0280	-3401.47
0.9820,0.0180	-3400.92
0.9647,0.0353	-3401.88
0.9543,0.0457	-3402.48
0.9777,0.0223	-3401.16
0.9848,0.0152	-3400.77
0.9735,0.0265	-3401.39
0.9823,0.0177	-3400.91
0.9507,0.0493	-3402.69
0.9538,0.0462	-3402.51
0.9758,0.0242	-3401.26
0.9875,0.0125	-3400.62
0.9674,0.0326	-3401.74
0.9854,0.0146	-3400.73
0.9502,0.0498	-3402.72
0.9462,0.0538	-3402.95
0.9736,0.0264	-3401.38
0.9852,0.0148	-3400.74
0.9714,0.0286	-3401.51
0.9863,0.0137	-3400.68
0.9506,0.0494	-3402.70
0.9500,0.0500	-3402.73
0.9732,0.0268	-3401.41
0.9867,0.0133	-3400.66
0.9611,0.0389	-3402.09
0.9853,0.0147	-3400.74
0.9592,0.0408	-3402.20
0.9438,0.0562	-3403.10
0.9788,0.0212	-3401.10
0.9896,0.0104	-3400.51
0.9527,0.0473	-3402.57
0.9808,0.0192	-3400.99
0.9640,0.0360	-3401.92
0.9296,0.0704	-3403.95
0.9739,0.0261	-3401.37
0.9882,0.0118	-3400.58
0.9542,0.0458	-3402.49
0.9852,0.0148	-3400.75
0.9678,0.0322	-3401.71
0.9146,0.0854	-3404.88
0.9788,0.0212	-3401.10
0.9914,0.0086	-3400.41
0.9630,0.0370	-3401.98
0.9864,0.0136	-3400.68
0.9728,0.0272	-3401.43
0.9136,0.0864	-3404.94
0.9781,0.0219	-3401.13
0.9924,0.0076	-3400.35
0.9632,0.0368	-3401.97
0.9855,0.0145	-3400.73
0.9666,0.0334	-3401.78
0.9084,0.0916	-3405.27
0.9788,0.0212	-3401.09
0.9932,0.0068	-3400.31
0.9627,0.0373	-3402.00
0.9853,0.0147	-3400.74
0.9692,0.0308	-3401.63
0.9158,0.0842	-3404.80
0.9797,0.0203	-3401.05
0.9944,0.0056	-3400.25
0.9536,0.0464	-3402.52
0.9847,0.0153	-3400.77
0.9692,0.0308	-3401.63
0.9265,0.0735	-3404.14
0.9815,0.0185	-3400.95
0.9917,0.0083	-3400.39
0.9587,0.0413	-3402.23
0.9889,0.0111	-3400.54
0.9712,0.0288	-3401.52
0.9192,0.0808	-3404.59
0.9830,0.0170	-3400.87
0.9918,0.0082	-3400.38
0.9601,0.0399	-3402.15
0.9875,0.0125	-3400.62
0.9661,0.0339	-3401.81
0.9213,0.0787	-3404.46
0.9837,0.0163	-3400.83
0.9925,0.0075	-3400.35
0.9587,0.0413	-3402.23
0.9869,0.0131	-3400.65
0.9697,0.0303	-3401.60
0.9203,0.0797	-3404.52
0.9826,0.0174	-3400.88
0.9926,0.0074	-3400.35
0.9667,0.0333	-3401.77
0.9827,0.0173	-3400.88
0.9752,0.0248	-3401.30
0.9236,0.0764	-3404.32
0.9795,0.0205	-3401.06
0.9919,0.0081	-3400.38
0.9744,0.0256	-3401.34
0.9817,0.0183	-3400.94
0.9778,0.0222	-3401.15
0.9139,0.0861	-3404.92
0.9819,0.0181	-3400.92
0.9906,0.0094	-3400.45
0.9757,0.0243	-3401.27
0.9811,0.0189	-3400.97
0.9748,0.0252	-3401.32
0.9009,0.0991	-3405.75
0.9845,0.0155	-3400.78
0.9903,0.0097	-3400.47
0.9758,0.0242	-3401.26
0.9849,0.0151	-3400.76
0.9681,0.0319	-3401.70
0.8885,0.1115	-3406.56
0.9851,0.0149	-3400.75
0.9926,0.0074	-3400.35
0.9752,0.0248	-3401.30
0.9802,0.0198	-3401.02
0.9604,0.0396	-3402.13
0.8984,0.1016	-3405.91
0.9854,0.0146	-3400.74
0.9941,0.0059	-3400.26
0.9741,0.0259	-3401.35
0.9762,0.0238	-3401.24
0.9656,0.0344	-3401.83
0.9227,0.0773	-3404.37
0.9863,0.0137	-3400.68
0.9937,0.0063	-3400.29
0.9760,0.0240	-3401.25
0.9767,0.0233	-3401.21
0.9671,0.0329	-3401.75
0.9195,0.0805	-3404.57
0.9891,0.0109	-3400.53
0.9951,0.0049	-3400.21
0.9786,0.0214	-3401.11
0.9759,0.0241	-3401.26
0.9721,0.0279	-3401.47
0.9116,0.0884	-3405.06
0.9893,0.0107	-3400.52
0.9949,0.0051	-3400.22
0.9806,0.0194	-3401.00
0.9687,0.0313	-3401.66
0.9716,0.0284	-3401.50
0.9243,0.0757	-3404.27
0.9875,0.0125	-3400.62
0.9936,0.0064	-3400.29
0.9806,0.0194	-3401.00
0.9687,0.0313	-3401.66
0.9743,0.0257	-3401.34
0.9190,0.0810	-3404.60
0.9855,0.0145	-3400.73
0.9914,0.0086	-3400.41
0.9836,0.0164	-3400.83
0.9696,0.0304	-3401.61
0.9772,0.0228	-3401.18
0.9132,0.0868	-3404.96
0.9856,0.0144	-3400.72
0.9895,0.0105	-3400.51
0.9811,0.0189	-3400.97
0.9686,0.0314	-3401.67
0.9771,0.0229	-3401.19
0.9174,0.0826	-3404.70
0.9881,0.0119	-3400.59
0.9889,0.0111	-3400.54
0.9764,0.0236	-3401.23
0.9672,0.0328	-3401.75
0.9793,0.0207	-3401.07
0.9342,0.0658	-3403.67
0.9900,0.0100	-3400.48
0.9894,0.0106	-3400.52
0.9706,0.0294	-3401.55
0.9626,0.0374	-3402.00
0.9786,0.0214	-3401.11
0.9538,0.0462	-3402.51
0.9909,0.0091	-3400.44
0.9901,0.0099	-3400.48
0.9752,0.0248	-3401.29
0.9594,0.0406	-3402.19
0.9775,0.0225	-3401.17
0.9550,0.0450	-3402.44
0.9907,0.0093	-3400.45
0.9917,0.0083	-3400.39
0.9793,0.0207	-3401.07
0.9585,0.0415	-3402.24
0.9733,0.0267	-3401.40
0.9622,0.0378	-3402.03
0.9909,0.0091	-3400.43
0.9922,0.0078	-3400.37
0.9810,0.0190	-3400.97
0.9699,0.0301	-3401.59
0.9683,0.0317	-3401.68
0.9588,0.0412	-3402.22
0.9936,0.0064	-3400.29
0.9905,0.0095	-3400.45
0.9779,0.0221	-3401.14
0.9683,0.0317	-3401.68
0.9651,0.0349	-3401.86
0.9591,0.0409	-3402.21
0.9928,0.0072	-3400.34
0.9896,0.0104	-3400.50
0.9794,0.0206	-3401.06
0.9683,0.0317	-3401.68
0.9681,0.0319	-3401.69
0.9602,0.0398	-3402.14
0.9912,0.0088	-3400.42
0.9891,0.0109	-3400.53
0.9785,0.0215	-3401.11
0.9679,0.0321	-3401.70
0.9689,0.0311	-3401.65
0.9546,0.0454	-3402.47
0.9908,0.0092	-3400.44
0.9918,0.0082	-3400.39
0.9773,0.0227	-3401.18
0.9649,0.0351	-3401.88
0.9748,0.0252	-3401.31
0.9557,0.0443	-3402.40
0.9913,0.0087	-3400.42
0.9911,0.0089	-3400.43
0.9729,0.0271	-3401.42
0.9559,0.0441	-3402.39
0.9706,0.0294	-3401.55
0.9524,0.0476	-3402.59
0.9895,0.0105	-3400.51
0.9915,0.0085	-3400.40
0.9710,0.0290	-3401.53
0.9567,0.0433	-3402.34
0.9667,0.0333	-3401.77
0.9560,0.0440	-3402.38
0.9879,0.0121	-3400.60
0.9915,0.0085	-3400.40
0.9729,0.0271	-3401.42
0.9562,0.0438	-3402.37
0.9677,0.0323	-3401.72
0.9514,0.0486	-3402.65
0.9895,0.0105	-3400.51
0.9932,0.0068	-3400.31
0.9654,0.0346	-3401.85
0.9544,0.0456	-3402.47
0.9616,0.0384	-3402.06
0.9410,0.0590	-3403.26
0.9904,0.0096	-3400.46
0.9933,0.0067	-3400.31
0.9732,0.0268	-3401.41
0.9530,0.0470	-3402.56
0.9627,0.0373	-3402.00
0.9506,0.0494	-3402.70
0.9898,0.0102	-3400.49
0.9928,0.0072	-3400.33
0.9752,0.0248	-3401.30
0.9471,0.0529	-3402.90
0.9636,0.0364	-3401.95
0.9568,0.0432	-3402.34
0.9880,0.0120	-3400.59
0.9915,0.0085	-3400.40
0.9727,0.0273	-3401.43
0.9421,0.0579	-3403.20
0.9590,0.0410	-3402.21
0.9524,0.0476	-3402.59
0.9853,0.0147	-3400.74
0.9922,0.0078	-3400.36
0.9792,0.0208	-3401.07
0.9346,0.0654	-3403.65
0.9522,0.0478	-3402.61
0.9345,0.0655	-3403.65
0.9823,0.0177	-3400.90
0.9926,0.0074	-3400.35
0.9734,0.0266	-3401.39
0.9385,0.0615	-3403.41
0.9655,0.0345	-3401.84
0.9543,0.0457	-3402.48
0.9800,0.0200	-3401.03
0.9918,0.0082	-3400.39
0.9770,0.0230	-3401.20
0.9411,0.0589	-3403.26
0.9663,0.0337	-3401.79
0.9515,0.0485	-3402.65
0.9817,0.0183	-3400.93
0.9940,0.0060	-3400.27
0.9768,0.0232	-3401.21
0.9455,0.0545	-3403.00
0.9717,0.0283	-3401.49
0.9556,0.0444	-3402.41
0.9820,0.0180	-3400.92
0.9944,0.0056	-3400.25
0.9784,0.0216	-3401.12
0.9486,0.0514	-3402.81
0.9737,0.0263	-3401.38
0.9461,0.0539	-3402.96
0.9807,0.0193	-3400.99
0.9940,0.0060	-3400.27
0.9791,0.0209	-3401.08
0.9414,0.0586	-3403.24
0.9713,0.0287	-3401.51
0.9414,0.0586	-3403.24
0.9776,0.0224	-3401.16
0.9943,0.0057	-3400.25
0.9778,0.0222	-3401.15
0.9460,0.0540	-3402.97
0.9754,0.0246	-3401.29
0.9479,0.0521	-3402.86
0.9734,0.0266	-3401.39
0.9951,0.0049	-3400.21
0.9721,0.0279	-3401.47
0.9457,0.0543	-3402.99
0.9789,0.0211	-3401.09
0.9475,0.0525	-3402.88
0.9710,0.0290	-3401.53
0.9953,0.0047	-3400.20
0.9635,0.0365	-3401.95
0.9503,0.0497	-3402.71
0.9824,0.0176	-3400.90
0.9485,0.0515	-3402.82
0.9758,0.0242	-3401.26
0.9952,0.0048	-3400.21
0.9633,0.0367	-3401.96
0.9614,0.0386	-3402.08
0.9868,0.0132	-3400.66
0.9391,0.0609	-3403.37
0.9785,0.0215	-3401.11
0.9954,0.0046	-3400.19
0.9604,0.0396	-3402.13
0.9590,0.0410	-3402.21
0.9884,0.0116	-3400.57
0.9431,0.0569	-3403.14
0.9729,0.0271	-3401.42
0.9951,0.0049	-3400.21
0.9646,0.0354	-3401.89
0.9544,0.0456	-3402.48
0.9907,0.0093	-3400.45
0.9398,0.0602	-3403.33
0.9746,0.0254	-3401.33
0.9937,0.0063	-3400.28
0.9717,0.0283	-3401.49
0.9624,0.0376	-3402.01
0.9922,0.0078	-3400.36
0.9374,0.0626	-3403.48
0.9728,0.0272	-3401.43
0.9949,0.0051	-3400.22
0.9721,0.0279	-3401.47
0.9722,0.0278	-3401.46
0.9936,0.0064	-3400.29
0.9517,0.0483	-3402.63
0.9717,0.0283	-3401.49
0.9960,0.0040	-3400.16
0.9683,0.0317	-3401.68
0.9733,0.0267	-3401.40
0.9936,0.0064	-3400.29
0.9535,0.0465	-3402.53
0.9727,0.0273	-3401.44
0.9956,0.0044	-3400.18
0.9665,0.0335	-3401.78
0.9770,0.0230	-3401.20
0.9931,0.0069	-3400.32
0.9541,0.0459	-3402.50
0.9748,0.0252	-3401.32
0.9968,0.0032	-3400.12
0.9690,0.0310	-3401.64
0.9807,0.0193	-3400.99
0.9938,0.0062	-3400.28
0.9590,0.0410	-3402.21
0.9795,0.0205	-3401.06
0.9976,0.0024	-3400.08
0.9637,0.0363	-3401.94
0.9824,0.0176	-3400.90
0.9937,0.0063	-3400.28
0.9630,0.0370	-3401.98
0.9788,0.0212	-3401.10
0.9970,0.0030	-3400.11
0.9669,0.0331	-3401.76
0.9844,0.0156	-3400.79
0.9943,0.0057	-3400.25
0.9648,0.0352	-3401.88
0.9797,0.0203	-3401.05
0.9975,0.0025	-3400.08
0.9683,0.0317	-3401.68
0.9811,0.0189	-3400.97
0.9955,0.0045	-3400.19
0.9622,0.0378	-3402.03
0.9830,0.0170	-3400.86
0.9977,0.0023	-3400.07
0.9797,0.0203	-3401.04
0.9850,0.0150	-3400.76
0.9951,0.0049	-3400.21
0.9636,0.0364	-3401.95
0.9851,0.0149	-3400.75
0.9980,0.0020	-3400.06
0.9774,0.0226	-3401.17
0.9858,0.0142	-3400.71
0.9938,0.0062	-3400.28
0.9632,0.0368	-3401.97
0.9874,0.0126	-3400.63
0.9981,0.0019	-3400.05
0.9763,0.0237	-3401.23
0.9858,0.0142	-3400.71
0.9933,0.0067	-3400.31
0.9680,0.0320	-3401.70
0.9890,0.0110	-3400.54
0.9983,0.0017	-3400.04
0.9747,0.0253	-3401.32
0.9852,0.0148	-3400.75
0.9935,0.0065	-3400.29
0.9693,0.0307	-3401.62
0.9889,0.0111	-3400.54
0.9983,0.0017	-3400.04
0.9752,0.0248	-3401.29
0.9871,0.0129	-3400.64
0.9945,0.0055	-3400.24
0.9626,0.0374	-3402.01
0.9890,0.0110	-3400.54
0.9986,0.0014	-3400.02
0.9731,0.0269	-3401.41
0.9873,0.0127	-3400.63
0.9951,0.0049	-3400.21
0.9634,0.0366	-3401.96
0.9882,0.0118	-3400.58
0.9985,0.0015	-3400.03
0.9747,0.0253	-3401.32
0.9894,0.0106	-3400.52
0.9947,0.0053	-3400.23
0.9611,0.0389	-3402.09
0.9884,0.0116	-3400.57
0.9986,0.0014	-3400.02
0.9599,0.0401	-3402.16
0.9924,0.0076	-3400.35
0.9939,0.0061	-3400.27
0.9533,0.0467	-3402.54
0.9884,0.0116	-3400.57
0.9984,0.0016	-3400.03
0.9558,0.0442	-3402.39
0.9933,0.0067	-3400.31
0.9941,0.0059	-3400.26
0.9518,0.0482	-3402.63
0.9888,0.0112	-3400.55
0.9985,0.0015	-3400.03
0.9540,0.0460	-3402.50
0.9931,0.0069	-3400.32
0.9941,0.0059	-3400.27
0.9378,0.0622	-3403.45
0.9901,0.0099	-3400.48
0.9985,0.0015	-3400.03
0.9404,0.0596	-3403.30
0.9921,0.0079	-3400.37
0.9943,0.0057	-3400.25
0.9442,0.0558	-3403.07
0.9878,0.0122	-3400.60
0.9989,0.0011	-3400.01
0.9402,0.0598	-3403.31
0.9910,0.0090	-3400.43
0.9932,0.0068	-3400.31
0.9462,0.0538	-3402.96
0.9861,0.0139	-3400.69
0.9990,0.0010	-3400.00
0.9536,0.0464	-3402.52
0.9913,0.0087	-3400.41
0.9938,0.0062	-3400.28
0.9641,0.0359	-3401.92
0.9851,0.0149	-3400.75
0.9990,0.0010	-3400.00
0.9651,0.0349	-3401.87
0.9909,0.0091	-3400.44
0.9940,0.0060	-3400.27
0.9675,0.0325	-3401.73
0.9889,0.0111	-3400.54
0.9991,0.0009	-3400.00
0.9664,0.0336	-3401.79
0.9895,0.0105	-3400.51
0.9952,0.0048	-3400.21
0.9674,0.0326	-3401.73
0.9897,0.0103	-3400.50
0.9992,0.0008	-3399.99
0.9587,0.0413	-3402.23
0.9875,0.0125	-3400.62
0.9949,0.0051	-3400.22
0.9622,0.0378	-3402.03
0.9919,0.0081	-3400.38
0.9994,0.0006	-3399.98
0.9530,0.0470	-3402.56
0.9870,0.0130	-3400.65
0.9958,0.0042	-3400.17
0.9610,0.0390	-3402.10
0.9909,0.0091	-3400.43
0.9994,0.0006	-3399.98
0.9485,0.0515	-3402.82
0.9859,0.0141	-3400.70
0.9961,0.0039	-3400.16
0.9555,0.0445	-3402.41
0.9913,0.0087	-3400.41
0.9994,0.0006	-3399.98
0.9643,0.0357	-3401.91
0.9825,0.0175	-3400.89
0.9955,0.0045	-3400.19
0.9556,0.0444	-3402.41
0.9902,0.0098	-3400.47
0.9996,0.0004	-3399.97
0.9691,0.0309	-3401.64
0.9852,0.0148	-3400.75
0.9969,0.0031	-3400.11
0.9551,0.0449	-3402.43
0.9918,0.0082	-3400.39
0.9995,0.0005	-3399.98
0.9661,0.0339	-3401.80
0.9829,0.0171	-3400.87
0.9970,0.0030	-3400.11
0.9630,0.0370	-3401.98
0.9891,0.0109	-3400.53
0.9994,0.0006	-3399.98
0.9630,0.0370	-3401.98
0.9775,0.0225	-3401.17
0.9970,0.0030	-3400.11
0.9662,0.0338	-3401.80
0.9857,0.0143	-3400.72
0.9995,0.0005	-3399.98
0.9648,0.0352	-3401.88
0.9752,0.0248	-3401.29
0.9968,0.0032	-3400.12
0.9669,0.0331	-3401.76
0.9829,0.0171	-3400.87
0.9995,0.0005	-3399.98
0.9679,0.0321	-3401.71
0.9747,0.0253	-3401.32
0.9971,0.0029	-3400.10
0.9612,0.0388	-3402.08
0.9828,0.0172	-3400.88
0.9995,0.0005	-3399.97
0.9754,0.0246	-3401.28
0.9756,0.0244	-3401.27
0.9969,0.0031	-3400.12
0.9562,0.0438	-3402.37
0.9847,0.0153	-3400.77
0.9996,0.0004	-3399.97
0.9785,0.0215	-3401.11
0.9805,0.0195	-3401.00
0.9962,0.0038	-3400.15
0.9513,0.0487	-3402.66
0.9836,0.0164	-3400.83
0.9996,0.0004	-3399.97
0.9772,0.0228	-3401.18
0.9811,0.0189	-3400.97
0.9965,0.0035	-3400.14
0.9541,0.0459	-3402.49
0.9865,0.0135	-3400.68
0.9995,0.0005	-3399.98
0.9810,0.0190	-3400.97
0.9805,0.0195	-3401.00
0.9954,0.0046	-3400.19
0.9562,0.0438	-3402.37
0.9857,0.0143	-3400.72
0.9996,0.0004	-3399.97
0.9817,0.0183	-3400.94
0.9834,0.0166	-3400.84
0.9957,0.0043	-3400.18
0.9599,0.0401	-3402.16
0.9838,0.0162	-3400.82
0.9995,0.0005	-3399.98
0.9834,0.0166	-3400.84
0.9861,0.0139	-3400.69
0.9955,0.0045	-3400.19
0.9611,0.0389	-3402.09
0.9837,0.0163	-3400.83
0.9995,0.0005	-3399.98
0.9865,0.0135	-3400.67
0.9867,0.0133	-3400.66
0.9960,0.0040	-3400.16
0.9546,0.0454	-3402.46
0.9842,0.0158	-3400.80
0.9994,0.0006	-3399.98
0.9863,0.0137	-3400.69
0.9840,0.0160	-3400.81
0.9954,0.0046	-3400.19
0.9535,0.0465	-3402.53
0.9856,0.0144	-3400.72
0.9994,0.0006	-3399.98
0.9885,0.0115	-3400.57
0.9861,0.0139	-3400.70
0.9951,0.0049	-3400.21
0.9545,0.0455	-3402.47
0.9857,0.0143	-3400.72
0.9994,0.0006	-3399.98
0.9893,0.0107	-3400.52
0.9875,0.0125	-3400.62
0.9960,0.0040	-3400.16
0.9576,0.0424	-3402.29
0.9864,0.0136	-3400.68
0.9995,0.0005	-3399.98
0.9896,0.0104	-3400.51
0.9887,0.0113	-3400.55
0.9922,0.0078	-3400.37
0.9667,0.0333	-3401.77
0.9829,0.0171	-3400.87
0.9993,0.0007	-3399.98
0.9904,0.0096	-3400.46
0.9864,0.0136	-3400.68
0.9929,0.0071	-3400.33
0.9666,0.0334	-3401.78
0.9859,0.0141	-3400.71
0.9993,0.0007	-3399.98
0.9903,0.0097	-3400.47
0.9833,0.0167	-3400.85
0.9923,0.0077	-3400.36
0.9745,0.0255	-3401.33
0.9869,0.0131	-3400.65
0.9991,0.0009	-3400.00
0.9898,0.0102	-3400.50
0.9840,0.0160	-3400.81
0.9914,0.0086	-3400.41
0.9732,0.0268	-3401.41
0.9861,0.0139	-3400.70
0.9992,0.0008	-3399.99
0.9851,0.0149	-3400.75
0.9830,0.0170	-3400.86
0.9899,0.0101	-3400.49
0.9705,0.0295	-3401.56
0.9882,0.0118	-3400.58
0.9993,0.0007	-3399.99
0.9842,0.0158	-3400.80
0.9816,0.0184	-3400.94
0.9916,0.0084	-3400.40
0.9723,0.0277	-3401.46
0.9882,0.0118	-3400.58
0.9993,0.0007	-3399.99
0.9858,0.0142	-3400.71
0.9710,0.0290	-3401.53
0.9914,0.0086	-3400.41
0.9793,0.0207	-3401.07
0.9890,0.0110	-3400.54
0.9992,0.0008	-3399.99
0.9858,0.0142	-3400.71
0.9706,0.0294	-3401.55
0.9908,0.0092	-3400.44
0.9790,0.0210	-3401.08
0.9891,0.0109	-3400.53
0.9992,0.0008	-3399.99
0.9848,0.0152	-3400.77
0.9613,0.0387	-3402.08
0.9919,0.0081	-3400.38
0.9771,0.0229	-3401.19
0.9885,0.0115	-3400.57
0.9991,0.0009	-3400.00
0.9851,0.0149	-3400.75
0.9623,0.0377	-3402.02
0.9923,0.0077	-3400.36
0.9832,0.0168	-3400.85
0.9905,0.0095	-3400.46
0.9989,0.0011	-3400.01
0.9846,0.0154	-3400.78
0.9649,0.0351	-3401.87
0.9921,0.0079	-3400.37
0.9849,0.0151	-3400.76
0.9895,0.0105	-3400.51
0.9988,0.0012	-3400.01
0.9826,0.0174	-3400.89
0.9629,0.0371	-3401.99
0.9906,0.0094	-3400.45
0.9835,0.0165	-3400.84
0.9858,0.0142	-3400.71
0.9989,0.0011	-3400.01
0.9805,0.0195	-3401.00
0.9627,0.0373	-3402.00
0.9900,0.0100	-3400.48
0.9860,0.0140	-3400.70
0.9842,0.0158	-3400.80
0.9989,0.0011	-3400.01
0.9821,0.0179	-3400.91
0.9639,0.0361	-3401.93
0.9899,0.0101	-3400.49
0.9865,0.0135	-3400.68
0.9872,0.0128	-3400.64
0.9991,0.0009	-3400.00
0.9818,0.0182	-3400.93
0.9655,0.0345	-3401.84
0.9894,0.0106	-3400.52
0.9830,0.0170	-3400.86
0.9857,0.0143	-3400.71
0.9990,0.0010	-3400.00
0.9817,0.0183	-3400.94
0.9578,0.0422	-3402.28
0.9892,0.0108	-3400.52
0.9834,0.0166	-3400.84
0.9898,0.0102	-3400.50
0.9988,0.0012	-3400.02
0.9831,0.0169	-3400.86
0.9578,0.0422	-3402.28
0.9904,0.0096	-3400.47
0.9846,0.0154	-3400.78
0.9889,0.0111	-3400.54
0.9987,0.0013	-3400.02
0.9852,0.0148	-3400.74
0.9642,0.0358	-3401.91
0.9909,0.0091	-3400.44
0.9845,0.0155	-3400.79
0.9901,0.0099	-3400.48
0.9985,0.0015	-3400.03
0.9846,0.0154	-3400.78
0.9762,0.0238	-3401.24
0.9919,0.0081	-3400.38
0.9798,0.0202	-3401.04
0.9902,0.0098	-3400.47
0.9983,0.0017	-3400.04
0.9843,0.0157	-3400.80
0.9772,0.0228	-3401.18
0.9906,0.0094	-3400.45
0.9830,0.0170	-3400.86
0.9918,0.0082	-3400.39
0.9986,0.0014	-3400.03
0.9855,0.0145	-3400.73
0.9762,0.0238	-3401.24
0.9931,0.0069	-3400.32
0.9858,0.0142	-3400.71
0.9920,0.0080	-3400.38
0.9986,0.0014	-3400.03
0.9852,0.0148	-3400.74
0.9744,0.0256	-3401.34
0.9943,0.0057	-3400.25
0.9812,0.0188	-3400.96
0.9927,0.0073	-3400.34
0.9982,0.0018	-3400.05
0.9838,0.0162	-3400.82
0.9752,0.0248	-3401.29
0.9939,0.0061	-3400.27
0.9805,0.0195	-3401.00
0.9931,0.0069	-3400.31
0.9975,0.0025	-3400.08
0.9830,0.0170	-3400.86
0.9780,0.0220	-3401.14
0.9947,0.0053	-3400.23
0.9833,0.0167	-3400.85
0.9936,0.0064	-3400.29
0.9969,0.0031	-3400.11
0.9818,0.0182	-3400.93
0.9752,0.0248	-3401.29
0.9955,0.0045	-3400.19
0.9809,0.0191	-3400.98
0.9935,0.0065	-3400.30
0.9957,0.0043	-3400.18
0.9800,0.0200	-3401.03
0.9755,0.0245	-3401.28
0.9953,0.0047	-3400.20
0.9847,0.0153	-3400.77
0.9930,0.0070	-3400.32
0.9959,0.0041	-3400.17
0.9846,0.0154	-3400.78
0.9716,0.0284	-3401.50
0.9960,0.0040	-3400.16
0.9882,0.0118	-3400.58
0.9910,0.0090	-3400.43
0.9959,0.0041	-3400.17
0.9851,0.0149	-3400.75
0.9750,0.0250	-3401.31
0.9959,0.0041	-3400.17
0.9879,0.0121	-3400.60
0.9920,0.0080	-3400.38
0.9954,0.0046	-3400.19
0.9854,0.0146	-3400.74
0.9767,0.0233	-3401.21
0.9963,0.0037	-3400.15
0.9821,0.0179	-3400.92
0.9907,0.0093	-3400.45
0.9946,0.0054	-3400.24
0.9831,0.0169	-3400.86
0.9671,0.0329	-3401.75
0.9959,0.0041	-3400.17
0.9844,0.0156	-3400.79
0.9916,0.0084	-3400.40
0.9948,0.0052	-3400.23
0.9864,0.0136	-3400.68
0.9615,0.0385	-3402.07
0.9959,0.0041	-3400.17
0.9854,0.0146	-3400.73
0.9905,0.0095	-3400.46
0.9932,0.0068	-3400.31
0.9864,0.0136	-3400.68
0.9501,0.0499	-3402.73
0.9965,0.0035	-3400.13
0.9831,0.0169	-3400.86
0.9922,0.0078	-3400.37
0.9923,0.0077	-3400.36
0.9831,0.0169	-3400.86
0.9557,0.0443	-3402.40
0.9961,0.0039	-3400.16
0.9857,0.0143	-3400.72
0.9926,0.0074	-3400.34
0.9925,0.0075	-3400.35
0.9858,0.0142	-3400.71
0.9655,0.0345	-3401.84
0.9962,0.0038	-3400.15
0.9823,0.0177	-3400.90
0.9898,0.0102	-3400.50
0.9935,0.0065	-3400.29
0.9863,0.0137	-3400.69
0.9618,0.0382	-3402.05
0.9966,0.0034	-3400.13
0.9798,0.0202	-3401.04
0.9907,0.0093	-3400.45
0.9936,0.0064	-3400.29
0.9878,0.0122	-3400.60
0.9539,0.0461	-3402.51
0.9964,0.0036	-3400.14
0.9806,0.0194	-3401.00
0.9907,0.0093	-3400.44
0.9948,0.0052	-3400.23
0.9882,0.0118	-3400.58
0.9670,0.0330	-3401.75
0.9969,0.0031	-3400.11
0.9851,0.0149	-3400.75
0.9917,0.0083	-3400.40
0.9950,0.0050	-3400.21
0.9862,0.0138	-3400.69
0.9703,0.0297	-3401.57
0.9969,0.0031	-3400.11
0.9831,0.0169	-3400.86
0.9917,0.0083	-3400.39
0.9945,0.0055	-3400.24
0.9873,0.0127	-3400.63
0.9725,0.0275	-3401.45
0.9976,0.0024	-3400.08
0.9827,0.0173	-3400.88
0.9892,0.0108	-3400.53
0.9927,0.0073	-3400.34
0.9870,0.0130	-3400.64
0.9738,0.0262	-3401.37
0.9977,0.0023	-3400.07
0.9829,0.0171	-3400.87
0.9901,0.0099	-3400.48
0.9932,0.0068	-3400.31
0.9874,0.0126	-3400.62
0.9690,0.0310	-3401.64
0.9971,0.0029	-3400.10
0.9827,0.0173	-3400.88
0.9923,0.0077	-3400.36
0.9926,0.0074	-3400.34
0.9871,0.0129	-3400.64
0.9656,0.0344	-3401.84
0.9971,0.0029	-3400.10
0.9812,0.0188	-3400.96
0.9932,0.0068	-3400.31
0.9930,0.0070	-3400.32
0.9888,0.0112	-3400.55
0.9654,0.0346	-3401.85
0.9978,0.0022	-3400.07
0.9820,0.0180	-3400.92
0.9936,0.0064	-3400.29
0.9929,0.0071	-3400.33
0.9860,0.0140	-3400.70
0.9738,0.0262	-3401.37
0.9979,0.0021	-3400.06
0.9775,0.0225	-3401.17
0.9926,0.0074	-3400.34
0.9911,0.0089	-3400.42
0.9848,0.0152	-3400.77
0.9756,0.0244	-3401.27
0.9974,0.0026	-3400.09
0.9724,0.0276	-3401.45
0.9914,0.0086	-3400.41
0.9916,0.0084	-3400.40
0.9841,0.0159	-3400.80
0.9776,0.0224	-3401.16
0.9969,0.0031	-3400.11
0.9676,0.0324	-3401.72
0.9927,0.0073	-3400.34
0.9924,0.0076	-3400.36
0.9857,0.0143	-3400.72
0.9769,0.0231	-3401.20
0.9977,0.0023	-3400.07
0.9573,0.0427	-3402.31
0.9930,0.0070	-3400.32
0.9939,0.0061	-3400.28
0.9848,0.0152	-3400.77
0.9818,0.0182	-3400.93
0.9978,0.0022	-3400.06
0.9637,0.0363	-3401.94
0.9928,0.0072	-3400.33
0.9946,0.0054	-3400.24
0.9857,0.0143	-3400.72
0.9831,0.0169	-3400.86
0.9974,0.0026	-3400.09
0.9699,0.0301	-3401.59
0.9952,0.0048	-3400.21
0.9926,0.0074	-3400.35
0.9902,0.0098	-3400.47
0.9821,0.0179	-3400.92
0.9973,0.0027	-3400.09
0.9687,0.0313	-3401.66
0.9944,0.0056	-3400.25
0.9942,0.0058	-3400.26
0.9921,0.0079	-3400.37
0.9829,0.0171	-3400.87
0.9973,0.0027	-3400.09
0.9617,0.0383	-3402.05
0.9929,0.0071	-3400.33
0.9941,0.0059	-3400.26
0.9929,0.0071	-3400.33
0.9861,0.0139	-3400.69
0.9972,0.0028	-3400.10
0.9558,0.0442	-3402.40
0.9914,0.0086	-3400.41
0.9955,0.0045	-3400.19
0.9911,0.0089	-3400.43
0.9874,0.0126	-3400.62
0.9968,0.0032	-3400.12
0.9574,0.0426	-3402.30
0.9906,0.0094	-3400.45
0.9963,0.0037	-3400.15
0.9915,0.0085	-3400.40
0.9873,0.0127	-3400.63
0.9971,0.0029	-3400.10
0.9612,0.0388	-3402.08
0.9916,0.0084	-3400.40
0.9966,0.0034	-3400.13
0.9899,0.0101	-3400.49
0.9854,0.0146	-3400.73
0.9966,0.0034	-3400.13
0.9537,0.0463	-3402.52
0.9900,0.0100	-3400.48
0.9962,0.0038	-3400.15
0.9873,0.0127	-3400.63
0.9871,0.0129	-3400.64
0.9970,0.0030	-3400.11
0.9530,0.0470	-3402.55
0.9889,0.0111	-3400.55
0.9969,0.0031	-3400.11
0.9873,0.0127	-3400.63
0.9869,0.0131	-3400.65
0.9973,0.0027	-3400.10
0.9557,0.0443	-3402.40
0.9862,0.0138	-3400.69
0.9972,0.0028	-3400.10
0.9850,0.0150	-3400.76
0.9888,0.0112	-3400.55
0.9963,0.0037	-3400.14
0.9503,0.0497	-3402.72
0.9871,0.0129	-3400.64
0.9971,0.0029	-3400.11
0.9878,0.0122	-3400.60
0.9908,0.0092	-3400.44
0.9957,0.0043	-3400.18
0.9560,0.0440	-3402.38
0.9834,0.0166	-3400.84
0.9974,0.0026	-3400.09
0.9884,0.0116	-3400.57
0.9906,0.0094	-3400.45
0.9959,0.0041	-3400.17
0.9596,0.0404	-3402.18
0.9837,0.0163	-3400.83
0.9977,0.0023	-3400.07
0.9888,0.0112	-3400.55
0.9918,0.0082	-3400.39
0.9965,0.0035	-3400.14
0.9525,0.0475	-3402.59
0.9840,0.0160	-3400.81
0.9973,0.0027	-3400.09
0.9887,0.0113	-3400.55
0.9912,0.0088	-3400.42
0.9964,0.0036	-3400.14
0.9469,0.0531	-3402.92
0.9821,0.0179	-3400.92
0.9970,0.0030	-3400.11
0.9896,0.0104	-3400.51
0.9908,0.0092	-3400.44
0.9967,0.0033	-3400.12
0.9344,0.0656	-3403.66
0.9814,0.0186	-3400.95
0.9964,0.0036	-3400.14
0.9891,0.0109	-3400.53
0.9908,0.0092	-3400.44
0.9967,0.0033	-3400.13
0.9306,0.0694	-3403.89
0.9819,0.0181	-3400.92
0.9964,0.0036	-3400.14
0.9893,0.0107	-3400.52
0.9922,0.0078	-3400.37
0.9964,0.0036	-3400.14
0.9411,0.0589	-3403.26
0.9845,0.0155	-3400.79
0.9968,0.0032	-3400.12
0.9886,0.0114	-3400.56
0.9910,0.0090	-3400.43
0.9968,0.0032	-3400.12
0.9337,0.0663	-3403.70
0.9809,0.0191	-3400.98
0.9962,0.0038	-3400.15
0.9881,0.0119	-3400.59
0.9914,0.0086	-3400.41
0.9966,0.0034	-3400.13
0.9413,0.0587	-3403.24
0.9706,0.0294	-3401.55
0.9962,0.0038	-3400.15
0.9889,0.0111	-3400.54
0.9892,0.0108	-3400.53
0.9965,0.0035	-3400.13
0.9391,0.0609	-3403.38
0.9772,0.0228	-3401.18
0.9961,0.0039	-3400.16
0.9888,0.0112	-3400.55
0.9881,0.0119	-3400.58
0.9967,0.0033	-3400.13
0.9511,0.0489	-3402.67
0.9762,0.0238	-3401.24
0.9967,0.0033	-3400.12
0.9903,0.0097	-3400.47
0.9906,0.0094	-3400.45
0.9973,0.0027	-3400.09
0.9595,0.0405	-3402.18
0.9757,0.0243	-3401.27
0.9970,0.0030	-3400.11
0.9922,0.0078	-3400.36
0.9909,0.0091	-3400.43
0.9976,0.0024	-3400.08
0.9480,0.0520	-3402.85
0.9768,0.0232	-3401.21
0.9981,0.0019	-3400.05
0.9898,0.0102	-3400.49
0.9901,0.0099	-3400.48
0.9979,0.0021	-3400.06
0.9503,0.0497	-3402.71
0.9631,0.0369	-3401.98
0.9978,0.0022	-3400.06
0.9873,0.0127	-3400.63
0.9889,0.0111	-3400.55
0.9977,0.0023	-3400.07
0.9595,0.0405	-3402.18
0.9666,0.0334	-3401.78
0.9985,0.0015	-3400.03
0.9866,0.0134	-3400.67
0.9856,0.0144	-3400.73
0.9972,0.0028	-3400.10
0.9613,0.0387	-3402.08
0.9653,0.0347	-3401.85
0.9985,0.0015	-3400.03
0.9864,0.0136	-3400.68
0.9810,0.0190	-3400.97
0.9972,0.0028	-3400.10
0.9658,0.0342	-3401.83
0.9661,0.0339	-3401.81
0.9984,0.0016	-3400.03
0.9843,0.0157	-3400.79
0.9797,0.0203	-3401.05
0.9973,0.0027	-3400.09
0.9643,0.0357	-3401.91
0.9635,0.0365	-3401.95
0.9979,0.0021	-3400.06
0.9840,0.0160	-3400.81
0.9829,0.0171	-3400.87
0.9969,0.0031	-3400.11
0.9636,0.0364	-3401.95
0.9661,0.0339	-3401.81
0.9975,0.0025	-3400.08
0.9822,0.0178	-3400.91
0.9855,0.0145	-3400.73
0.9976,0.0024	-3400.07
0.9540,0.0460	-3402.50
0.9602,0.0398	-3402.14
0.9967,0.0033	-3400.12
0.9797,0.0203	-3401.05
0.9844,0.0156	-3400.79
0.9976,0.0024	-3400.08
0.9543,0.0457	-3402.48
0.9642,0.0358	-3401.91
0.9956,0.0044	-3400.18
0.9723,0.0277	-3401.46
0.9822,0.0178	-3400.91
0.9972,0.0028	-3400.10
0.9619,0.0381	-3402.04
0.9673,0.0327	-3401.74
0.9962,0.0038	-3400.15
0.9759,0.0241	-3401.25
0.9782,0.0218	-3401.13
0.9977,0.0023	-3400.07
0.9605,0.0395	-3402.12
0.9609,0.0391	-3402.10
0.9963,0.0037	-3400.15
0.9764,0.0236	-3401.23
0.9778,0.0222	-3401.15
0.9986,0.0014	-3400.03
0.9619,0.0381	-3402.05
0.9611,0.0389	-3402.09
0.9947,0.0053	-3400.23
0.9731,0.0269	-3401.41
0.9804,0.0196	-3401.01
0.9983,0.0017	-3400.04
0.9565,0.0435	-3402.36
0.9622,0.0378	-3402.03
0.9945,0.0055	-3400.24
0.9786,0.0214	-3401.11
0.9821,0.0179	-3400.92
0.9985,0.0015	-3400.03
0.9616,0.0384	-3402.06
0.9682,0.0318	-3401.68
0.9938,0.0062	-3400.28
0.9850,0.0150	-3400.76
0.9842,0.0158	-3400.80
0.9980,0.0020	-3400.05
0.9651,0.0349	-3401.86
0.9754,0.0246	-3401.28
0.9941,0.0059	-3400.26
0.9816,0.0184	-3400.94
0.9830,0.0170	-3400.86
0.9979,0.0021	-3400.06
0.9746,0.0254	-3401.33
0.9740,0.0260	-3401.36
0.9941,0.0059	-3400.27
0.9814,0.0186	-3400.95
0.9874,0.0126	-3400.62
0.9980,0.0020	-3400.05
0.9712,0.0288	-3401.52
0.9759,0.0241	-3401.25
0.9942,0.0058	-3400.26
0.9821,0.0179	-3400.91
0.9888,0.0112	-3400.55
0.9979,0.0021	-3400.06
0.9753,0.0247	-3401.29
0.9764,0.0236	-3401.23
0.9950,0.0050	-3400.22
0.9797,0.0203	-3401.05
0.9914,0.0086	-3400.41
0.9983,0.0017	-3400.04
0.9701,0.0299	-3401.58
0.9681,0.0319	-3401.69
0.9951,0.0049	-3400.21
0.9807,0.0193	-3400.99
0.9918,0.0082	-3400.39
0.9984,0.0016	-3400.04
0.9737,0.0263	-3401.38
0.9595,0.0405	-3402.18
0.9952,0.0048	-3400.21
0.9841,0.0159	-3400.81
0.9933,0.0067	-3400.31
0.9984,0.0016	-3400.03
0.9695,0.0305	-3401.61
0.9643,0.0357	-3401.91
0.9949,0.0051	-3400.22
0.9847,0.0153	-3400.77
0.9932,0.0068	-3400.31
0.9988,0.0012	-3400.01
0.9761,0.0239	-3401.25
0.9728,0.0272	-3401.43
0.9962,0.0038	-3400.15
0.9852,0.0148	-3400.74
0.9935,0.0065	-3400.30
0.9990,0.0010	-3400.00
0.9772,0.0228	-3401.18
0.9742,0.0258	-3401.35
0.9966,0.0034	-3400.13
0.9842,0.0158	-3400.80
0.9941,0.0059	-3400.26
0.9988,0.0012	-3400.01
0.9806,0.0194	-3401.00
0.9755,0.0245	-3401.28
0.9958,0.0042	-3400.17
0.9823,0.0177	-3400.90
0.9941,0.0059	-3400.26
0.9990,0.0010	-3400.00
0.9786,0.0214	-3401.11
0.9738,0.0262	-3401.37
0.9957,0.0043	-3400.18
0.9797,0.0203	-3401.05
0.9928,0.0072	-3400.33
0.9991,0.0009	-3400.00
0.9807,0.0193	-3400.99
0.9767,0.0233	-3401.21
0.9958,0.0042	-3400.17
0.9824,0.0176	-3400.90
0.9896,0.0104	-3400.50
0.9991,0.0009	-3400.00
0.9859,0.0141	-3400.70
0.9779,0.0221	-3401.14
0.9961,0.0039	-3400.16
0.9813,0.0187	-3400.96
0.9879,0.0121	-3400.60
0.9989,0.0011	-3400.01
0.9843,0.0157	-3400.79
0.9733,0.0267	-3401.40
0.9971,0.0029	-3400.10
0.9854,0.0146	-3400.74
0.9848,0.0152	-3400.77
0.9988,0.0012	-3400.01
0.9851,0.0149	-3400.75
0.9704,0.0296	-3401.56
0.9972,0.0028	-3400.10
0.9875,0.0125	-3400.62
0.9818,0.0182	-3400.93
0.9986,0.0014	-3400.02
0.9827,0.0173	-3400.88
0.9739,0.0261	-3401.37
0.9963,0.0037	-3400.14
0.9863,0.0137	-3400.68
0.9851,0.0149	-3400.75
0.9984,0.0016	-3400.03
0.9854,0.0146	-3400.74
0.9756,0.0244	-3401.27
0.9966,0.0034	-3400.13
0.9857,0.0143	-3400.72
0.9857,0.0143	-3400.72
0.9985,0.0015	-3400.03
0.9842,0.0158	-3400.80
0.9792,0.0208	-3401.07
0.9969,0.0031	-3400.11
0.9873,0.0127	-3400.63
0.9854,0.0146	-3400.73
0.9980,0.0020	-3400.06
0.9798,0.0202	-3401.04
0.9793,0.0207	-3401.07
0.9962,0.0038	-3400.15
0.9870,0.0130	-3400.65
0.9869,0.0131	-3400.65
0.9985,0.0015	-3400.03
0.9773,0.0227	-3401.18
0.9717,0.0283	-3401.49
0.9957,0.0043	-3400.18
0.9854,0.0146	-3400.74
0.9851,0.0149	-3400.75
0.9987,0.0013	-3400.02
0.9784,0.0216	-3401.12
0.9731,0.0269	-3401.41
0.9959,0.0041	-3400.17
0.9835,0.0165	-3400.84
0.9874,0.0126	-3400.62
0.9986,0.0014	-3400.03
0.9843,0.0157	-3400.79
0.9770,0.0230	-3401.19
0.9963,0.0037	-3400.15
0.9868,0.0132	-3400.66
0.9906,0.0094	-3400.45
0.9984,0.0016	-3400.03
0.9858,0.0142	-3400.71
0.9826,0.0174	-3400.89
0.9968,0.0032	-3400.12
0.9897,0.0103	-3400.50
0.9921,0.0079	-3400.37
0.9986,0.0014	-3400.02
0.9891,0.0109	-3400.54
0.9823,0.0177	-3400.90
0.9966,0.0034	-3400.13
0.9888,0.0112	-3400.55
0.9916,0.0084	-3400.40
0.9986,0.0014	-3400.02
0.9870,0.0130	-3400.65
0.9805,0.0195	-3401.00
0.9963,0.0037	-3400.15
0.9902,0.0098	-3400.48
0.9906,0.0094	-3400.45
0.9985,0.0015	-3400.03
0.9851,0.0149	-3400.75
0.9804,0.0196	-3401.01
0.9966,0.0034	-3400.13
0.9926,0.0074	-3400.35
0.9925,0.0075	-3400.35
0.9986,0.0014	-3400.02
0.9836,0.0164	-3400.83
0.9827,0.0173	-3400.88
0.9971,0.0029	-3400.10
0.9922,0.0078	-3400.37
0.9918,0.0082	-3400.39
0.9984,0.0016	-3400.03
0.9805,0.0195	-3401.00
0.9780,0.0220	-3401.14
0.9969,0.0031	-3400.11
0.9915,0.0085	-3400.40
0.9937,0.0063	-3400.28
0.9981,0.0019	-3400.05
0.9851,0.0149	-3400.75
0.9791,0.0209	-3401.08
0.9968,0.0032	-3400.12
0.9899,0.0101	-3400.49
0.9936,0.0064	-3400.29
0.9977,0.0023	-3400.07
0.9824,0.0176	-3400.90
0.9746,0.0254	-3401.33
0.9969,0.0031	-3400.11
0.9882,0.0118	-3400.58
0.9930,0.0070	-3400.32
0.9978,0.0022	-3400.07
0.9797,0.0203	-3401.04
0.9769,0.0231	-3401.20
0.9970,0.0030	-3400.11
0.9902,0.0098	-3400.47
0.9942,0.0058	-3400.26
0.9971,0.0029	-3400.10
0.9814,0.0186	-3400.95
0.9750,0.0250	-3401.31
0.9960,0.0040	-3400.16
0.9907,0.0093	-3400.45
0.9937,0.0063	-3400.29
0.9969,0.0031	-3400.11
0.9863,0.0137	-3400.68
0.9747,0.0253	-3401.32
0.9965,0.0035	-3400.13
0.9889,0.0111	-3400.55
0.9933,0.0067	-3400.30
0.9969,0.0031	-3400.11
0.9881,0.0119	-3400.59
0.9744,0.0256	-3401.34
0.9967,0.0033	-3400.12
0.9894,0.0106	-3400.52
0.9955,0.0045	-3400.19
0.9964,0.0036	-3400.14
0.9867,0.0133	-3400.67
0.9716,0.0284	-3401.50
0.9976,0.0024	-3400.07
0.9919,0.0081	-3400.38
0.9960,0.0040	-3400.16
0.9966,0.0034	-3400.13
0.9868,0.0132	-3400.65
0.9756,0.0244	-3401.27
0.9975,0.0025	-3400.08
0.9903,0.0097	-3400.47
0.9960,0.0040	-3400.16
0.9973,0.0027	-3400.09
0.9865,0.0135	-3400.68
0.9800,0.0200	-3401.03
0.9970,0.0030	-3400.11
0.9910,0.0090	-3400.43
0.9963,0.0037	-3400.15
0.9973,0.0027	-3400.09
0.9849,0.0151	-3400.76
0.9796,0.0204	-3401.05
0.9973,0.0027	-3400.09
0.9892,0.0108	-3400.52
0.9953,0.0047	-3400.20
0.9973,0.0027	-3400.09
0.9841,0.0159	-3400.80
0.9793,0.0207	-3401.07
0.9980,0.0020	-3400.06
0.9890,0.0110	-3400.54
0.9944,0.0056	-3400.25
0.9974,0.0026	-3400.09
0.9801,0.0199	-3401.02
0.9837,0.0163	-3400.82
0.9980,0.0020	-3400.05
0.9889,0.0111	-3400.54
0.9928,0.0072	-3400.33
0.9970,0.0030	-3400.11
0.9829,0.0171	-3400.87
0.9844,0.0156	-3400.79
0.9976,0.0024	-3400.07
0.9856,0.0144	-3400.72
0.9908,0.0092	-3400.44
0.9970,0.0030	-3400.11
0.9841,0.0159	-3400.80
0.9862,0.0138	-3400.69
0.9975,0.0025	-3400.08
0.9828,0.0172	-3400.87
0.9883,0.0117	-3400.58
0.9966,0.0034	-3400.13
0.9879,0.0121	-3400.60
0.9879,0.0121	-3400.60
0.9973,0.0027	-3400.09
0.9783,0.0217	-3401.12
0.9899,0.0101	-3400.49
0.9970,0.0030	-3400.11
0.9895,0.0105	-3400.51
0.9862,0.0138	-3400.69
0.9975,0.0025	-3400.08
0.9782,0.0218	-3401.13
0.9905,0.0095	-3400.46
0.9964,0.0036	-3400.14
0.9901,0.0099	-3400.48
0.9885,0.0115	-3400.57
0.9973,0.0027	-3400.09
0.9770,0.0230	-3401.19
0.9908,0.0092	-3400.44
0.9968,0.0032	-3400.12
0.9894,0.0106	-3400.52
0.9865,0.0135	-3400.68
0.9971,0.0029	-3400.10
0.9788,0.0212	-3401.09
0.9906,0.0094	-3400.45
0.9969,0.0031	-3400.12
0.9876,0.0124	-3400.61
0.9866,0.0134	-3400.67
0.9966,0.0034	-3400.13
0.9831,0.0169	-3400.86
0.9901,0.0099	-3400.48
0.9968,0.0032	-3400.12
0.9886,0.0114	-3400.56
0.9893,0.0107	-3400.52
0.9969,0.0031	-3400.11
0.9857,0.0143	-3400.72
0.9918,0.0082	-3400.38
0.9968,0.0032	-3400.12
0.9833,0.0167	-3400.85
0.9881,0.0119	-3400.59
0.9964,0.0036	-3400.14
0.9866,0.0134	-3400.67
0.9932,0.0068	-3400.31
0.9961,0.0039	-3400.16
0.9807,0.0193	-3400.99
0.9875,0.0125	-3400.62
0.9954,0.0046	-3400.19
0.9880,0.0120	-3400.59
0.9928,0.0072	-3400.33
0.9955,0.0045	-3400.19
0.9836,0.0164	-3400.83
0.9889,0.0111	-3400.54
0.9957,0.0043	-3400.18
0.9876,0.0124	-3400.61
0.9904,0.0096	-3400.47
0.9964,0.0036	-3400.14
0.9856,0.0144	-3400.72
0.9881,0.0119	-3400.59
0.9959,0.0041	-3400.17
0.9888,0.0112	-3400.55
0.9920,0.0080	-3400.38
0.9956,0.0044	-3400.18
0.9893,0.0107	-3400.52
0.9890,0.0110	-3400.54
0.9960,0.0040	-3400.16
0.9878,0.0122	-3400.60
0.9930,0.0070	-3400.32
0.9949,0.0051	-3400.22
0.9891,0.0109	-3400.53
0.9895,0.0105	-3400.51
0.9961,0.0039	-3400.16
0.9884,0.0116	-3400.57
0.9943,0.0057	-3400.25
0.9949,0.0051	-3400.22
0.9884,0.0116	-3400.57
0.9921,0.0079	-3400.37
0.9956,0.0044	-3400.18
0.9885,0.0115	-3400.56
0.9942,0.0058	-3400.26
0.9960,0.0040	-3400.16
0.9886,0.0114	-3400.56
0.9915,0.0085	-3400.40
0.9945,0.0055	-3400.24
0.9900,0.0100	-3400.48
0.9943,0.0057	-3400.25
0.9959,0.0041	-3400.17
0.9905,0.0095	-3400.46
0.9885,0.0115	-3400.57
0.9947,0.0053	-3400.23
0.9894,0.0106	-3400.52
0.9934,0.0066	-3400.30
0.9969,0.0031	-3400.11
0.9919,0.0081	-3400.38
0.9869,0.0131	-3400.65
0.9965,0.0035	-3400.13
0.9890,0.0110	-3400.54
0.9941,0.0059	-3400.27
0.9970,0.0030	-3400.11
0.9913,0.0087	-3400.41
0.9794,0.0206	-3401.07
0.9967,0.0033	-3400.13
0.9898,0.0102	-3400.50
0.9949,0.0051	-3400.22
0.9977,0.0023	-3400.07
0.9914,0.0086	-3400.41
0.9761,0.0239	-3401.24
0.9964,0.0036	-3400.14
0.9893,0.0107	-3400.52
0.9946,0.0054	-3400.24
0.9979,0.0021	-3400.06
0.9892,0.0108	-3400.53
0.9849,0.0151	-3400.76
0.9957,0.0043	-3400.18
0.9886,0.0114	-3400.56
0.9958,0.0042	-3400.17
0.9974,0.0026	-3400.09
0.9892,0.0108	-3400.53
0.9866,0.0134	-3400.67
0.9958,0.0042	-3400.18
0.9890,0.0110	-3400.54
0.9957,0.0043	-3400.18
0.9973,0.0027	-3400.09
0.9886,0.0114	-3400.56
0.9841,0.0159	-3400.81
0.9955,0.0045	-3400.19
0.9883,0.0117	-3400.58
0.9969,0.0031	-3400.11
0.9972,0.0028	-3400.10
0.9880,0.0120	-3400.59
0.9796,0.0204	-3401.05
0.9947,0.0053	-3400.23
0.9906,0.0094	-3400.45
0.9963,0.0037	-3400.14
0.9964,0.0036	-3400.14
0.9879,0.0121	-3400.60
0.9820,0.0180	-3400.92
0.9955,0.0045	-3400.19
0.9854,0.0146	-3400.73
0.9966,0.0034	-3400.13
0.9965,0.0035	-3400.13
0.9915,0.0085	-3400.40
0.9788,0.0212	-3401.10
0.9951,0.0049	-3400.21
0.9870,0.0130	-3400.65
0.9963,0.0037	-3400.15
0.9959,0.0041	-3400.17
0.9907,0.0093	-3400.45
0.9764,0.0236	-3401.23
0.9961,0.0039	-3400.16
0.9891,0.0109	-3400.53
0.9968,0.0032	-3400.12
0.9954,0.0046	-3400.20
0.9910,0.0090	-3400.43
0.9745,0.0255	-3401.33
0.9959,0.0041	-3400.16
0.9882,0.0118	-3400.58
0.9968,0.0032	-3400.12
0.9947,0.0053	-3400.23
0.9915,0.0085	-3400.40
0.9779,0.0221	-3401.15
0.9957,0.0043	-3400.18
0.9875,0.0125	-3400.62
0.9962,0.0038	-3400.15
0.9932,0.0068	-3400.31
0.9900,0.0100	-3400.48
0.9815,0.0185	-3400.95
0.9956,0.0044	-3400.18
0.9902,0.0098	-3400.47
0.9964,0.0036	-3400.14
0.9939,0.0061	-3400.28
0.9901,0.0099	-3400.48
0.9774,0.0226	-3401.17
0.9958,0.0042	-3400.17
0.9886,0.0114	-3400.56
0.9963,0.0037	-3400.14
0.9953,0.0047	-3400.20
0.9897,0.0103	-3400.50
0.9804,0.0196	-3401.01
0.9955,0.0045	-3400.19
0.9894,0.0106	-3400.52
0.9962,0.0038	-3400.15
0.9940,0.0060	-3400.27
0.9880,0.0120	-3400.59
0.9858,0.0142	-3400.71
0.9943,0.0057	-3400.26
0.9911,0.0089	-3400.43
0.9964,0.0036	-3400.14
0.9933,0.0067	-3400.31
0.9885,0.0115	-3400.56
0.9877,0.0123	-3400.61
0.9943,0.0057	-3400.25
0.9922,0.0078	-3400.37
0.9961,0.0039	-3400.16
0.9928,0.0072	-3400.33
0.9898,0.0102	-3400.50
0.9873,0.0127	-3400.63
0.9938,0.0062	-3400.28
0.9925,0.0075	-3400.35
0.9959,0.0041	-3400.17
0.9921,0.0079	-3400.37
0.9907,0.0093	-3400.45
0.9852,0.0148	-3400.74
0.9926,0.0074	-3400.35
0.9934,0.0066	-3400.30
0.9959,0.0041	-3400.17
0.9917,0.0083	-3400.39
0.9920,0.0080	-3400.37
0.9853,0.0147	-3400.74
0.9940,0.0060	-3400.27
0.9924,0.0076	-3400.36
0.9964,0.0036	-3400.14
0.9920,0.0080	-3400.38
0.9927,0.0073	-3400.34
0.9861,0.0139	-3400.69
0.9954,0.0046	-3400.19
0.9944,0.0056	-3400.25
0.9970,0.0030	-3400.11
0.9922,0.0078	-3400.37
0.9919,0.0081	-3400.38
0.9841,0.0159	-3400.81
0.9953,0.0047	-3400.20
0.9946,0.0054	-3400.24
0.9965,0.0035	-3400.14
0.9906,0.0094	-3400.45
0.9926,0.0074	-3400.35
0.9867,0.0133	-3400.67
0.9948,0.0052	-3400.23
0.9950,0.0050	-3400.22
0.9961,0.0039	-3400.16
0.9901,0.0099	-3400.48
0.9913,0.0087	-3400.41
0.9848,0.0152	-3400.77
0.9951,0.0049	-3400.21
0.9951,0.0049	-3400.21
0.9973,0.0027	-3400.09
0.9912,0.0088	-3400.42
0.9913,0.0087	-3400.42
0.9854,0.0146	-3400.73
0.9940,0.0060	-3400.27
0.9950,0.0050	-3400.21
0.9977,0.0023	-3400.07
0.9912,0.0088	-3400.42
0.9923,0.0077	-3400.36
0.9860,0.0140	-3400.70
0.9927,0.0073	-3400.34
0.9946,0.0054	-3400.24
0.9978,0.0022	-3400.07
0.9903,0.0097	-3400.47
0.9925,0.0075	-3400.35
0.9841,0.0159	-3400.80
0.9941,0.0059	-3400.26
0.9945,0.0055	-3400.24
0.9978,0.0022	-3400.07
0.9890,0.0110	-3400.54
0.9916,0.0084	-3400.40
0.9841,0.0159	-3400.81
0.9949,0.0051	-3400.22
0.9944,0.0056	-3400.25
0.9975,0.0025	-3400.08
0.9897,0.0103	-3400.50
0.9936,0.0064	-3400.29
0.9838,0.0162	-3400.82
0.9961,0.0039	-3400.15
0.9931,0.0069	-3400.32
0.9973,0.0027	-3400.09
0.9882,0.0118	-3400.58
0.9930,0.0070	-3400.32
0.9809,0.0191	-3400.98
0.9955,0.0045	-3400.19
0.9938,0.0062	-3400.28
0.9975,0.0025	-3400.08
0.9857,0.0143	-3400.72
0.9916,0.0084	-3400.40
0.9820,0.0180	-3400.92
0.9958,0.0042	-3400.17
0.9933,0.0067	-3400.30
0.9980,0.0020	-3400.06
0.9814,0.0186	-3400.95
0.9918,0.0082	-3400.39
0.9820,0.0180	-3400.92
0.9933,0.0067	-3400.31
0.9923,0.0077	-3400.36
0.9976,0.0024	-3400.07
0.9839,0.0161	-3400.82
0.9929,0.0071	-3400.33
0.9829,0.0171	-3400.87
0.9938,0.0062	-3400.28
0.9933,0.0067	-3400.31
0.9968,0.0032	-3400.12
0.9851,0.0149	-3400.75
0.9924,0.0076	-3400.36
0.9831,0.0169	-3400.86
0.9938,0.0062	-3400.28
0.9911,0.0089	-3400.43
0.9968,0.0032	-3400.12
0.9841,0.0159	-3400.81
0.9912,0.0088	-3400.42
0.9792,0.0208	-3401.07
0.9924,0.0076	-3400.36
0.9910,0.0090	-3400.43
0.9964,0.0036	-3400.14
0.9821,0.0179	-3400.91
0.9886,0.0114	-3400.56
0.9705,0.0295	-3401.56
0.9930,0.0070	-3400.32
0.9905,0.0095	-3400.46
0.9961,0.0039	-3400.16
0.9830,0.0170	-3400.87
0.9849,0.0151	-3400.76
0.9687,0.0313	-3401.66
0.9923,0.0077	-3400.36
0.9932,0.0068	-3400.31
0.9951,0.0049	-3400.21
0.9830,0.0170	-3400.87
0.9800,0.0200	-3401.03
0.9705,0.0295	-3401.56
0.9906,0.0094	-3400.45
0.9936,0.0064	-3400.29
0.9952,0.0048	-3400.21
0.9864,0.0136	-3400.68
0.9749,0.0251	-3401.31
0.9693,0.0307	-3401.63
0.9889,0.0111	-3400.54
0.9938,0.0062	-3400.28
0.9954,0.0046	-3400.19
0.9846,0.0154	-3400.77
0.9694,0.0306	-3401.62
0.9620,0.0380	-3402.04
0.9869,0.0131	-3400.65
0.9932,0.0068	-3400.31
0.9949,0.0051	-3400.22
0.9849,0.0151	-3400.76
0.9675,0.0325	-3401.73
0.9600,0.0400	-3402.15
0.9836,0.0164	-3400.83
0.9941,0.0059	-3400.26
0.9939,0.0061	-3400.28
0.9840,0.0160	-3400.81
0.9658,0.0342	-3401.82
0.9531,0.0469	-3402.55
0.9827,0.0173	-3400.88
0.9930,0.0070	-3400.32
0.9948,0.0052	-3400.22
0.9787,0.0213	-3401.10
0.9761,0.0239	-3401.25
0.9505,0.0495	-3402.71
0.9822,0.0178	-3400.91
0.9921,0.0079	-3400.37
0.9959,0.0041	-3400.17
0.9761,0.0239	-3401.24
0.9766,0.0234	-3401.22
0.9545,0.0455	-3402.47
0.9796,0.0204	-3401.05
0.9932,0.0068	-3400.31
0.9963,0.0037	-3400.15
0.9788,0.0212	-3401.09
0.9787,0.0213	-3401.10
0.9628,0.0372	-3402.00
0.9793,0.0207	-3401.07
0.9930,0.0070	-3400.32
0.9964,0.0036	-3400.14
0.9819,0.0181	-3400.93
0.9776,0.0224	-3401.16
0.9652,0.0348	-3401.86
0.9827,0.0173	-3400.88
0.9930,0.0070	-3400.32
0.9971,0.0029	-3400.10
0.9821,0.0179	-3400.91
0.9723,0.0277	-3401.46
0.9667,0.0333	-3401.77
0.9858,0.0142	-3400.71
0.9919,0.0081	-3400.38
0.9978,0.0022	-3400.06
0.9855,0.0145	-3400.73
0.9737,0.0263	-3401.38
0.9622,0.0378	-3402.03
0.9868,0.0132	-3400.66
0.9929,0.0071	-3400.33
0.9975,0.0025	-3400.08
0.9872,0.0128	-3400.63
0.9787,0.0213	-3401.10
0.9558,0.0442	-3402.39
0.9873,0.0127	-3400.63
0.9930,0.0070	-3400.32
0.9979,0.0021	-3400.06
0.9872,0.0128	-3400.64
0.9755,0.0245	-3401.28
0.9574,0.0426	-3402.30
0.9855,0.0145	-3400.73
0.9930,0.0070	-3400.32
0.9980,0.0020	-3400.06
0.9897,0.0103	-3400.50
0.9734,0.0266	-3401.40
0.9547,0.0453	-3402.46
0.9875,0.0125	-3400.62
0.9918,0.0082	-3400.39
0.9979,0.0021	-3400.06
0.9891,0.0109	-3400.53
0.9725,0.0275	-3401.45
0.9588,0.0412	-3402.22
0.9830,0.0170	-3400.86
0.9917,0.0083	-3400.39
0.9982,0.0018	-3400.05
0.9900,0.0100	-3400.48
0.9733,0.0267	-3401.40
0.9559,0.0441	-3402.39
0.9826,0.0174	-3400.89
0.9939,0.0061	-3400.27
0.9978,0.0022	-3400.07
0.9898,0.0102	-3400.50
0.9768,0.0232	-3401.21
0.9625,0.0375	-3402.01
0.9839,0.0161	-3400.82
0.9932,0.0068	-3400.31
0.9979,0.0021	-3400.06
0.9915,0.0085	-3400.40
0.9743,0.0257	-3401.34
0.9644,0.0356	-3401.90
0.9826,0.0174	-3400.89
0.9924,0.0076	-3400.35
0.9979,0.0021	-3400.06
0.9846,0.0154	-3400.78
0.9731,0.0269	-3401.41
0.9714,0.0286	-3401.51
0.9810,0.0190	-3400.97
0.9937,0.0063	-3400.28
0.9978,0.0022	-3400.06
0.9852,0.0148	-3400.74
0.9713,0.0287	-3401.51
0.9701,0.0299	-3401.58
0.9753,0.0247	-3401.29
0.9911,0.0089	-3400.42
0.9975,0.0025	-3400.08
0.9850,0.0150	-3400.76
0.9767,0.0233	-3401.21
0.9653,0.0347	-3401.85
0.9767,0.0233	-3401.21
0.9900,0.0100	-3400.49
0.9977,0.0023	-3400.07
0.9827,0.0173	-3400.88
0.9747,0.0253	-3401.32
0.9650,0.0350	-3401.87
0.9781,0.0219	-3401.14
0.9901,0.0099	-3400.48
0.9974,0.0026	-3400.09
0.9815,0.0185	-3400.95
0.9756,0.0244	-3401.27
0.9587,0.0413	-3402.23
0.9788,0.0212	-3401.10
0.9924,0.0076	-3400.36
0.9974,0.0026	-3400.09
0.9794,0.0206	-3401.06
0.9787,0.0213	-3401.10
0.9424,0.0576	-3403.18
0.9785,0.0215	-3401.11
0.9917,0.0083	-3400.40
0.9970,0.0030	-3400.11
0.9816,0.0184	-3400.94
0.9784,0.0216	-3401.12
0.9401,0.0599	-3403.32
0.9759,0.0241	-3401.26
0.9883,0.0117	-3400.58
0.9966,0.0034	-3400.13
0.9821,0.0179	-3400.92
0.9822,0.0178	-3400.91
0.9449,0.0551	-3403.03
0.9780,0.0220	-3401.14
0.9895,0.0105	-3400.51
0.9971,0.0029	-3400.10
0.9860,0.0140	-3400.70
0.9795,0.0205	-3401.06
0.9441,0.0559	-3403.08
0.9725,0.0275	-3401.44
0.9905,0.0095	-3400.45
0.9964,0.0036	-3400.14
0.9860,0.0140	-3400.70
0.9837,0.0163	-3400.83
0.9437,0.0563	-3403.10
0.9771,0.0229	-3401.19
0.9885,0.0115	-3400.57
0.9966,0.0034	-3400.13
0.9853,0.0147	-3400.74
0.9858,0.0142	-3400.71
0.9309,0.0691	-3403.87
0.9756,0.0244	-3401.27
0.9849,0.0151	-3400.76
0.9961,0.0039	-3400.15
0.9827,0.0173	-3400.88
0.9888,0.0112	-3400.55
0.9273,0.0727	-3404.09
0.9712,0.0288	-3401.52
0.9831,0.0169	-3400.86
0.9973,0.0027	-3400.09
0.9835,0.0165	-3400.84
0.9893,0.0107	-3400.52
0.9185,0.0815	-3404.63
0.9696,0.0304	-3401.61
0.9823,0.0177	-3400.90
0.9971,0.0029	-3400.10
0.9847,0.0153	-3400.77
0.9904,0.0096	-3400.47
0.9252,0.0748	-3404.22
0.9753,0.0247	-3401.29
0.9818,0.0182	-3400.93
0.9968,0.0032	-3400.12
0.9865,0.0135	-3400.67
0.9903,0.0097	-3400.47
0.9496,0.0504	-3402.76
0.9807,0.0193	-3400.99
0.9810,0.0190	-3400.98
0.9959,0.0041	-3400.17
0.9862,0.0138	-3400.69
0.9890,0.0110	-3400.54
0.9331,0.0669	-3403.74
0.9806,0.0194	-3401.00
0.9821,0.0179	-3400.91
0.9951,0.0049	-3400.21
0.9856,0.0144	-3400.72
0.9886,0.0114	-3400.56
0.9348,0.0652	-3403.64
0.9840,0.0160	-3400.81
0.9828,0.0172	-3400.88
0.9935,0.0065	-3400.30
0.9858,0.0142	-3400.71
0.9892,0.0108	-3400.53
0.9294,0.0706	-3403.96
0.9836,0.0164	-3400.83
0.9816,0.0184	-3400.94
0.9921,0.0079	-3400.37
0.9862,0.0138	-3400.69
0.9877,0.0123	-3400.61
0.9343,0.0657	-3403.66
0.9815,0.0185	-3400.95
0.9788,0.0212	-3401.10
0.9910,0.0090	-3400.43
0.9855,0.0145	-3400.73
0.9901,0.0099	-3400.48
0.9382,0.0618	-3403.43
0.9774,0.0226	-3401.17
0.9774,0.0226	-3401.17
0.9907,0.0093	-3400.45
0.9864,0.0136	-3400.68
0.9900,0.0100	-3400.48
0.9431,0.0569	-3403.14
0.9840,0.0160	-3400.81
0.9778,0.0222	-3401.15
0.9903,0.0097	-3400.47
0.9871,0.0129	-3400.64
0.9903,0.0097	-3400.47
0.9400,0.0600	-3403.32
0.9859,0.0141	-3400.71
0.9719,0.0281	-3401.48
0.9911,0.0089	-3400.42
0.9905,0.0095	-3400.46
0.9903,0.0097	-3400.47
0.9468,0.0532	-3402.92
0.9859,0.0141	-3400.71
0.9746,0.0254	-3401.33
0.9884,0.0116	-3400.57
0.9880,0.0120	-3400.59
0.9895,0.0105	-3400.51
0.9489,0.0511	-3402.80
0.9877,0.0123	-3400.61
0.9722,0.0278	-3401.46
0.9894,0.0106	-3400.52
0.9877,0.0123	-3400.61
0.9894,0.0106	-3400.52
0.9532,0.0468	-3402.55
0.9860,0.0140	-3400.70
0.9663,0.0337	-3401.80
0.9880,0.0120	-3400.59
0.9865,0.0135	-3400.67
0.9900,0.0100	-3400.48
0.9559,0.0441	-3402.39
0.9877,0.0123	-3400.61
0.9658,0.0342	-3401.82
0.9861,0.0139	-3400.70
0.9901,0.0099	-3400.48
0.9873,0.0127	-3400.63
0.9549,0.0451	-3402.45
0.9842,0.0158	-3400.80
0.9714,0.0286	-3401.51
0.9817,0.0183	-3400.94
0.9885,0.0115	-3400.57
0.9878,0.0122	-3400.61
0.9490,0.0510	-3402.79
0.9856,0.0144	-3400.73
0.9689,0.0311	-3401.65
0.9822,0.0178	-3400.91
0.9890,0.0110	-3400.54
0.9902,0.0098	-3400.47
0.9627,0.0373	-3402.00
0.9828,0.0172	-3400.88
0.9697,0.0303	-3401.61
0.9806,0.0194	-3401.00
0.9888,0.0112	-3400.55
0.9890,0.0110	-3400.54
0.9648,0.0352	-3401.88
0.9823,0.0177	-3400.90
0.9674,0.0326	-3401.73
0.9813,0.0187	-3400.96
0.9885,0.0115	-3400.56
0.9894,0.0106	-3400.52
0.9651,0.0349	-3401.86
0.9856,0.0144	-3400.72
0.9743,0.0257	-3401.35
0.9806,0.0194	-3401.00
0.9858,0.0142	-3400.71
0.9870,0.0130	-3400.65
0.9668,0.0332	-3401.76
0.9881,0.0119	-3400.59
0.9680,0.0320	-3401.70
0.9814,0.0186	-3400.95
0.9872,0.0128	-3400.64
0.9881,0.0119	-3400.59
0.9727,0.0273	-3401.44
0.9887,0.0113	-3400.55
0.9691,0.0309	-3401.64
0.9785,0.0215	-3401.11
0.9867,0.0133	-3400.67
0.9888,0.0112	-3400.55
0.9678,0.0322	-3401.71
0.9909,0.0091	-3400.44
0.9742,0.0258	-3401.35
0.9726,0.0274	-3401.44
0.9903,0.0097	-3400.47
0.9895,0.0105	-3400.51
0.9703,0.0297	-3401.57
0.9902,0.0098	-3400.47
0.9751,0.0249	-3401.30
0.9764,0.0236	-3401.23
0.9899,0.0101	-3400.49
0.9921,0.0079	-3400.37
0.9716,0.0284	-3401.50
0.9883,0.0117	-3400.58
0.9691,0.0309	-3401.64
0.9774,0.0226	-3401.17
0.9899,0.0101	-3400.49
0.9922,0.0078	-3400.37
0.9675,0.0325	-3401.73
0.9879,0.0121	-3400.60
0.9685,0.0315	-3401.67
0.9738,0.0262	-3401.37
0.9919,0.0081	-3400.38
0.9912,0.0088	-3400.42
0.9655,0.0345	-3401.84
0.9862,0.0138	-3400.69
0.9729,0.0271	-3401.42
0.9752,0.0248	-3401.29
0.9928,0.0072	-3400.33
0.9924,0.0076	-3400.36
0.9686,0.0314	-3401.66
0.9858,0.0142	-3400.71
0.9769,0.0231	-3401.20
0.9799,0.0201	-3401.04
0.9923,0.0077	-3400.36
0.9918,0.0082	-3400.39
0.9742,0.0258	-3401.35
0.9858,0.0142	-3400.71
0.9750,0.0250	-3401.31
0.9777,0.0223	-3401.15
0.9941,0.0059	-3400.26
0.9923,0.0077	-3400.36
0.9692,0.0308	-3401.63
0.9814,0.0186	-3400.95
0.9769,0.0231	-3401.20
0.9747,0.0253	-3401.32
0.9934,0.0066	-3400.30
0.9913,0.0087	-3400.41
0.9690,0.0310	-3401.64
0.9736,0.0264	-3401.38
0.9839,0.0161	-3400.81
0.9706,0.0294	-3401.55
0.9935,0.0065	-3400.29
0.9919,0.0081	-3400.38
0.9644,0.0356	-3401.90
0.9795,0.0205	-3401.06
0.9827,0.0173	-3400.88
0.9749,0.0251	-3401.31
0.9921,0.0079	-3400.37
0.9930,0.0070	-3400.32
0.9631,0.0369	-3401.98
0.9848,0.0152	-3400.77
0.9802,0.0198	-3401.02
0.9778,0.0222	-3401.15
0.9940,0.0060	-3400.27
0.9934,0.0066	-3400.30
0.9594,0.0406	-3402.19
0.9831,0.0169	-3400.86
0.9769,0.0231	-3401.20
0.9799,0.0201	-3401.04
0.9923,0.0077	-3400.36
0.9938,0.0062	-3400.28
0.9569,0.0431	-3402.33
0.9781,0.0219	-3401.13
0.9791,0.0209	-3401.08
0.9848,0.0152	-3400.77
0.9905,0.0095	-3400.46
0.9937,0.0063	-3400.29
0.9635,0.0365	-3401.95
0.9755,0.0245	-3401.28
0.9787,0.0213	-3401.10
0.9842,0.0158	-3400.80
0.9923,0.0077	-3400.36
0.9942,0.0058	-3400.26
0.9581,0.0419	-3402.26
0.9771,0.0229	-3401.19
0.9793,0.0207	-3401.07
0.9864,0.0136	-3400.68
0.9936,0.0064	-3400.29
0.9948,0.0052	-3400.22
0.9674,0.0326	-3401.73
0.9754,0.0246	-3401.28
0.9798,0.0202	-3401.04
0.9891,0.0109	-3400.53
0.9937,0.0063	-3400.28
0.9946,0.0054	-3400.24
0.9737,0.0263	-3401.38
0.9754,0.0246	-3401.28
0.9789,0.0211	-3401.09
0.9889,0.0111	-3400.54
0.9949,0.0051	-3400.22
0.9945,0.0055	-3400.24
0.9722,0.0278	-3401.46
0.9778,0.0222	-3401.15
0.9743,0.0257	-3401.35
0.9898,0.0102	-3400.49
0.9954,0.0046	-3400.20
0.9948,0.0052	-3400.23
0.9667,0.0333	-3401.77
0.9830,0.0170	-3400.87
0.9701,0.0299	-3401.58
0.9919,0.0081	-3400.38
0.9959,0.0041	-3400.17
0.9944,0.0056	-3400.25
0.9671,0.0329	-3401.75
0.9794,0.0206	-3401.06
0.9702,0.0298	-3401.57
0.9935,0.0065	-3400.30
0.9965,0.0035	-3400.13
0.9949,0.0051	-3400.22
0.9679,0.0321	-3401.71
0.9813,0.0187	-3400.96
0.9761,0.0239	-3401.24
0.9941,0.0059	-3400.26
0.9961,0.0039	-3400.15
0.9944,0.0056	-3400.25
0.9616,0.0384	-3402.06
0.9835,0.0165	-3400.84
0.9803,0.0197	-3401.01
0.9921,0.0079	-3400.37
0.9961,0.0039	-3400.16
0.9937,0.0063	-3400.29
0.9663,0.0337	-3401.80
0.9838,0.0162	-3400.82
0.9819,0.0181	-3400.93
0.9895,0.0105	-3400.51
0.9959,0.0041	-3400.17
0.9943,0.0057	-3400.25
0.9726,0.0274	-3401.44
0.9818,0.0182	-3400.93
0.9828,0.0172	-3400.87
0.9889,0.0111	-3400.54
0.9954,0.0046	-3400.20
0.9949,0.0051	-3400.22
0.9711,0.0289	-3401.53
0.9814,0.0186	-3400.95
0.9819,0.0181	-3400.93
0.9879,0.0121	-3400.60
0.9939,0.0061	-3400.27
0.9956,0.0044	-3400.18
0.9668,0.0332	-3401.77
0.9853,0.0147	-3400.74
0.9837,0.0163	-3400.83
0.9888,0.0112	-3400.55
0.9941,0.0059	-3400.26
0.9962,0.0038	-3400.15
0.9680,0.0320	-3401.70
0.9879,0.0121	-3400.60
0.9851,0.0149	-3400.75
0.9869,0.0131	-3400.65
0.9953,0.0047	-3400.20
0.9958,0.0042	-3400.17
0.9680,0.0320	-3401.70
0.9891,0.0109	-3400.53
0.9808,0.0192	-3400.98
0.9882,0.0118	-3400.58
0.9959,0.0041	-3400.17
0.9951,0.0049	-3400.21
0.9670,0.0330	-3401.76
0.9899,0.0101	-3400.49
0.9832,0.0168	-3400.85
0.9906,0.0094	-3400.45
0.9962,0.0038	-3400.15
0.9956,0.0044	-3400.18
0.9624,0.0376	-3402.02
0.9916,0.0084	-3400.40
0.9826,0.0174	-3400.89
0.9913,0.0087	-3400.41
0.9951,0.0049	-3400.21
0.9957,0.0043	-3400.18
0.9616,0.0384	-3402.06
0.9929,0.0071	-3400.33
0.9865,0.0135	-3400.67
0.9905,0.0095	-3400.46
0.9953,0.0047	-3400.20
0.9957,0.0043	-3400.18
0.9623,0.0377	-3402.02
0.9933,0.0067	-3400.31
0.9833,0.0167	-3400.85
0.9908,0.0092	-3400.44
0.9943,0.0057	-3400.25
0.9944,0.0056	-3400.25
0.9660,0.0340	-3401.81
0.9928,0.0072	-3400.33
0.9856,0.0144	-3400.72
0.9906,0.0094	-3400.45
0.9957,0.0043	-3400.18
0.9955,0.0045	-3400.19
0.9700,0.0300	-3401.59
0.9917,0.0083	-3400.39
0.9858,0.0142	-3400.71
0.9917,0.0083	-3400.39
0.9945,0.0055	-3400.24
0.9961,0.0039	-3400.15
0.9646,0.0354	-3401.89
0.9928,0.0072	-3400.33
0.9847,0.0153	-3400.77
0.9915,0.0085	-3400.40
0.9930,0.0070	-3400.32
0.9966,0.0034	-3400.13
0.9729,0.0271	-3401.43
0.9923,0.0077	-3400.36
0.9835,0.0165	-3400.84
0.9928,0.0072	-3400.33
0.9935,0.0065	-3400.30
0.9964,0.0036	-3400.14
0.9672,0.0328	-3401.74
0.9917,0.0083	-3400.39
0.9894,0.0106	-3400.52
0.9936,0.0064	-3400.29
0.9933,0.0067	-3400.31
0.9944,0.0056	-3400.25
0.9732,0.0268	-3401.41
0.9911,0.0089	-3400.42
0.9900,0.0100	-3400.48
0.9926,0.0074	-3400.35
0.9936,0.0064	-3400.29
0.9928,0.0072	-3400.33
0.9735,0.0265	-3401.39
0.9904,0.0096	-3400.46
0.9907,0.0093	-3400.45
0.9929,0.0071	-3400.33
0.9908,0.0092	-3400.44
0.9933,0.0067	-3400.30
0.9730,0.0270	-3401.42
0.9914,0.0086	-3400.41
0.9884,0.0116	-3400.57
0.9919,0.0081	-3400.38
0.9902,0.0098	-3400.47
0.9929,0.0071	-3400.33
0.9731,0.0269	-3401.41
0.9907,0.0093	-3400.45
0.9907,0.0093	-3400.45
0.9924,0.0076	-3400.36
0.9876,0.0124	-3400.62
0.9930,0.0070	-3400.33
0.9811,0.0189	-3400.97
0.9898,0.0102	-3400.49
0.9907,0.0093	-3400.45
0.9906,0.0094	-3400.45
0.9897,0.0103	-3400.50
0.9935,0.0065	-3400.29
0.9798,0.0202	-3401.04
0.9882,0.0118	-3400.58
0.9879,0.0121	-3400.60
0.9880,0.0120	-3400.59
0.9870,0.0130	-3400.65
0.9935,0.0065	-3400.29
0.9793,0.0207	-3401.07
0.9873,0.0127	-3400.63
0.9878,0.0122	-3400.61
0.9889,0.0111	-3400.54
0.9841,0.0159	-3400.81
0.9955,0.0045	-3400.19
0.9789,0.0211	-3401.09
0.9890,0.0110	-3400.54
0.9860,0.0140	-3400.70
0.9889,0.0111	-3400.55
0.9848,0.0152	-3400.77
0.9958,0.0042	-3400.17
0.9776,0.0224	-3401.16
0.9891,0.0109	-3400.53
0.9862,0.0138	-3400.69
0.9898,0.0102	-3400.49
0.9836,0.0164	-3400.83
0.9954,0.0046	-3400.19
0.9819,0.0181	-3400.92
0.9903,0.0097	-3400.47
0.9843,0.0157	-3400.80
0.9910,0.0090	-3400.43
0.9819,0.0181	-3400.92
0.9954,0.0046	-3400.19
0.9848,0.0152	-3400.76
0.9902,0.0098	-3400.47
0.9822,0.0178	-3400.91
0.9915,0.0085	-3400.40
0.9798,0.0202	-3401.04
0.9962,0.0038	-3400.15
0.9855,0.0145	-3400.73
0.9910,0.0090	-3400.43
0.9800,0.0200	-3401.03
0.9911,0.0089	-3400.43
0.9822,0.0178	-3400.91
0.9970,0.0030	-3400.11
0.9826,0.0174	-3400.89
0.9898,0.0102	-3400.49
0.9801,0.0199	-3401.02
0.9893,0.0107	-3400.52
0.9839,0.0161	-3400.81
0.9971,0.0029	-3400.10
0.9823,0.0177	-3400.91
0.9896,0.0104	-3400.51
0.9800,0.0200	-3401.03
0.9888,0.0112	-3400.55
0.9843,0.0157	-3400.79
0.9971,0.0029	-3400.11
0.9847,0.0153	-3400.77
0.9900,0.0100	-3400.48
0.9851,0.0149	-3400.75
0.9824,0.0176	-3400.90
0.9870,0.0130	-3400.65
0.9972,0.0028	-3400.10
0.9855,0.0145	-3400.73
0.9897,0.0103	-3400.50
0.9821,0.0179	-3400.91
0.9793,0.0207	-3401.07
0.9847,0.0153	-3400.77
0.9966,0.0034	-3400.13
0.9833,0.0167	-3400.85
0.9898,0.0102	-3400.50
0.9841,0.0159	-3400.81
0.9833,0.0167	-3400.85
0.9851,0.0149	-3400.75
0.9950,0.0050	-3400.22
0.9831,0.0169	-3400.86
0.9912,0.0088	-3400.42
0.9872,0.0128	-3400.63
0.9841,0.0159	-3400.81
0.9869,0.0131	-3400.65
0.9960,0.0040	-3400.16
0.9828,0.0172	-3400.88
0.9916,0.0084	-3400.40
0.9834,0.0166	-3400.84
0.9853,0.0147	-3400.74
0.9853,0.0147	-3400.74
0.9970,0.0030	-3400.11
0.9870,0.0130	-3400.65
0.9929,0.0071	-3400.33
0.9814,0.0186	-3400.95
0.9853,0.0147	-3400.74
0.9851,0.0149	-3400.75
0.9967,0.0033	-3400.13
0.9876,0.0124	-3400.61
0.9942,0.0058	-3400.26
0.9828,0.0172	-3400.87
0.9843,0.0157	-3400.79
0.9844,0.0156	-3400.79
0.9965,0.0035	-3400.14
0.9886,0.0114	-3400.56
0.9952,0.0048	-3400.21
0.9854,0.0146	-3400.73
0.9857,0.0143	-3400.72
0.9860,0.0140	-3400.70
0.9955,0.0045	-3400.19
0.9907,0.0093	-3400.45
0.9949,0.0051	-3400.22
0.9857,0.0143	-3400.72
0.9871,0.0129	-3400.64
0.9869,0.0131	-3400.65
0.9958,0.0042	-3400.17
0.9916,0.0084	-3400.40
0.9943,0.0057	-3400.25
0.9837,0.0163	-3400.83
0.9862,0.0138	-3400.69
0.9856,0.0144	-3400.72
0.9959,0.0041	-3400.17
0.9911,0.0089	-3400.43
0.9943,0.0057	-3400.25
0.9865,0.0135	-3400.68
0.9848,0.0152	-3400.77
0.9863,0.0137	-3400.68
0.9968,0.0032	-3400.12
0.9911,0.0089	-3400.43
0.9948,0.0052	-3400.22
0.9862,0.0138	-3400.69
0.9841,0.0159	-3400.81
0.9843,0.0157	-3400.79
0.9966,0.0034	-3400.13
0.9876,0.0124	-3400.62
0.9945,0.0055	-3400.24
0.9868,0.0132	-3400.66
0.9868,0.0132	-3400.66
0.9869,0.0131	-3400.65
0.9963,0.0037	-3400.15
0.9857,0.0143	-3400.72
0.9943,0.0057	-3400.26
0.9826,0.0174	-3400.89
0.9895,0.0105	-3400.51
0.9865,0.0135	-3400.67
0.9954,0.0046	-3400.20
0.9863,0.0137	-3400.68
0.9944,0.0056	-3400.25
0.9823,0.0177	-3400.90
0.9903,0.0097	-3400.47
0.9883,0.0117	-3400.58
0.9931,0.0069	-3400.32
0.9843,0.0157	-3400.79
0.9944,0.0056	-3400.24
0.9856,0.0144	-3400.72
0.9907,0.0093	-3400.45
0.9883,0.0117	-3400.58
0.9914,0.0086	-3400.41
0.9837,0.0163	-3400.82
0.9937,0.0063	-3400.28
0.9856,0.0144	-3400.72
0.9905,0.0095	-3400.46
0.9896,0.0104	-3400.51
0.9909,0.0091	-3400.44
0.9863,0.0137	-3400.68
0.9957,0.0043	-3400.18
0.9829,0.0171	-3400.87
0.9886,0.0114	-3400.56
0.9921,0.0079	-3400.37
0.9922,0.0078	-3400.37
0.9864,0.0136	-3400.68
0.9939,0.0061	-3400.28
0.9803,0.0197	-3401.01
0.9869,0.0131	-3400.65
0.9924,0.0076	-3400.35
0.9908,0.0092	-3400.44
0.9847,0.0153	-3400.77
0.9956,0.0044	-3400.18
0.9801,0.0199	-3401.03
0.9884,0.0116	-3400.57
0.9898,0.0102	-3400.49
0.9896,0.0104	-3400.51
0.9816,0.0184	-3400.94
0.9956,0.0044	-3400.19
0.9797,0.0203	-3401.04
0.9851,0.0149	-3400.75
0.9901,0.0099	-3400.48
0.9907,0.0093	-3400.45
0.9814,0.0186	-3400.95
0.9945,0.0055	-3400.24
0.9800,0.0200	-3401.03
0.9871,0.0129	-3400.64
0.9896,0.0104	-3400.51
0.9916,0.0084	-3400.40
0.9828,0.0172	-3400.88
0.9939,0.0061	-3400.27
0.9818,0.0182	-3400.93
0.9907,0.0093	-3400.45
0.9845,0.0155	-3400.79
0.9938,0.0062	-3400.28
0.9841,0.0159	-3400.81
0.9945,0.0055	-3400.24
0.9825,0.0175	-3400.89
0.9911,0.0089	-3400.43
0.9846,0.0154	-3400.78
0.9932,0.0068	-3400.31
0.9826,0.0174	-3400.89
0.9938,0.0062	-3400.28
0.9862,0.0138	-3400.69
0.9931,0.0069	-3400.32
0.9828,0.0172	-3400.88
0.9930,0.0070	-3400.32
0.9822,0.0178	-3400.91
0.9929,0.0071	-3400.33
0.9857,0.0143	-3400.72
0.9917,0.0083	-3400.39
0.9785,0.0215	-3401.11
0.9936,0.0064	-3400.29
0.9837,0.0163	-3400.82
0.9939,0.0061	-3400.27
0.9869,0.0131	-3400.65
0.9885,0.0115	-3400.56
0.9822,0.0178	-3400.91
0.9931,0.0069	-3400.32
0.9842,0.0158	-3400.80
0.9952,0.0048	-3400.20
0.9864,0.0136	-3400.68
0.9881,0.0119	-3400.59
0.9850,0.0150	-3400.76
0.9927,0.0073	-3400.34
0.9846,0.0154	-3400.78
0.9962,0.0038	-3400.15
0.9837,0.0163	-3400.83
0.9902,0.0098	-3400.47
0.9832,0.0168	-3400.86
0.9935,0.0065	-3400.29
0.9827,0.0173	-3400.88
0.9963,0.0037	-3400.15
0.9851,0.0149	-3400.75
0.9919,0.0081	-3400.38
0.9815,0.0185	-3400.95
0.9933,0.0067	-3400.31
0.9794,0.0206	-3401.06
0.9969,0.0031	-3400.12
0.9851,0.0149	-3400.75
0.9922,0.0078	-3400.36
0.9815,0.0185	-3400.95
0.9942,0.0058	-3400.26
0.9811,0.0189	-3400.97
0.9972,0.0028	-3400.10
0.9841,0.0159	-3400.81
0.9929,0.0071	-3400.33
0.9837,0.0163	-3400.82
0.9943,0.0057	-3400.25
0.9781,0.0219	-3401.14
0.9971,0.0029	-3400.10
0.9840,0.0160	-3400.81
0.9917,0.0083	-3400.39
0.9868,0.0132	-3400.66
0.9945,0.0055	-3400.24
0.9756,0.0244	-3401.27
0.9964,0.0036	-3400.14
0.9847,0.0153	-3400.77
0.9903,0.0097	-3400.47
0.9883,0.0117	-3400.58
0.9954,0.0046	-3400.19
0.9731,0.0269	-3401.41
0.9956,0.0044	-3400.18
0.9883,0.0117	-3400.57
0.9919,0.0081	-3400.38
0.9859,0.0141	-3400.70
0.9966,0.0034	-3400.13
0.9758,0.0242	-3401.26
0.9954,0.0046	-3400.19
0.9871,0.0129	-3400.64
0.9930,0.0070	-3400.32
0.9871,0.0129	-3400.64
0.9966,0.0034	-3400.13
0.9801,0.0199	-3401.02
0.9930,0.0070	-3400.32
0.9865,0.0135	-3400.68
0.9916,0.0084	-3400.40
0.9840,0.0160	-3400.81
0.9965,0.0035	-3400.13
0.9729,0.0271	-3401.42
0.9939,0.0061	-3400.28
0.9830,0.0170	-3400.87
0.9928,0.0072	-3400.33
0.9867,0.0133	-3400.67
0.9967,0.0033	-3400.13
0.9708,0.0292	-3401.54
0.9935,0.0065	-3400.30
0.9833,0.0167	-3400.85
0.9933,0.0067	-3400.31
0.9883,0.0117	-3400.58
0.9966,0.0034	-3400.13
0.9705,0.0295	-3401.56
0.9946,0.0054	-3400.23
0.9839,0.0161	-3400.82
0.9951,0.0049	-3400.21
0.9838,0.0162	-3400.82
0.9965,0.0035	-3400.14
0.9692,0.0308	-3401.63
0.9942,0.0058	-3400.26
0.9870,0.0130	-3400.65
0.9949,0.0051	-3400.22
0.9829,0.0171	-3400.87
0.9957,0.0043	-3400.18
0.9731,0.0269	-3401.41
0.9947,0.0053	-3400.23
0.9873,0.0127	-3400.63
0.9943,0.0057	-3400.25
0.9834,0.0166	-3400.84
0.9960,0.0040	-3400.16
0.9736,0.0264	-3401.38
0.9943,0.0057	-3400.25
0.9874,0.0126	-3400.63
0.9950,0.0050	-3400.21
0.9840,0.0160	-3400.81
0.9967,0.0033	-3400.12
0.9798,0.0202	-3401.04
0.9954,0.0046	-3400.19
0.9885,0.0115	-3400.56
0.9950,0.0050	-3400.22
0.9799,0.0201	-3401.03
