#isoforms=['ENSG00000110080.SE.2.A.up_ENSG00000110080.SE.2.A.SE1_ENSG00000110080.SE.2.A.dn','ENSG00000110080.SE.2.B.up_ENSG00000110080.SE.2.B.dn']	exon_lens=('ENSG00000110080.SE.2.A.up',61),('ENSG00000110080.SE.2.A.SE1',96),('ENSG00000110080.SE.2.A.dn',190),('ENSG00000110080.SE.2.B.up',61),('ENSG00000110080.SE.2.B.dn',190)	iters=5000	burn_in=500	lag=10	percent_accept=95.58	proposal_type=drift	counts=(0,0):1009,(1,0):686,(1,1):563	assigned_counts=0:1248,1:1	chrom=chr11	strand=+	mRNA_starts=126407574,126407574	mRNA_ends=126408496,126408496
sampled_psi	log_score
0.9930,0.0070	-6936.12
0.9899,0.0101	-6921.08
0.9831,0.0169	-6934.92
0.9808,0.0192	-6939.35
0.9887,0.0113	-6907.82
0.9874,0.0126	-6908.36
0.9925,0.0075	-6926.05
0.9893,0.0107	-6916.62
0.9850,0.0150	-6905.33
0.9828,0.0172	-6934.97
0.9878,0.0122	-6912.58
0.9862,0.0138	-6904.70
0.9902,0.0098	-6925.68
0.9895,0.0105	-6934.75
0.9883,0.0117	-6925.72
0.9798,0.0202	-6927.91
0.9894,0.0106	-6907.53
0.9853,0.0147	-6922.01
0.9913,0.0087	-6911.58
0.9900,0.0100	-6930.28
0.9901,0.0099	-6902.67
0.9799,0.0201	-6931.76
0.9895,0.0105	-6907.50
0.9870,0.0130	-6930.21
0.9910,0.0090	-6911.65
0.9895,0.0105	-6916.58
0.9901,0.0099	-6911.86
0.9846,0.0154	-6930.53
0.9878,0.0122	-6903.83
0.9885,0.0115	-6930.16
0.9938,0.0062	-6896.13
0.9904,0.0096	-6916.42
0.9906,0.0094	-6907.10
0.9863,0.0137	-6930.27
0.9887,0.0113	-6912.28
0.9902,0.0098	-6893.40
0.9935,0.0065	-6931.51
0.9909,0.0091	-6916.36
0.9897,0.0103	-6916.54
0.9851,0.0149	-6930.44
0.9909,0.0091	-6925.74
0.9875,0.0125	-6930.18
0.9933,0.0067	-6901.36
0.9928,0.0072	-6891.70
0.9902,0.0098	-6911.84
0.9887,0.0113	-6925.69
0.9914,0.0086	-6916.31
0.9858,0.0142	-6934.58
0.9923,0.0077	-6906.57
0.9928,0.0072	-6896.59
0.9887,0.0113	-6903.36
0.9883,0.0117	-6925.72
0.9915,0.0085	-6906.79
0.9864,0.0136	-6930.26
0.9943,0.0057	-6890.77
0.9939,0.0061	-6916.46
0.9910,0.0090	-6902.23
0.9854,0.0146	-6938.82
0.9926,0.0074	-6896.72
0.9845,0.0155	-6984.54
0.9946,0.0054	-6901.01
0.9934,0.0066	-6921.39
0.9931,0.0069	-6896.45
0.9873,0.0127	-6925.84
0.9936,0.0064	-6951.77
0.9840,0.0160	-6934.77
0.9941,0.0059	-6901.13
0.9925,0.0075	-6901.63
0.9931,0.0069	-6906.40
0.9852,0.0148	-6938.83
0.9923,0.0077	-6916.29
0.9845,0.0155	-6922.25
0.9940,0.0060	-6916.50
0.9932,0.0068	-6901.41
0.9929,0.0071	-6901.51
0.9835,0.0165	-6914.39
0.9937,0.0063	-6901.24
0.9826,0.0174	-6947.11
0.9940,0.0060	-6901.15
0.9919,0.0081	-6906.67
0.9932,0.0068	-6901.38
0.9862,0.0138	-6943.09
0.9949,0.0051	-6911.49
0.9805,0.0195	-6935.51
0.9930,0.0070	-6921.28
0.9920,0.0080	-6911.47
0.9934,0.0066	-6911.36
0.9869,0.0131	-6921.59
0.9949,0.0051	-6895.69
0.9822,0.0178	-6931.10
0.9948,0.0052	-6906.23
0.9919,0.0081	-6906.69
0.9933,0.0067	-6911.36
0.9845,0.0155	-6922.26
0.9947,0.0053	-6906.23
0.9820,0.0180	-6931.13
0.9947,0.0053	-6885.32
0.9909,0.0091	-6897.62
0.9929,0.0071	-6891.61
0.9859,0.0141	-6943.07
0.9954,0.0046	-6900.88
0.9826,0.0174	-6910.82
0.9945,0.0055	-6885.40
0.9893,0.0107	-6903.03
0.9930,0.0070	-6916.33
0.9847,0.0153	-6938.85
0.9939,0.0061	-6911.37
0.9838,0.0162	-6938.91
0.9949,0.0051	-6900.95
0.9887,0.0113	-6930.17
0.9912,0.0088	-6921.05
0.9836,0.0164	-6943.02
0.9946,0.0054	-6911.44
0.9844,0.0156	-6930.58
0.9960,0.0040	-6900.84
0.9899,0.0101	-6902.77
0.9913,0.0087	-6892.66
0.9855,0.0145	-6913.52
0.9957,0.0043	-6900.86
0.9882,0.0118	-6925.73
0.9959,0.0041	-6895.34
0.9886,0.0114	-6903.39
0.9896,0.0104	-6930.23
0.9877,0.0123	-6921.39
0.9942,0.0058	-6895.96
0.9886,0.0114	-6943.54
0.9953,0.0047	-6900.90
0.9894,0.0106	-6939.28
0.9894,0.0106	-6912.05
0.9869,0.0131	-6925.89
0.9943,0.0057	-6911.40
0.9881,0.0119	-6916.91
0.9940,0.0060	-6896.03
0.9866,0.0134	-6917.33
0.9889,0.0111	-6912.23
0.9890,0.0110	-6912.17
0.9932,0.0068	-6901.40
0.9891,0.0109	-6916.65
0.9944,0.0056	-6901.06
0.9860,0.0140	-6930.31
0.9875,0.0125	-6895.24
0.9867,0.0133	-6938.85
0.9913,0.0087	-6916.32
0.9883,0.0117	-6925.73
0.9952,0.0048	-6906.24
0.9844,0.0156	-6918.12
0.9859,0.0141	-6921.84
0.9866,0.0134	-6968.92
0.9904,0.0096	-6902.54
0.9895,0.0105	-6902.96
0.9951,0.0049	-6906.23
0.9864,0.0136	-6908.83
0.9866,0.0134	-6947.43
0.9879,0.0121	-6912.56
0.9919,0.0081	-6911.48
0.9902,0.0098	-6902.61
0.9934,0.0066	-6901.32
0.9890,0.0110	-6903.21
0.9889,0.0111	-6903.26
0.9919,0.0081	-6911.49
0.9925,0.0075	-6916.29
0.9902,0.0098	-6939.52
0.9911,0.0089	-6902.21
0.9882,0.0118	-6934.58
0.9885,0.0115	-6907.90
0.9926,0.0074	-6901.58
0.9934,0.0066	-6896.30
0.9881,0.0119	-6925.74
0.9900,0.0100	-6953.27
0.9862,0.0138	-6934.56
0.9857,0.0143	-6913.42
0.9930,0.0070	-6911.37
0.9931,0.0069	-6901.41
0.9850,0.0150	-6922.09
0.9901,0.0099	-6911.86
0.9810,0.0190	-6935.38
0.9806,0.0194	-6955.08
0.9937,0.0063	-6906.30
0.9932,0.0068	-6906.38
0.9842,0.0158	-6922.33
0.9890,0.0110	-6898.70
0.9814,0.0186	-6935.27
0.9796,0.0204	-6958.97
0.9945,0.0055	-6895.85
0.9926,0.0074	-6911.40
0.9868,0.0132	-6921.60
0.9923,0.0077	-6916.29
0.9774,0.0226	-6936.42
0.9847,0.0153	-6963.82
0.9950,0.0050	-6906.23
0.9929,0.0071	-6901.49
0.9852,0.0148	-6926.23
0.9933,0.0067	-6896.35
0.9777,0.0223	-6951.45
0.9860,0.0140	-6921.81
0.9944,0.0056	-6895.86
0.9919,0.0081	-6911.48
0.9861,0.0139	-6908.97
0.9922,0.0078	-6916.29
0.9731,0.0269	-6955.98
0.9841,0.0159	-6910.03
0.9951,0.0049	-6890.27
0.9932,0.0068	-6906.37
0.9876,0.0124	-6912.68
0.9916,0.0084	-6916.31
0.9704,0.0296	-6949.68
0.9876,0.0124	-6912.68
0.9955,0.0045	-6890.09
0.9934,0.0066	-6911.36
0.9892,0.0108	-6916.64
0.9897,0.0103	-6907.39
0.9733,0.0267	-6948.75
0.9862,0.0138	-6908.93
0.9962,0.0038	-6895.29
0.9937,0.0063	-6896.17
0.9905,0.0095	-6902.48
0.9912,0.0088	-6906.88
0.9726,0.0274	-6952.52
0.9889,0.0111	-6934.66
0.9968,0.0032	-6889.40
0.9935,0.0065	-6906.33
0.9909,0.0091	-6916.36
0.9921,0.0079	-6906.62
0.9740,0.0260	-6966.66
0.9910,0.0090	-6911.65
0.9972,0.0028	-6889.23
0.9942,0.0058	-6901.10
0.9924,0.0076	-6906.55
0.9916,0.0084	-6911.54
0.9782,0.0218	-6947.57
0.9900,0.0100	-6925.68
0.9976,0.0024	-6925.22
0.9944,0.0056	-6932.17
0.9920,0.0080	-6901.83
0.9909,0.0091	-6897.63
0.9822,0.0178	-6947.13
0.9914,0.0086	-6897.34
0.9976,0.0024	-6889.08
0.9955,0.0045	-6906.27
0.9925,0.0075	-6896.78
0.9918,0.0082	-6911.50
0.9812,0.0188	-6935.31
0.9914,0.0086	-6911.58
0.9980,0.0020	-6882.76
0.9952,0.0048	-6906.24
0.9933,0.0067	-6916.36
0.9925,0.0075	-6896.73
0.9827,0.0173	-6926.91
0.9922,0.0078	-6901.75
0.9978,0.0022	-6882.91
0.9952,0.0048	-6916.89
0.9909,0.0091	-6925.74
0.9924,0.0076	-6916.29
0.9813,0.0187	-6919.46
0.9933,0.0067	-6906.35
0.9977,0.0023	-6882.97
0.9959,0.0041	-6895.34
0.9936,0.0064	-6896.23
0.9928,0.0072	-6911.39
0.9808,0.0192	-6939.36
0.9930,0.0070	-6896.49
0.9982,0.0018	-6882.58
0.9956,0.0044	-6890.02
0.9936,0.0064	-6901.27
0.9933,0.0067	-6901.37
0.9756,0.0244	-6959.20
0.9913,0.0087	-6911.58
0.9987,0.0013	-6895.48
0.9960,0.0040	-6889.79
0.9934,0.0066	-6901.32
0.9932,0.0068	-6906.38
0.9727,0.0273	-6956.07
0.9924,0.0076	-6916.29
0.9988,0.0012	-6882.15
0.9966,0.0034	-6883.83
0.9947,0.0053	-6916.70
0.9951,0.0049	-6890.31
0.9764,0.0236	-6936.78
0.9916,0.0084	-6911.53
0.9988,0.0012	-6882.12
0.9969,0.0031	-6883.63
0.9958,0.0042	-6895.37
0.9942,0.0058	-6895.94
0.9781,0.0219	-6940.01
0.9931,0.0069	-6896.45
0.9987,0.0013	-6882.18
0.9976,0.0024	-6901.17
0.9965,0.0035	-6900.86
0.9942,0.0058	-6916.54
0.9772,0.0228	-6944.00
0.9934,0.0066	-6886.30
0.9988,0.0012	-6882.13
0.9968,0.0032	-6895.16
0.9959,0.0041	-6895.34
0.9928,0.0072	-6916.31
0.9741,0.0259	-6952.15
0.9927,0.0073	-6911.39
0.9986,0.0014	-6882.27
0.9967,0.0033	-6883.76
0.9949,0.0051	-6890.43
0.9934,0.0066	-6911.36
0.9806,0.0194	-6939.39
0.9929,0.0071	-6911.37
0.9989,0.0011	-6888.88
0.9957,0.0043	-6911.73
0.9947,0.0053	-6895.74
0.9942,0.0058	-6901.12
0.9834,0.0166	-6922.64
0.9926,0.0074	-6906.50
0.9991,0.0009	-6881.91
0.9952,0.0048	-6890.24
0.9927,0.0073	-6896.65
0.9942,0.0058	-6911.39
0.9826,0.0174	-6947.11
0.9912,0.0088	-6911.60
0.9992,0.0008	-6881.87
0.9942,0.0058	-6895.95
0.9935,0.0065	-6896.28
0.9941,0.0059	-6890.91
0.9822,0.0178	-6931.07
0.9912,0.0088	-6906.88
0.9991,0.0009	-6888.94
0.9932,0.0068	-6906.38
0.9930,0.0070	-6906.41
0.9917,0.0083	-6901.97
0.9818,0.0182	-6939.18
0.9910,0.0090	-6916.35
0.9990,0.0010	-6895.86
0.9918,0.0082	-6911.51
0.9938,0.0062	-6911.37
0.9947,0.0053	-6900.99
0.9835,0.0165	-6943.02
0.9927,0.0073	-6911.39
0.9989,0.0011	-6882.03
0.9925,0.0075	-6930.95
0.9928,0.0072	-6926.16
0.9940,0.0060	-6901.17
0.9845,0.0155	-6922.27
0.9905,0.0095	-6907.11
0.9991,0.0009	-6881.90
0.9928,0.0072	-6916.31
0.9932,0.0068	-6911.36
0.9939,0.0061	-6890.98
0.9846,0.0154	-6905.59
0.9910,0.0090	-6902.24
0.9992,0.0008	-6888.95
0.9929,0.0071	-6906.44
0.9942,0.0058	-6911.40
0.9946,0.0054	-6911.44
0.9876,0.0124	-6917.03
0.9899,0.0101	-6921.09
0.9992,0.0008	-6888.97
0.9930,0.0070	-6901.48
0.9940,0.0060	-6926.73
0.9943,0.0057	-6895.94
0.9898,0.0102	-6911.94
0.9869,0.0131	-6908.59
0.9992,0.0008	-6881.82
0.9922,0.0078	-6901.75
0.9927,0.0073	-6916.30
0.9952,0.0048	-6884.91
0.9921,0.0079	-6930.78
0.9879,0.0121	-6925.76
0.9992,0.0008	-6881.80
0.9942,0.0058	-6901.10
0.9932,0.0068	-6911.36
0.9964,0.0036	-6900.85
0.9921,0.0079	-6916.29
0.9912,0.0088	-6897.44
0.9991,0.0009	-6881.88
0.9932,0.0068	-6891.45
0.9915,0.0085	-6916.31
0.9963,0.0037	-6895.24
0.9904,0.0096	-6907.14
0.9893,0.0107	-6934.72
0.9992,0.0008	-6881.86
0.9919,0.0081	-6906.67
0.9905,0.0095	-6911.77
0.9952,0.0048	-6900.90
0.9887,0.0113	-6925.70
0.9898,0.0102	-6902.79
0.9991,0.0009	-6888.93
0.9912,0.0088	-6902.17
0.9903,0.0097	-6902.56
0.9951,0.0049	-6895.61
0.9888,0.0112	-6912.26
0.9882,0.0118	-6912.46
0.9990,0.0010	-6881.96
0.9898,0.0102	-6930.24
0.9898,0.0102	-6902.81
0.9934,0.0066	-6891.30
0.9876,0.0124	-6938.93
0.9892,0.0108	-6921.15
0.9992,0.0008	-6881.85
0.9903,0.0097	-6930.31
0.9889,0.0111	-6907.73
0.9920,0.0080	-6901.84
0.9862,0.0138	-6917.47
0.9879,0.0121	-6908.15
0.9993,0.0007	-6889.00
0.9934,0.0066	-6916.38
0.9884,0.0116	-6930.16
0.9934,0.0066	-6901.34
0.9881,0.0119	-6947.82
0.9891,0.0109	-6925.68
0.9991,0.0009	-6902.84
0.9938,0.0062	-6921.51
0.9884,0.0116	-6916.82
0.9937,0.0063	-6901.23
0.9880,0.0120	-6903.67
0.9899,0.0101	-6911.93
0.9991,0.0009	-6881.94
0.9931,0.0069	-6906.40
0.9903,0.0097	-6939.55
0.9923,0.0077	-6901.71
0.9893,0.0107	-6939.26
0.9879,0.0121	-6925.76
0.9991,0.0009	-6881.95
0.9939,0.0061	-6901.17
0.9862,0.0138	-6926.02
0.9917,0.0083	-6916.30
0.9889,0.0111	-6921.20
0.9887,0.0113	-6903.34
0.9990,0.0010	-6888.90
0.9948,0.0052	-6895.72
0.9884,0.0116	-6903.49
0.9923,0.0077	-6906.57
0.9920,0.0080	-6906.65
0.9868,0.0132	-6934.54
0.9988,0.0012	-6882.15
0.9940,0.0060	-6896.03
0.9870,0.0130	-6917.23
0.9919,0.0081	-6892.26
0.9910,0.0090	-6906.94
0.9875,0.0125	-6925.82
0.9988,0.0012	-6882.13
0.9920,0.0080	-6901.83
0.9875,0.0125	-6921.44
0.9914,0.0086	-6906.82
0.9909,0.0091	-6916.36
0.9884,0.0116	-6921.28
0.9987,0.0013	-6888.86
0.9908,0.0092	-6911.70
0.9899,0.0101	-6921.09
0.9917,0.0083	-6901.94
0.9915,0.0085	-6906.80
0.9845,0.0155	-6934.70
0.9985,0.0015	-6882.35
0.9920,0.0080	-6901.82
0.9909,0.0091	-6906.99
0.9922,0.0078	-6916.29
0.9929,0.0071	-6926.20
0.9862,0.0138	-6917.49
0.9985,0.0015	-6901.89
0.9921,0.0079	-6896.98
0.9910,0.0090	-6897.53
0.9928,0.0072	-6896.61
0.9909,0.0091	-6892.90
0.9789,0.0211	-6951.30
0.9986,0.0014	-6895.46
0.9914,0.0086	-6906.83
0.9914,0.0086	-6916.32
0.9953,0.0047	-6927.69
0.9910,0.0090	-6902.23
0.9790,0.0210	-6943.59
0.9990,0.0010	-6882.01
0.9898,0.0102	-6911.93
0.9912,0.0088	-6916.34
0.9954,0.0046	-6895.50
0.9917,0.0083	-6897.15
0.9810,0.0190	-6943.26
0.9990,0.0010	-6882.01
0.9885,0.0115	-6912.36
0.9894,0.0106	-6889.39
0.9960,0.0040	-6889.82
0.9899,0.0101	-6939.42
0.9785,0.0215	-6943.70
0.9992,0.0008	-6896.10
0.9880,0.0120	-6908.11
0.9900,0.0100	-6916.48
0.9963,0.0037	-6900.85
0.9906,0.0094	-6911.74
0.9808,0.0192	-6943.28
0.9991,0.0009	-6881.93
0.9884,0.0116	-6916.84
0.9916,0.0084	-6901.99
0.9961,0.0039	-6900.84
0.9918,0.0082	-6921.09
0.9809,0.0191	-6959.02
0.9991,0.0009	-6895.91
0.9884,0.0116	-6916.83
0.9916,0.0084	-6887.69
0.9961,0.0039	-6895.30
0.9892,0.0108	-6889.56
0.9810,0.0190	-6931.43
0.9990,0.0010	-6895.77
0.9909,0.0091	-6930.42
0.9935,0.0065	-6906.32
0.9967,0.0033	-6906.61
0.9896,0.0104	-6916.56
0.9847,0.0153	-6930.52
0.9989,0.0011	-6888.87
0.9901,0.0099	-6921.08
0.9946,0.0054	-6901.01
0.9971,0.0029	-6889.31
0.9903,0.0097	-6907.20
0.9888,0.0112	-6934.65
0.9989,0.0011	-6882.10
0.9912,0.0088	-6902.17
0.9950,0.0050	-6900.93
0.9969,0.0031	-6895.14
0.9914,0.0086	-6916.31
0.9878,0.0122	-6908.19
0.9986,0.0014	-6882.33
0.9920,0.0080	-6916.29
0.9956,0.0044	-6895.45
0.9962,0.0038	-6906.41
0.9917,0.0083	-6921.08
0.9884,0.0116	-6912.39
0.9985,0.0015	-6882.34
0.9935,0.0065	-6906.33
0.9957,0.0043	-6895.39
0.9961,0.0039	-6895.30
0.9930,0.0070	-6906.41
0.9898,0.0102	-6934.83
0.9986,0.0014	-6882.27
0.9927,0.0073	-6901.58
0.9958,0.0042	-6884.45
0.9951,0.0049	-6885.00
0.9932,0.0068	-6901.39
0.9889,0.0111	-6925.68
0.9982,0.0018	-6888.93
0.9921,0.0079	-6916.29
0.9954,0.0046	-6900.88
0.9957,0.0043	-6889.99
0.9929,0.0071	-6891.65
0.9903,0.0097	-6907.18
0.9978,0.0022	-6889.01
0.9912,0.0088	-6906.87
0.9958,0.0042	-6900.85
0.9948,0.0052	-6895.72
0.9948,0.0052	-6900.96
0.9921,0.0079	-6896.96
0.9983,0.0017	-6888.91
0.9917,0.0083	-6921.08
0.9956,0.0044	-6884.60
0.9948,0.0052	-6900.97
0.9949,0.0051	-6890.39
0.9920,0.0080	-6901.82
0.9986,0.0014	-6888.87
0.9920,0.0080	-6901.81
0.9960,0.0040	-6900.84
0.9943,0.0057	-6890.74
0.9940,0.0060	-6906.27
0.9918,0.0082	-6911.49
0.9985,0.0015	-6882.40
0.9914,0.0086	-6906.84
0.9961,0.0039	-6911.95
0.9926,0.0074	-6906.50
0.9945,0.0055	-6901.03
0.9912,0.0088	-6906.87
0.9981,0.0019	-6888.95
0.9927,0.0073	-6901.56
0.9961,0.0039	-6884.21
0.9925,0.0075	-6891.87
0.9950,0.0050	-6895.65
0.9919,0.0081	-6916.29
0.9969,0.0031	-6883.57
0.9935,0.0065	-6916.39
0.9966,0.0034	-6900.86
0.9908,0.0092	-6911.68
0.9950,0.0050	-6895.63
0.9913,0.0087	-6906.85
0.9970,0.0030	-6889.35
0.9945,0.0055	-6895.82
0.9962,0.0038	-6900.84
0.9907,0.0093	-6911.71
0.9951,0.0049	-6900.92
0.9916,0.0084	-6901.99
0.9973,0.0027	-6883.32
0.9957,0.0043	-6900.85
0.9954,0.0046	-6890.15
0.9907,0.0093	-6916.38
0.9937,0.0063	-6911.36
0.9916,0.0084	-6906.75
0.9976,0.0024	-6901.15
0.9951,0.0049	-6911.55
0.9949,0.0051	-6906.23
0.9924,0.0076	-6916.29
0.9936,0.0064	-6906.32
0.9925,0.0075	-6911.41
0.9976,0.0024	-6883.09
0.9954,0.0046	-6900.88
0.9943,0.0057	-6901.07
0.9912,0.0088	-6911.60
0.9938,0.0062	-6901.22
0.9931,0.0069	-6911.37
0.9975,0.0025	-6895.12
0.9951,0.0049	-6916.86
0.9948,0.0052	-6895.73
0.9929,0.0071	-6901.51
0.9939,0.0061	-6896.08
0.9912,0.0088	-6902.17
0.9975,0.0025	-6889.11
0.9943,0.0057	-6895.94
0.9957,0.0043	-6895.41
0.9914,0.0086	-6897.35
0.9956,0.0044	-6900.86
0.9894,0.0106	-6912.05
0.9981,0.0019	-6895.19
0.9937,0.0063	-6906.30
0.9962,0.0038	-6895.27
0.9925,0.0075	-6916.29
0.9961,0.0039	-6884.24
0.9920,0.0080	-6901.82
0.9984,0.0016	-6888.89
0.9928,0.0072	-6911.39
0.9956,0.0044	-6906.28
0.9936,0.0064	-6916.40
0.9963,0.0037	-6895.26
0.9923,0.0077	-6901.71
0.9981,0.0019	-6895.22
0.9933,0.0067	-6901.36
0.9953,0.0047	-6895.55
0.9937,0.0063	-6896.16
0.9962,0.0038	-6895.28
0.9925,0.0075	-6906.52
0.9980,0.0020	-6888.98
0.9926,0.0074	-6916.30
0.9949,0.0051	-6895.70
0.9946,0.0054	-6901.02
0.9965,0.0035	-6895.21
0.9926,0.0074	-6916.30
0.9981,0.0019	-6895.21
0.9935,0.0065	-6926.43
0.9939,0.0061	-6911.37
0.9951,0.0049	-6884.95
0.9965,0.0035	-6889.56
0.9904,0.0096	-6911.79
0.9976,0.0024	-6895.12
0.9918,0.0082	-6901.89
0.9948,0.0052	-6890.46
0.9959,0.0041	-6889.88
0.9961,0.0039	-6884.23
0.9888,0.0112	-6930.17
0.9981,0.0019	-6882.66
0.9920,0.0080	-6906.64
0.9938,0.0062	-6896.15
0.9956,0.0044	-6900.86
0.9967,0.0033	-6889.45
0.9910,0.0090	-6892.82
0.9983,0.0017	-6888.90
0.9927,0.0073	-6916.30
0.9952,0.0048	-6900.90
0.9965,0.0035	-6900.86
0.9973,0.0027	-6895.12
0.9914,0.0086	-6925.81
0.9983,0.0017	-6901.62
0.9933,0.0067	-6916.36
0.9960,0.0040	-6889.80
0.9961,0.0039	-6895.29
0.9975,0.0025	-6895.12
0.9880,0.0120	-6916.93
0.9977,0.0023	-6882.96
0.9929,0.0071	-6901.49
0.9952,0.0048	-6895.57
0.9964,0.0036	-6889.62
0.9977,0.0023	-6895.13
0.9912,0.0088	-6902.14
0.9973,0.0027	-6895.12
0.9932,0.0068	-6911.36
0.9951,0.0049	-6884.99
0.9964,0.0036	-6889.60
0.9974,0.0026	-6901.07
0.9931,0.0069	-6906.40
0.9975,0.0025	-6889.13
0.9942,0.0058	-6895.95
0.9955,0.0045	-6890.09
0.9968,0.0032	-6895.15
0.9982,0.0018	-6882.63
0.9930,0.0070	-6906.41
0.9975,0.0025	-6883.11
0.9933,0.0067	-6911.36
0.9956,0.0044	-6911.71
0.9969,0.0031	-6895.14
0.9976,0.0024	-6889.09
0.9930,0.0070	-6916.32
0.9978,0.0022	-6889.03
0.9929,0.0071	-6896.57
0.9959,0.0041	-6906.34
0.9971,0.0029	-6895.13
0.9979,0.0021	-6888.99
0.9918,0.0082	-6897.13
0.9981,0.0019	-6882.65
0.9923,0.0077	-6916.29
0.9959,0.0041	-6889.83
0.9973,0.0027	-6912.81
0.9976,0.0024	-6901.15
0.9929,0.0071	-6921.26
0.9978,0.0022	-6895.15
0.9924,0.0076	-6921.17
0.9951,0.0049	-6890.30
0.9972,0.0028	-6889.26
0.9976,0.0024	-6889.10
0.9948,0.0052	-6885.21
0.9976,0.0024	-6889.11
0.9926,0.0074	-6906.50
0.9952,0.0048	-6895.57
0.9975,0.0025	-6889.13
0.9977,0.0023	-6882.99
0.9950,0.0050	-6885.05
0.9971,0.0029	-6889.28
0.9917,0.0083	-6916.30
0.9957,0.0043	-6895.40
0.9973,0.0027	-6895.11
0.9977,0.0023	-6882.98
0.9933,0.0067	-6916.36
0.9975,0.0025	-6901.11
0.9926,0.0074	-6896.69
0.9951,0.0049	-6916.86
0.9972,0.0028	-6900.99
0.9980,0.0020	-6888.98
0.9947,0.0053	-6906.23
0.9972,0.0028	-6895.12
0.9934,0.0066	-6901.34
0.9950,0.0050	-6895.63
0.9978,0.0022	-6889.03
0.9982,0.0018	-6882.63
0.9941,0.0059	-6896.00
0.9973,0.0027	-6889.18
0.9939,0.0061	-6916.46
0.9952,0.0048	-6890.26
0.9976,0.0024	-6889.08
0.9979,0.0021	-6888.99
0.9935,0.0065	-6906.33
0.9976,0.0024	-6883.06
0.9951,0.0049	-6900.93
0.9955,0.0045	-6917.06
0.9972,0.0028	-6883.38
0.9979,0.0021	-6882.81
0.9944,0.0056	-6895.89
0.9982,0.0018	-6888.92
0.9959,0.0041	-6884.39
0.9940,0.0060	-6906.26
0.9973,0.0027	-6883.28
0.9984,0.0016	-6888.89
0.9944,0.0056	-6895.89
0.9981,0.0019	-6882.65
0.9950,0.0050	-6895.64
0.9935,0.0065	-6906.32
0.9972,0.0028	-6895.12
0.9983,0.0017	-6882.50
0.9938,0.0062	-6896.13
0.9984,0.0016	-6888.88
0.9940,0.0060	-6906.26
0.9901,0.0099	-6907.27
0.9971,0.0029	-6883.45
0.9984,0.0016	-6888.89
0.9939,0.0061	-6896.11
0.9987,0.0013	-6882.24
0.9944,0.0056	-6890.71
0.9912,0.0088	-6911.61
0.9972,0.0028	-6889.25
0.9985,0.0015	-6882.35
0.9919,0.0081	-6930.71
0.9990,0.0010	-6888.89
0.9954,0.0046	-6890.10
0.9913,0.0087	-6916.32
0.9966,0.0034	-6895.19
0.9983,0.0017	-6895.26
0.9929,0.0071	-6891.62
0.9988,0.0012	-6888.87
0.9962,0.0038	-6895.27
0.9906,0.0094	-6902.40
0.9954,0.0046	-6884.74
0.9978,0.0022	-6901.29
0.9942,0.0058	-6895.96
0.9990,0.0010	-6881.97
0.9953,0.0047	-6895.54
0.9920,0.0080	-6897.01
0.9942,0.0058	-6906.25
0.9977,0.0023	-6901.20
0.9955,0.0045	-6911.68
0.9988,0.0012	-6882.16
0.9958,0.0042	-6917.28
0.9910,0.0090	-6911.65
0.9935,0.0065	-6906.33
0.9974,0.0026	-6895.11
0.9956,0.0044	-6895.45
0.9987,0.0013	-6882.24
0.9963,0.0037	-6900.84
0.9924,0.0076	-6916.29
0.9933,0.0067	-6896.38
0.9978,0.0022	-6895.15
0.9960,0.0040	-6906.37
0.9989,0.0011	-6895.69
0.9966,0.0034	-6895.20
0.9936,0.0064	-6891.20
0.9917,0.0083	-6921.08
0.9979,0.0021	-6889.00
0.9958,0.0042	-6906.32
0.9989,0.0011	-6882.04
0.9965,0.0035	-6906.50
0.9914,0.0086	-6916.32
0.9914,0.0086	-6906.83
0.9984,0.0016	-6882.45
0.9953,0.0047	-6900.89
0.9988,0.0012	-6882.12
0.9967,0.0033	-6900.89
0.9893,0.0107	-6916.61
0.9891,0.0109	-6907.63
0.9981,0.0019	-6882.66
0.9953,0.0047	-6895.52
0.9990,0.0010	-6888.90
0.9975,0.0025	-6889.12
0.9885,0.0115	-6921.26
0.9895,0.0105	-6921.12
0.9982,0.0018	-6882.62
0.9958,0.0042	-6889.93
0.9989,0.0011	-6909.41
0.9980,0.0020	-6888.96
0.9881,0.0119	-6908.07
0.9916,0.0084	-6901.98
0.9984,0.0016	-6908.14
0.9968,0.0032	-6895.16
0.9987,0.0013	-6882.21
0.9980,0.0020	-6888.96
0.9879,0.0121	-6930.17
0.9929,0.0071	-6906.44
0.9982,0.0018	-6888.92
0.9957,0.0043	-6911.74
0.9988,0.0012	-6882.14
0.9983,0.0017	-6888.90
0.9908,0.0092	-6916.37
0.9933,0.0067	-6901.35
0.9987,0.0013	-6888.86
0.9965,0.0035	-6895.20
0.9989,0.0011	-6895.73
0.9980,0.0020	-6888.97
0.9921,0.0079	-6892.15
0.9941,0.0059	-6906.26
0.9986,0.0014	-6888.87
0.9961,0.0039	-6900.84
0.9987,0.0013	-6895.52
0.9979,0.0021	-6889.00
0.9905,0.0095	-6916.41
0.9932,0.0068	-6901.40
0.9987,0.0013	-6895.55
0.9965,0.0035	-6917.83
0.9988,0.0012	-6888.87
0.9978,0.0022	-6882.94
0.9904,0.0096	-6911.79
0.9927,0.0073	-6901.57
0.9989,0.0011	-6902.41
0.9964,0.0036	-6889.62
0.9986,0.0014	-6888.86
0.9979,0.0021	-6889.00
0.9924,0.0076	-6940.66
0.9941,0.0059	-6926.75
0.9985,0.0015	-6901.82
0.9960,0.0040	-6895.33
0.9985,0.0015	-6895.37
0.9981,0.0019	-6888.94
0.9943,0.0057	-6911.40
0.9940,0.0060	-6906.26
0.9985,0.0015	-6888.87
0.9952,0.0048	-6906.24
0.9982,0.0018	-6882.61
0.9984,0.0016	-6901.81
0.9945,0.0055	-6916.63
0.9941,0.0059	-6906.26
0.9984,0.0016	-6882.48
0.9949,0.0051	-6922.06
0.9975,0.0025	-6883.13
0.9984,0.0016	-6882.48
0.9945,0.0055	-6895.83
0.9922,0.0078	-6892.03
0.9986,0.0014	-6882.26
0.9961,0.0039	-6884.20
0.9974,0.0026	-6883.18
0.9980,0.0020	-6888.97
0.9956,0.0044	-6895.44
0.9938,0.0062	-6901.21
0.9988,0.0012	-6902.38
0.9964,0.0036	-6895.23
0.9976,0.0024	-6889.09
0.9979,0.0021	-6901.30
0.9961,0.0039	-6906.38
0.9923,0.0077	-6901.72
0.9985,0.0015	-6888.88
0.9966,0.0034	-6895.19
0.9980,0.0020	-6882.76
0.9983,0.0017	-6882.52
0.9963,0.0037	-6889.68
0.9931,0.0069	-6901.43
0.9987,0.0013	-6882.21
0.9972,0.0028	-6889.25
0.9976,0.0024	-6889.09
0.9982,0.0018	-6888.91
0.9967,0.0033	-6889.44
0.9930,0.0070	-6901.46
0.9986,0.0014	-6882.33
0.9974,0.0026	-6895.11
0.9967,0.0033	-6889.45
0.9984,0.0016	-6888.89
0.9966,0.0034	-6923.57
0.9926,0.0074	-6896.72
0.9985,0.0015	-6882.41
0.9980,0.0020	-6882.78
0.9963,0.0037	-6884.08
0.9980,0.0020	-6901.43
0.9953,0.0047	-6890.17
0.9947,0.0053	-6900.98
0.9986,0.0014	-6895.42
0.9976,0.0024	-6883.05
0.9955,0.0045	-6890.08
0.9986,0.0014	-6882.28
0.9957,0.0043	-6906.30
0.9956,0.0044	-6900.86
0.9984,0.0016	-6888.89
0.9980,0.0020	-6895.19
0.9959,0.0041	-6889.83
0.9987,0.0013	-6888.86
0.9960,0.0040	-6889.82
0.9958,0.0042	-6895.39
0.9988,0.0012	-6888.87
0.9981,0.0019	-6888.94
0.9952,0.0048	-6906.24
0.9987,0.0013	-6882.19
0.9959,0.0041	-6900.84
0.9966,0.0034	-6889.49
0.9985,0.0015	-6882.38
0.9983,0.0017	-6882.52
0.9950,0.0050	-6895.63
0.9987,0.0013	-6888.86
0.9958,0.0042	-6884.45
0.9968,0.0032	-6895.15
0.9979,0.0021	-6889.00
0.9983,0.0017	-6901.66
0.9945,0.0055	-6890.66
0.9986,0.0014	-6888.86
0.9965,0.0035	-6895.21
0.9960,0.0040	-6884.28
0.9977,0.0023	-6895.13
0.9977,0.0023	-6882.98
0.9948,0.0052	-6906.23
0.9984,0.0016	-6888.89
0.9961,0.0039	-6895.31
0.9959,0.0041	-6895.34
0.9973,0.0027	-6895.12
0.9975,0.0025	-6895.12
0.9941,0.0059	-6901.13
0.9987,0.0013	-6888.86
0.9963,0.0037	-6895.25
0.9965,0.0035	-6895.20
0.9980,0.0020	-6895.19
0.9978,0.0022	-6895.15
0.9934,0.0066	-6906.35
0.9984,0.0016	-6895.32
0.9962,0.0038	-6906.41
0.9952,0.0048	-6900.91
0.9982,0.0018	-6888.93
0.9980,0.0020	-6888.97
0.9933,0.0067	-6901.35
0.9984,0.0016	-6882.45
0.9968,0.0032	-6889.42
0.9949,0.0051	-6916.78
0.9979,0.0021	-6882.80
0.9978,0.0022	-6889.03
0.9939,0.0061	-6901.18
0.9985,0.0015	-6888.87
0.9967,0.0033	-6889.46
0.9949,0.0051	-6890.43
0.9982,0.0018	-6882.62
0.9975,0.0025	-6889.13
0.9943,0.0057	-6906.24
0.9986,0.0014	-6895.43
0.9968,0.0032	-6906.64
0.9955,0.0045	-6890.09
0.9982,0.0018	-6882.57
0.9971,0.0029	-6889.28
0.9948,0.0052	-6890.47
0.9985,0.0015	-6895.38
0.9967,0.0033	-6895.17
0.9956,0.0044	-6906.28
0.9984,0.0016	-6895.34
0.9973,0.0027	-6889.20
0.9951,0.0049	-6906.23
0.9987,0.0013	-6888.86
0.9974,0.0026	-6895.11
0.9961,0.0039	-6900.84
0.9985,0.0015	-6888.87
0.9971,0.0029	-6889.29
0.9953,0.0047	-6906.25
0.9987,0.0013	-6895.54
0.9972,0.0028	-6883.36
0.9964,0.0036	-6906.48
0.9988,0.0012	-6895.61
0.9970,0.0030	-6895.13
0.9960,0.0040	-6906.36
0.9985,0.0015	-6882.34
0.9978,0.0022	-6889.04
0.9956,0.0044	-6890.01
0.9987,0.0013	-6902.11
0.9963,0.0037	-6900.84
0.9956,0.0044	-6895.44
0.9982,0.0018	-6888.93
0.9979,0.0021	-6888.99
0.9957,0.0043	-6911.76
0.9988,0.0012	-6888.86
0.9959,0.0041	-6906.33
0.9960,0.0040	-6911.88
0.9985,0.0015	-6895.38
0.9981,0.0019	-6888.95
0.9953,0.0047	-6884.84
0.9988,0.0012	-6909.11
0.9957,0.0043	-6895.42
0.9962,0.0038	-6900.84
0.9982,0.0018	-6888.91
0.9985,0.0015	-6882.38
0.9962,0.0038	-6900.84
0.9988,0.0012	-6882.12
0.9962,0.0038	-6900.84
0.9949,0.0051	-6885.12
0.9982,0.0018	-6882.58
0.9986,0.0014	-6882.31
0.9956,0.0044	-6906.29
0.9985,0.0015	-6882.36
0.9965,0.0035	-6895.20
0.9953,0.0047	-6906.25
0.9982,0.0018	-6888.92
0.9988,0.0012	-6882.12
0.9960,0.0040	-6889.81
0.9986,0.0014	-6882.30
0.9974,0.0026	-6889.18
0.9965,0.0035	-6900.86
0.9981,0.0019	-6882.68
0.9987,0.0013	-6882.24
0.9954,0.0046	-6895.50
0.9985,0.0015	-6882.35
0.9976,0.0024	-6883.03
0.9960,0.0040	-6889.82
0.9982,0.0018	-6895.23
0.9988,0.0012	-6902.38
0.9954,0.0046	-6900.88
0.9987,0.0013	-6882.20
0.9975,0.0025	-6883.12
0.9936,0.0064	-6901.27
0.9982,0.0018	-6888.93
0.9988,0.0012	-6895.56
0.9950,0.0050	-6900.94
0.9990,0.0010	-6888.89
0.9979,0.0021	-6889.01
0.9941,0.0059	-6901.14
0.9984,0.0016	-6882.47
0.9988,0.0012	-6882.16
0.9951,0.0049	-6906.24
0.9988,0.0012	-6882.16
0.9980,0.0020	-6895.19
0.9939,0.0061	-6896.09
0.9981,0.0019	-6888.94
0.9988,0.0012	-6895.60
0.9937,0.0063	-6931.58
0.9989,0.0011	-6882.09
0.9977,0.0023	-6889.06
0.9932,0.0068	-6906.39
0.9986,0.0014	-6882.33
0.9987,0.0013	-6882.22
0.9945,0.0055	-6916.63
0.9988,0.0012	-6882.17
0.9980,0.0020	-6888.97
0.9949,0.0051	-6916.75
0.9989,0.0011	-6888.88
0.9989,0.0011	-6888.87
0.9938,0.0062	-6891.06
0.9986,0.0014	-6882.33
0.9981,0.0019	-6882.69
0.9923,0.0077	-6921.15
0.9991,0.0009	-6881.90
0.9985,0.0015	-6888.87
0.9947,0.0053	-6895.74
0.9987,0.0013	-6882.21
0.9983,0.0017	-6882.51
0.9934,0.0066	-6901.32
0.9991,0.0009	-6881.92
0.9987,0.0013	-6882.25
0.9958,0.0042	-6906.31
0.9989,0.0011	-6882.04
0.9981,0.0019	-6882.71
0.9944,0.0056	-6895.86
0.9990,0.0010	-6902.66
0.9987,0.0013	-6882.25
0.9953,0.0047	-6906.25
0.9990,0.0010	-6881.98
0.9980,0.0020	-6882.77
0.9932,0.0068	-6911.36
0.9990,0.0010	-6888.90
0.9983,0.0017	-6888.90
0.9949,0.0051	-6895.67
0.9990,0.0010	-6881.96
0.9982,0.0018	-6882.58
0.9947,0.0053	-6911.45
0.9991,0.0009	-6888.91
0.9985,0.0015	-6888.88
0.9951,0.0049	-6890.30
0.9990,0.0010	-6882.01
0.9978,0.0022	-6895.14
0.9955,0.0045	-6890.05
0.9992,0.0008	-6881.87
0.9983,0.0017	-6882.49
0.9942,0.0058	-6895.95
0.9991,0.0009	-6888.92
0.9977,0.0023	-6883.02
0.9947,0.0053	-6895.77
0.9990,0.0010	-6888.89
0.9985,0.0015	-6882.34
0.9938,0.0062	-6901.21
0.9993,0.0007	-6881.77
0.9974,0.0026	-6913.00
0.9947,0.0053	-6906.23
0.9989,0.0011	-6882.10
0.9984,0.0016	-6888.88
0.9943,0.0057	-6911.41
0.9993,0.0007	-6881.75
0.9973,0.0027	-6883.27
0.9949,0.0051	-6890.43
0.9986,0.0014	-6888.87
0.9985,0.0015	-6888.87
0.9939,0.0061	-6906.28
0.9993,0.0007	-6889.01
0.9970,0.0030	-6883.51
0.9936,0.0064	-6911.36
0.9988,0.0012	-6888.87
0.9988,0.0012	-6895.61
0.9953,0.0047	-6906.25
0.9991,0.0009	-6881.92
0.9978,0.0022	-6882.89
0.9951,0.0049	-6895.62
0.9988,0.0012	-6882.13
0.9989,0.0011	-6888.87
0.9953,0.0047	-6895.54
0.9990,0.0010	-6888.90
0.9975,0.0025	-6895.12
0.9942,0.0058	-6911.40
0.9991,0.0009	-6881.92
0.9987,0.0013	-6888.86
0.9952,0.0048	-6906.24
0.9990,0.0010	-6888.89
0.9980,0.0020	-6895.18
0.9942,0.0058	-6885.65
0.9992,0.0008	-6881.84
0.9989,0.0011	-6888.88
0.9952,0.0048	-6900.91
0.9988,0.0012	-6895.56
0.9983,0.0017	-6888.89
0.9956,0.0044	-6900.86
0.9994,0.0006	-6881.71
0.9991,0.0009	-6881.92
0.9958,0.0042	-6895.39
0.9989,0.0011	-6888.87
0.9983,0.0017	-6882.56
0.9952,0.0048	-6906.24
0.9992,0.0008	-6881.81
0.9990,0.0010	-6888.89
0.9966,0.0034	-6895.18
0.9990,0.0010	-6888.90
0.9982,0.0018	-6882.63
0.9953,0.0047	-6906.25
0.9993,0.0007	-6889.01
0.9992,0.0008	-6888.95
0.9969,0.0031	-6895.14
0.9988,0.0012	-6882.13
0.9984,0.0016	-6882.46
0.9955,0.0045	-6895.48
0.9993,0.0007	-6881.78
0.9991,0.0009	-6881.91
0.9963,0.0037	-6889.64
0.9990,0.0010	-6881.98
0.9985,0.0015	-6901.92
0.9964,0.0036	-6900.85
0.9993,0.0007	-6881.76
0.9989,0.0011	-6882.06
0.9957,0.0043	-6884.49
0.9988,0.0012	-6888.87
0.9988,0.0012	-6882.12
0.9960,0.0040	-6895.33
0.9991,0.0009	-6881.90
0.9990,0.0010	-6881.98
0.9949,0.0051	-6900.95
0.9989,0.0011	-6888.88
0.9988,0.0012	-6882.13
0.9963,0.0037	-6884.08
0.9992,0.0008	-6881.81
0.9990,0.0010	-6881.96
0.9950,0.0050	-6906.23
0.9989,0.0011	-6882.10
0.9983,0.0017	-6895.26
0.9961,0.0039	-6884.22
0.9991,0.0009	-6881.90
0.9991,0.0009	-6888.92
0.9963,0.0037	-6889.66
0.9990,0.0010	-6882.01
0.9985,0.0015	-6888.87
0.9957,0.0043	-6900.85
0.9990,0.0010	-6888.89
0.9990,0.0010	-6895.78
0.9958,0.0042	-6889.90
0.9989,0.0011	-6882.08
0.9983,0.0017	-6882.55
0.9958,0.0042	-6895.38
0.9986,0.0014	-6888.87
0.9990,0.0010	-6888.89
0.9953,0.0047	-6900.90
0.9989,0.0011	-6882.08
0.9984,0.0016	-6895.33
0.9958,0.0042	-6906.31
0.9986,0.0014	-6895.47
0.9990,0.0010	-6888.90
0.9954,0.0046	-6900.89
0.9991,0.0009	-6881.91
0.9982,0.0018	-6882.58
0.9954,0.0046	-6906.26
0.9987,0.0013	-6882.25
0.9989,0.0011	-6888.88
0.9951,0.0049	-6890.27
0.9990,0.0010	-6881.98
0.9986,0.0014	-6908.53
0.9960,0.0040	-6900.84
0.9990,0.0010	-6882.00
0.9991,0.0009	-6881.95
0.9938,0.0062	-6896.12
0.9990,0.0010	-6882.02
0.9987,0.0013	-6882.25
0.9967,0.0033	-6889.48
0.9989,0.0011	-6888.88
0.9989,0.0011	-6882.03
0.9944,0.0056	-6901.05
0.9991,0.0009	-6881.89
0.9985,0.0015	-6882.36
0.9967,0.0033	-6889.44
0.9987,0.0013	-6882.21
0.9991,0.0009	-6881.91
0.9948,0.0052	-6890.45
0.9992,0.0008	-6881.83
0.9985,0.0015	-6882.38
0.9968,0.0032	-6883.68
0.9986,0.0014	-6888.86
0.9992,0.0008	-6888.94
0.9943,0.0057	-6906.24
0.9992,0.0008	-6888.97
0.9987,0.0013	-6882.22
0.9969,0.0031	-6900.91
0.9985,0.0015	-6882.36
0.9989,0.0011	-6888.88
0.9948,0.0052	-6885.20
0.9993,0.0007	-6881.78
0.9989,0.0011	-6882.07
0.9968,0.0032	-6883.68
0.9983,0.0017	-6882.54
0.9989,0.0011	-6882.09
0.9942,0.0058	-6921.70
0.9992,0.0008	-6881.82
0.9991,0.0009	-6881.93
0.9961,0.0039	-6911.94
0.9983,0.0017	-6882.52
0.9986,0.0014	-6902.06
0.9948,0.0052	-6885.19
0.9992,0.0008	-6881.80
0.9993,0.0007	-6889.04
0.9939,0.0061	-6911.37
0.9981,0.0019	-6888.94
0.9987,0.0013	-6882.19
0.9951,0.0049	-6884.96
0.9992,0.0008	-6881.84
0.9993,0.0007	-6881.76
0.9942,0.0058	-6895.95
0.9982,0.0018	-6888.92
0.9986,0.0014	-6882.33
0.9946,0.0054	-6890.57
0.9992,0.0008	-6881.80
0.9994,0.0006	-6881.70
0.9946,0.0054	-6901.01
0.9984,0.0016	-6895.32
0.9987,0.0013	-6888.86
0.9960,0.0040	-6895.33
0.9991,0.0009	-6896.01
0.9993,0.0007	-6881.74
0.9947,0.0053	-6906.23
0.9983,0.0017	-6888.91
0.9986,0.0014	-6888.86
0.9956,0.0044	-6906.28
0.9992,0.0008	-6881.84
0.9992,0.0008	-6888.95
0.9937,0.0063	-6886.08
0.9982,0.0018	-6895.25
0.9987,0.0013	-6902.16
0.9960,0.0040	-6895.32
0.9992,0.0008	-6896.10
0.9991,0.0009	-6888.94
0.9944,0.0056	-6890.69
0.9986,0.0014	-6882.28
0.9988,0.0012	-6888.87
0.9939,0.0061	-6901.17
0.9992,0.0008	-6881.87
0.9990,0.0010	-6888.89
0.9950,0.0050	-6911.53
0.9991,0.0009	-6881.90
0.9987,0.0013	-6888.86
0.9948,0.0052	-6900.96
0.9992,0.0008	-6888.97
0.9986,0.0014	-6882.26
0.9949,0.0051	-6906.23
0.9993,0.0007	-6881.74
0.9986,0.0014	-6882.30
0.9936,0.0064	-6906.32
0.9992,0.0008	-6881.85
0.9985,0.0015	-6882.35
0.9961,0.0039	-6906.40
0.9992,0.0008	-6881.80
0.9985,0.0015	-6882.40
0.9955,0.0045	-6895.47
0.9992,0.0008	-6881.86
0.9982,0.0018	-6888.92
0.9961,0.0039	-6895.30
0.9991,0.0009	-6881.89
0.9986,0.0014	-6888.87
0.9954,0.0046	-6890.12
0.9992,0.0008	-6881.84
0.9979,0.0021	-6888.98
0.9960,0.0040	-6911.89
0.9990,0.0010	-6882.03
0.9980,0.0020	-6901.38
0.9948,0.0052	-6900.98
0.9991,0.0009	-6881.90
0.9979,0.0021	-6889.01
0.9956,0.0044	-6884.63
0.9991,0.0009	-6881.94
0.9979,0.0021	-6889.00
0.9955,0.0045	-6890.07
0.9992,0.0008	-6888.97
0.9974,0.0026	-6895.11
0.9966,0.0034	-6889.52
0.9991,0.0009	-6881.89
0.9983,0.0017	-6882.51
0.9963,0.0037	-6900.85
0.9991,0.0009	-6888.93
0.9980,0.0020	-6907.55
0.9967,0.0033	-6883.74
0.9992,0.0008	-6888.97
0.9984,0.0016	-6895.30
0.9962,0.0038	-6906.43
0.9993,0.0007	-6881.77
0.9985,0.0015	-6888.88
0.9970,0.0030	-6883.50
0.9991,0.0009	-6888.91
0.9981,0.0019	-6888.95
0.9955,0.0045	-6906.27
0.9992,0.0008	-6881.86
0.9986,0.0014	-6882.27
0.9968,0.0032	-6889.44
0.9989,0.0011	-6895.65
0.9981,0.0019	-6895.21
0.9952,0.0048	-6895.58
0.9991,0.0009	-6881.93
0.9986,0.0014	-6895.41
0.9968,0.0032	-6883.68
0.9988,0.0012	-6882.13
0.9981,0.0019	-6882.66
0.9956,0.0044	-6911.71
0.9992,0.0008	-6881.83
0.9986,0.0014	-6895.41
0.9970,0.0030	-6883.54
0.9986,0.0014	-6882.30
0.9981,0.0019	-6882.69
0.9966,0.0034	-6895.18
0.9993,0.0007	-6889.03
0.9986,0.0014	-6888.87
0.9966,0.0034	-6906.55
0.9987,0.0013	-6882.23
0.9980,0.0020	-6888.96
0.9964,0.0036	-6906.47
0.9993,0.0007	-6881.72
0.9984,0.0016	-6895.31
0.9970,0.0030	-6883.48
0.9986,0.0014	-6895.46
0.9981,0.0019	-6907.74
0.9965,0.0035	-6895.21
0.9992,0.0008	-6881.83
0.9987,0.0013	-6882.21
0.9963,0.0037	-6889.64
0.9983,0.0017	-6882.50
0.9982,0.0018	-6895.24
0.9964,0.0036	-6883.95
0.9993,0.0007	-6889.04
0.9986,0.0014	-6882.33
0.9958,0.0042	-6900.85
0.9981,0.0019	-6882.72
0.9985,0.0015	-6888.87
0.9974,0.0026	-6901.05
0.9992,0.0008	-6888.95
0.9983,0.0017	-6882.50
0.9956,0.0044	-6890.02
0.9981,0.0019	-6882.68
0.9982,0.0018	-6882.58
0.9975,0.0025	-6895.12
0.9992,0.0008	-6881.87
0.9986,0.0014	-6888.86
0.9960,0.0040	-6900.84
0.9980,0.0020	-6888.97
0.9978,0.0022	-6882.91
0.9970,0.0030	-6900.94
0.9988,0.0012	-6882.13
0.9986,0.0014	-6902.06
0.9964,0.0036	-6895.24
0.9975,0.0025	-6883.14
0.9976,0.0024	-6901.17
0.9967,0.0033	-6883.75
0.9989,0.0011	-6882.08
0.9986,0.0014	-6888.87
0.9959,0.0041	-6895.35
0.9975,0.0025	-6889.11
0.9973,0.0027	-6906.94
0.9970,0.0030	-6889.32
0.9987,0.0013	-6888.86
0.9986,0.0014	-6882.29
0.9964,0.0036	-6900.85
0.9977,0.0023	-6889.07
0.9972,0.0028	-6912.71
0.9974,0.0026	-6895.11
0.9989,0.0011	-6888.88
0.9988,0.0012	-6882.12
0.9970,0.0030	-6889.32
0.9978,0.0022	-6882.91
0.9971,0.0029	-6895.13
0.9977,0.0023	-6882.95
0.9991,0.0009	-6881.93
0.9991,0.0009	-6888.92
0.9970,0.0030	-6900.95
0.9972,0.0028	-6895.12
0.9964,0.0036	-6895.22
0.9972,0.0028	-6889.26
0.9993,0.0007	-6881.78
0.9989,0.0011	-6882.06
0.9969,0.0031	-6895.14
0.9969,0.0031	-6883.57
0.9960,0.0040	-6889.80
0.9971,0.0029	-6883.44
0.9993,0.0007	-6881.76
0.9989,0.0011	-6888.87
0.9964,0.0036	-6906.47
0.9963,0.0037	-6889.64
0.9948,0.0052	-6890.45
0.9963,0.0037	-6895.25
0.9993,0.0007	-6881.76
0.9989,0.0011	-6882.03
0.9962,0.0038	-6895.27
0.9971,0.0029	-6889.28
0.9944,0.0056	-6895.86
0.9958,0.0042	-6911.77
0.9990,0.0010	-6888.90
0.9987,0.0013	-6882.19
0.9965,0.0035	-6912.13
0.9962,0.0038	-6900.84
0.9939,0.0061	-6891.00
0.9963,0.0037	-6895.26
0.9989,0.0011	-6882.04
0.9986,0.0014	-6888.87
0.9967,0.0033	-6883.74
0.9974,0.0026	-6895.11
0.9951,0.0049	-6900.93
0.9971,0.0029	-6889.27
0.9991,0.0009	-6888.92
0.9988,0.0012	-6882.14
0.9968,0.0032	-6889.42
0.9977,0.0023	-6901.18
0.9955,0.0045	-6890.10
0.9978,0.0022	-6901.26
0.9990,0.0010	-6881.97
0.9989,0.0011	-6888.88
0.9962,0.0038	-6889.69
0.9970,0.0030	-6900.95
0.9966,0.0034	-6889.52
0.9973,0.0027	-6901.04
0.9993,0.0007	-6889.02
0.9992,0.0008	-6881.84
0.9952,0.0048	-6906.24
0.9972,0.0028	-6889.23
0.9972,0.0028	-6901.00
0.9975,0.0025	-6883.16
0.9994,0.0006	-6881.68
0.9993,0.0007	-6881.79
0.9950,0.0050	-6900.93
0.9975,0.0025	-6907.06
0.9979,0.0021	-6882.84
0.9972,0.0028	-6895.12
0.9996,0.0004	-6881.56
0.9994,0.0006	-6881.70
0.9952,0.0048	-6900.91
0.9976,0.0024	-6889.08
0.9976,0.0024	-6883.03
0.9976,0.0024	-6907.18
0.9996,0.0004	-6881.53
0.9995,0.0005	-6881.59
0.9960,0.0040	-6895.32
0.9970,0.0030	-6889.34
0.9974,0.0026	-6906.98
0.9964,0.0036	-6889.58
0.9997,0.0003	-6881.45
0.9995,0.0005	-6881.58
0.9955,0.0045	-6895.47
0.9971,0.0029	-6906.84
0.9969,0.0031	-6889.36
0.9966,0.0034	-6889.51
0.9997,0.0003	-6889.69
0.9995,0.0005	-6881.58
0.9948,0.0052	-6895.73
0.9973,0.0027	-6883.32
0.9976,0.0024	-6895.12
0.9970,0.0030	-6883.55
0.9997,0.0003	-6881.44
0.9996,0.0004	-6881.52
0.9951,0.0049	-6906.23
0.9976,0.0024	-6889.10
0.9972,0.0028	-6900.99
0.9963,0.0037	-6889.66
0.9998,0.0002	-6881.37
0.9996,0.0004	-6881.50
0.9951,0.0049	-6895.59
0.9975,0.0025	-6889.14
0.9971,0.0029	-6895.13
0.9951,0.0049	-6906.23
0.9998,0.0002	-6881.36
0.9997,0.0003	-6881.48
0.9944,0.0056	-6895.87
0.9974,0.0026	-6883.24
0.9970,0.0030	-6889.32
0.9954,0.0046	-6900.89
0.9998,0.0002	-6890.08
0.9997,0.0003	-6881.48
0.9945,0.0055	-6895.85
0.9973,0.0027	-6883.31
0.9977,0.0023	-6889.06
0.9951,0.0049	-6890.30
0.9998,0.0002	-6881.36
0.9996,0.0004	-6889.43
0.9948,0.0052	-6895.71
0.9973,0.0027	-6889.20
0.9978,0.0022	-6889.02
0.9955,0.0045	-6900.87
0.9999,0.0001	-6881.32
0.9995,0.0005	-6881.58
0.9941,0.0059	-6890.87
0.9976,0.0024	-6895.12
0.9978,0.0022	-6901.28
0.9961,0.0039	-6889.77
0.9998,0.0002	-6881.34
0.9996,0.0004	-6881.51
0.9943,0.0057	-6895.92
0.9976,0.0024	-6907.18
0.9981,0.0019	-6882.70
0.9959,0.0041	-6889.84
0.9998,0.0002	-6881.36
0.9996,0.0004	-6881.57
0.9940,0.0060	-6911.37
0.9970,0.0030	-6900.93
0.9980,0.0020	-6888.96
0.9945,0.0055	-6911.42
0.9998,0.0002	-6881.40
0.9996,0.0004	-6897.24
0.9937,0.0063	-6896.19
0.9963,0.0037	-6884.05
0.9980,0.0020	-6888.97
0.9932,0.0068	-6911.36
0.9997,0.0003	-6881.42
0.9995,0.0005	-6889.20
0.9950,0.0050	-6895.66
0.9962,0.0038	-6900.84
0.9974,0.0026	-6883.20
0.9929,0.0071	-6916.32
0.9998,0.0002	-6881.39
0.9997,0.0003	-6881.49
0.9951,0.0049	-6911.56
0.9971,0.0029	-6930.13
0.9974,0.0026	-6883.23
0.9929,0.0071	-6886.67
0.9998,0.0002	-6881.36
0.9996,0.0004	-6881.55
0.9958,0.0042	-6900.85
0.9970,0.0030	-6889.31
0.9975,0.0025	-6901.10
0.9930,0.0070	-6901.45
0.9998,0.0002	-6889.93
0.9996,0.0004	-6881.57
0.9961,0.0039	-6900.84
0.9967,0.0033	-6895.17
0.9969,0.0031	-6895.14
0.9919,0.0081	-6901.87
0.9998,0.0002	-6881.39
0.9995,0.0005	-6881.60
0.9955,0.0045	-6900.87
0.9974,0.0026	-6901.08
0.9968,0.0032	-6900.90
0.9907,0.0093	-6907.06
0.9998,0.0002	-6881.36
0.9996,0.0004	-6881.55
0.9968,0.0032	-6900.89
0.9982,0.0018	-6882.57
0.9972,0.0028	-6901.00
0.9875,0.0125	-6930.18
0.9998,0.0002	-6881.36
0.9995,0.0005	-6889.23
0.9968,0.0032	-6900.89
0.9982,0.0018	-6888.91
0.9965,0.0035	-6883.93
0.9867,0.0133	-6925.92
0.9998,0.0002	-6881.38
0.9995,0.0005	-6889.22
0.9967,0.0033	-6900.89
0.9987,0.0013	-6888.86
0.9961,0.0039	-6884.20
0.9852,0.0148	-6934.63
0.9998,0.0002	-6881.36
0.9995,0.0005	-6881.60
0.9967,0.0033	-6900.88
0.9988,0.0012	-6882.14
0.9965,0.0035	-6895.20
0.9839,0.0161	-6943.01
0.9998,0.0002	-6881.35
0.9996,0.0004	-6881.53
0.9974,0.0026	-6912.91
0.9990,0.0010	-6881.99
0.9976,0.0024	-6883.07
0.9832,0.0168	-6914.54
0.9998,0.0002	-6881.36
0.9996,0.0004	-6889.29
0.9971,0.0029	-6889.29
0.9989,0.0011	-6882.05
0.9982,0.0018	-6882.63
0.9849,0.0151	-6934.65
0.9998,0.0002	-6881.36
0.9994,0.0006	-6881.71
0.9980,0.0020	-6895.17
0.9987,0.0013	-6888.86
0.9978,0.0022	-6889.02
0.9867,0.0133	-6917.30
0.9999,0.0001	-6881.33
0.9992,0.0008	-6896.10
0.9980,0.0020	-6888.96
0.9985,0.0015	-6882.37
0.9981,0.0019	-6888.94
0.9842,0.0158	-6934.74
0.9999,0.0001	-6881.32
0.9993,0.0007	-6881.73
0.9975,0.0025	-6889.11
0.9985,0.0015	-6888.88
0.9981,0.0019	-6882.71
0.9798,0.0202	-6935.69
0.9998,0.0002	-6881.39
0.9994,0.0006	-6881.66
0.9975,0.0025	-6889.12
0.9985,0.0015	-6882.38
0.9984,0.0016	-6882.47
0.9812,0.0188	-6951.14
0.9998,0.0002	-6881.41
0.9995,0.0005	-6889.15
0.9977,0.0023	-6895.14
0.9989,0.0011	-6888.87
0.9980,0.0020	-6882.78
0.9801,0.0199	-6962.88
0.9997,0.0003	-6881.42
0.9994,0.0006	-6881.70
0.9976,0.0024	-6883.04
0.9988,0.0012	-6902.28
0.9979,0.0021	-6907.48
0.9827,0.0173	-6918.84
0.9997,0.0003	-6906.21
0.9995,0.0005	-6881.61
0.9980,0.0020	-6882.74
0.9990,0.0010	-6882.00
0.9978,0.0022	-6895.14
0.9775,0.0225	-6955.26
0.9998,0.0002	-6881.40
0.9994,0.0006	-6881.67
0.9983,0.0017	-6895.26
0.9991,0.0009	-6881.90
0.9982,0.0018	-6895.25
0.9780,0.0220	-6928.65
0.9997,0.0003	-6881.43
0.9993,0.0007	-6889.01
0.9983,0.0017	-6882.53
0.9992,0.0008	-6888.98
0.9984,0.0016	-6882.43
0.9746,0.0254	-6962.97
0.9997,0.0003	-6881.44
0.9992,0.0008	-6881.83
0.9984,0.0016	-6901.74
0.9993,0.0007	-6881.76
0.9984,0.0016	-6895.30
0.9773,0.0227	-6970.33
0.9997,0.0003	-6881.47
0.9993,0.0007	-6889.06
0.9984,0.0016	-6895.35
0.9993,0.0007	-6881.78
0.9977,0.0023	-6895.13
0.9755,0.0245	-6970.26
0.9995,0.0005	-6881.57
0.9994,0.0006	-6889.12
0.9984,0.0016	-6882.43
0.9991,0.0009	-6888.93
0.9980,0.0020	-6888.97
0.9740,0.0260	-6941.31
0.9995,0.0005	-6881.60
0.9995,0.0005	-6881.58
0.9981,0.0019	-6895.22
0.9990,0.0010	-6895.83
0.9982,0.0018	-6882.63
0.9746,0.0254	-6944.75
0.9994,0.0006	-6881.67
0.9996,0.0004	-6881.57
0.9981,0.0019	-6882.69
0.9987,0.0013	-6882.22
0.9977,0.0023	-6895.13
0.9773,0.0227	-6932.70
0.9994,0.0006	-6889.13
0.9995,0.0005	-6881.60
0.9986,0.0014	-6888.87
0.9986,0.0014	-6882.28
0.9971,0.0029	-6900.97
0.9822,0.0178	-6935.09
0.9994,0.0006	-6881.65
0.9995,0.0005	-6881.58
0.9985,0.0015	-6888.87
0.9983,0.0017	-6882.54
0.9970,0.0030	-6912.55
0.9784,0.0216	-6970.42
0.9993,0.0007	-6881.75
0.9996,0.0004	-6881.51
0.9982,0.0018	-6888.92
0.9984,0.0016	-6882.46
0.9962,0.0038	-6895.28
0.9781,0.0219	-6943.81
0.9991,0.0009	-6881.93
0.9996,0.0004	-6881.50
0.9982,0.0018	-6882.60
0.9986,0.0014	-6888.86
0.9968,0.0032	-6918.10
0.9816,0.0184	-6939.21
0.9992,0.0008	-6888.99
0.9995,0.0005	-6881.62
0.9980,0.0020	-6882.75
0.9986,0.0014	-6882.31
0.9973,0.0027	-6883.32
0.9788,0.0212	-6951.31
0.9992,0.0008	-6888.98
0.9995,0.0005	-6889.25
0.9981,0.0019	-6901.45
0.9986,0.0014	-6882.33
0.9975,0.0025	-6889.11
0.9778,0.0222	-6924.93
0.9993,0.0007	-6881.74
0.9996,0.0004	-6881.56
0.9980,0.0020	-6895.17
0.9983,0.0017	-6895.28
0.9975,0.0025	-6883.12
0.9774,0.0226	-6940.19
0.9993,0.0007	-6881.75
0.9996,0.0004	-6881.55
0.9977,0.0023	-6913.28
0.9974,0.0026	-6889.16
0.9975,0.0025	-6901.09
0.9763,0.0237	-6966.55
0.9993,0.0007	-6881.78
0.9997,0.0003	-6889.48
0.9976,0.0024	-6889.09
0.9976,0.0024	-6889.09
0.9973,0.0027	-6895.12
0.9748,0.0252	-6926.38
0.9993,0.0007	-6881.77
0.9997,0.0003	-6889.64
0.9980,0.0020	-6901.37
0.9980,0.0020	-6901.43
0.9967,0.0033	-6895.17
0.9681,0.0319	-6984.63
0.9995,0.0005	-6881.63
0.9998,0.0002	-6881.41
0.9978,0.0022	-6895.15
0.9979,0.0021	-6901.35
0.9965,0.0035	-6906.52
0.9702,0.0298	-6988.05
0.9995,0.0005	-6881.62
0.9998,0.0002	-6881.41
0.9977,0.0023	-6907.26
0.9977,0.0023	-6889.07
0.9964,0.0036	-6895.22
0.9676,0.0324	-6954.09
0.9997,0.0003	-6881.49
0.9998,0.0002	-6898.06
0.9971,0.0029	-6889.29
0.9976,0.0024	-6889.10
0.9959,0.0041	-6895.35
0.9667,0.0333	-6964.51
0.9997,0.0003	-6889.71
0.9998,0.0002	-6881.38
0.9969,0.0031	-6895.14
0.9974,0.0026	-6889.16
0.9948,0.0052	-6895.71
0.9698,0.0302	-6970.69
0.9997,0.0003	-6881.42
0.9998,0.0002	-6881.37
0.9974,0.0026	-6895.11
0.9971,0.0029	-6900.97
0.9944,0.0056	-6901.05
0.9668,0.0332	-6977.97
0.9997,0.0003	-6881.47
0.9998,0.0002	-6881.36
0.9972,0.0028	-6889.23
0.9969,0.0031	-6912.42
0.9947,0.0053	-6890.50
0.9665,0.0335	-6984.75
0.9997,0.0003	-6889.48
0.9998,0.0002	-6881.36
0.9973,0.0027	-6895.12
0.9961,0.0039	-6900.84
0.9934,0.0066	-6906.34
0.9704,0.0296	-6977.59
0.9997,0.0003	-6881.49
0.9998,0.0002	-6881.36
0.9964,0.0036	-6889.59
0.9967,0.0033	-6889.45
0.9932,0.0068	-6911.36
0.9682,0.0318	-6960.72
0.9997,0.0003	-6881.49
0.9998,0.0002	-6881.39
0.9968,0.0032	-6889.43
0.9970,0.0030	-6889.33
0.9932,0.0068	-6901.39
0.9693,0.0307	-6963.88
0.9996,0.0004	-6881.54
0.9998,0.0002	-6881.39
0.9967,0.0033	-6883.78
0.9968,0.0032	-6895.15
0.9933,0.0067	-6896.36
0.9582,0.0418	-6995.53
0.9995,0.0005	-6881.58
0.9998,0.0002	-6881.37
0.9971,0.0029	-6889.27
0.9969,0.0031	-6895.15
0.9934,0.0066	-6896.34
0.9531,0.0469	-6993.53
0.9995,0.0005	-6889.16
0.9998,0.0002	-6881.38
0.9975,0.0025	-6895.12
0.9969,0.0031	-6895.14
0.9940,0.0060	-6890.92
0.9534,0.0466	-6996.48
0.9995,0.0005	-6889.16
0.9998,0.0002	-6889.85
0.9976,0.0024	-6883.04
0.9973,0.0027	-6883.30
0.9931,0.0069	-6916.33
0.9566,0.0434	-7014.37
0.9995,0.0005	-6889.17
0.9998,0.0002	-6881.37
0.9977,0.0023	-6889.06
0.9969,0.0031	-6889.36
0.9942,0.0058	-6926.80
0.9545,0.0455	-6993.18
0.9994,0.0006	-6889.10
0.9999,0.0001	-6881.33
0.9975,0.0025	-6895.12
0.9973,0.0027	-6906.95
0.9944,0.0056	-6895.86
0.9518,0.0482	-6984.92
0.9993,0.0007	-6889.01
0.9998,0.0002	-6881.34
0.9969,0.0031	-6883.61
0.9972,0.0028	-6900.99
0.9944,0.0056	-6911.41
0.9505,0.0495	-6988.35
0.9992,0.0008	-6888.95
0.9998,0.0002	-6881.36
0.9963,0.0037	-6900.85
0.9969,0.0031	-6889.39
0.9946,0.0054	-6911.44
0.9625,0.0375	-7001.49
0.9990,0.0010	-6881.97
0.9999,0.0001	-6881.33
0.9965,0.0035	-6912.14
0.9967,0.0033	-6889.49
0.9953,0.0047	-6906.25
0.9587,0.0413	-6967.14
0.9990,0.0010	-6882.01
0.9998,0.0002	-6881.35
0.9958,0.0042	-6884.44
0.9959,0.0041	-6884.34
0.9950,0.0050	-6890.37
0.9623,0.0377	-6998.26
0.9989,0.0011	-6895.71
0.9999,0.0001	-6881.32
0.9955,0.0045	-6906.27
0.9947,0.0053	-6895.76
0.9962,0.0038	-6895.28
0.9624,0.0376	-6969.07
0.9988,0.0012	-6888.87
0.9999,0.0001	-6881.34
0.9965,0.0035	-6889.57
0.9951,0.0049	-6890.30
0.9965,0.0035	-6889.58
0.9620,0.0380	-6991.81
0.9988,0.0012	-6909.03
0.9998,0.0002	-6881.34
0.9959,0.0041	-6884.35
0.9951,0.0049	-6885.00
0.9967,0.0033	-6900.88
0.9690,0.0310	-6953.62
0.9989,0.0011	-6882.06
0.9999,0.0001	-6881.33
0.9958,0.0042	-6900.85
0.9950,0.0050	-6900.93
0.9969,0.0031	-6900.92
0.9660,0.0340	-6958.02
0.9987,0.0013	-6902.11
0.9999,0.0001	-6881.33
0.9962,0.0038	-6884.15
0.9964,0.0036	-6895.23
0.9972,0.0028	-6889.25
0.9669,0.0331	-6957.72
0.9985,0.0015	-6882.38
0.9999,0.0001	-6881.31
0.9953,0.0047	-6884.86
0.9966,0.0034	-6895.20
0.9970,0.0030	-6895.13
0.9669,0.0331	-6974.58
0.9985,0.0015	-6888.88
0.9999,0.0001	-6890.26
0.9952,0.0048	-6906.24
0.9962,0.0038	-6884.15
0.9974,0.0026	-6889.18
0.9631,0.0369	-6975.39
0.9986,0.0014	-6888.87
0.9999,0.0001	-6881.33
0.9957,0.0043	-6895.41
0.9954,0.0046	-6890.13
0.9966,0.0034	-6906.57
0.9634,0.0366	-6955.67
0.9988,0.0012	-6882.11
0.9999,0.0001	-6881.33
0.9967,0.0033	-6895.17
0.9960,0.0040	-6895.33
0.9970,0.0030	-6889.33
0.9636,0.0364	-6965.44
0.9990,0.0010	-6882.02
0.9999,0.0001	-6881.33
0.9965,0.0035	-6900.86
0.9949,0.0051	-6900.95
0.9956,0.0044	-6895.43
0.9660,0.0340	-6978.10
0.9989,0.0011	-6895.68
0.9999,0.0001	-6881.32
0.9956,0.0044	-6884.62
0.9957,0.0043	-6895.40
0.9959,0.0041	-6889.85
0.9642,0.0358	-6978.43
0.9990,0.0010	-6881.97
0.9999,0.0001	-6890.28
0.9963,0.0037	-6900.85
0.9958,0.0042	-6884.48
0.9960,0.0040	-6900.84
0.9672,0.0328	-6984.69
0.9990,0.0010	-6888.91
0.9999,0.0001	-6881.31
0.9960,0.0040	-6895.32
0.9962,0.0038	-6900.84
0.9971,0.0029	-6912.65
0.9671,0.0329	-6964.40
0.9989,0.0011	-6902.56
0.9998,0.0002	-6881.34
0.9962,0.0038	-6889.72
0.9964,0.0036	-6889.61
0.9972,0.0028	-6895.12
0.9606,0.0394	-6982.42
0.9987,0.0013	-6888.86
0.9998,0.0002	-6881.36
0.9958,0.0042	-6906.33
0.9964,0.0036	-6906.48
0.9966,0.0034	-6889.49
0.9680,0.0320	-6977.82
0.9988,0.0012	-6888.87
0.9998,0.0002	-6881.35
0.9957,0.0043	-6900.85
0.9963,0.0037	-6900.84
0.9961,0.0039	-6906.39
0.9634,0.0366	-6972.05
0.9989,0.0011	-6895.74
0.9998,0.0002	-6881.36
0.9955,0.0045	-6895.46
0.9965,0.0035	-6906.53
0.9967,0.0033	-6895.18
0.9553,0.0447	-6999.13
0.9990,0.0010	-6888.91
0.9998,0.0002	-6881.36
0.9963,0.0037	-6884.08
0.9954,0.0046	-6900.89
0.9970,0.0030	-6895.13
0.9617,0.0383	-6991.85
0.9990,0.0010	-6882.01
0.9998,0.0002	-6881.38
0.9961,0.0039	-6895.29
0.9951,0.0049	-6900.92
0.9964,0.0036	-6912.08
0.9518,0.0482	-7014.76
0.9989,0.0011	-6888.87
0.9998,0.0002	-6881.35
0.9973,0.0027	-6895.12
0.9943,0.0057	-6895.90
0.9965,0.0035	-6889.54
0.9588,0.0412	-6982.85
0.9988,0.0012	-6882.16
0.9999,0.0001	-6881.33
0.9975,0.0025	-6883.13
0.9945,0.0055	-6932.19
0.9968,0.0032	-6895.16
0.9595,0.0405	-6957.35
0.9988,0.0012	-6888.87
0.9999,0.0001	-6881.32
0.9975,0.0025	-6883.14
0.9953,0.0047	-6911.59
0.9973,0.0027	-6889.21
0.9585,0.0415	-7001.77
0.9986,0.0014	-6882.28
0.9999,0.0001	-6890.16
0.9976,0.0024	-6895.12
0.9950,0.0050	-6906.23
0.9979,0.0021	-6895.17
0.9646,0.0354	-6984.95
0.9987,0.0013	-6888.86
0.9998,0.0002	-6881.37
0.9974,0.0026	-6907.04
0.9941,0.0059	-6885.71
0.9984,0.0016	-6882.47
0.9672,0.0328	-6988.07
0.9989,0.0011	-6882.08
0.9998,0.0002	-6881.37
0.9978,0.0022	-6882.93
0.9957,0.0043	-6884.53
0.9985,0.0015	-6882.34
0.9748,0.0252	-6951.98
0.9989,0.0011	-6888.88
0.9998,0.0002	-6881.39
0.9980,0.0020	-6882.72
0.9954,0.0046	-6895.50
0.9983,0.0017	-6901.69
0.9750,0.0250	-6948.28
0.9988,0.0012	-6882.11
0.9998,0.0002	-6889.82
0.9985,0.0015	-6888.88
0.9948,0.0052	-6916.73
0.9982,0.0018	-6895.24
0.9774,0.0226	-6943.95
0.9988,0.0012	-6895.57
0.9998,0.0002	-6881.39
0.9986,0.0014	-6888.87
0.9935,0.0065	-6911.36
0.9978,0.0022	-6907.33
0.9750,0.0250	-6962.93
0.9990,0.0010	-6882.00
0.9998,0.0002	-6889.97
0.9985,0.0015	-6888.88
0.9940,0.0060	-6901.17
0.9976,0.0024	-6895.13
0.9779,0.0221	-6966.58
0.9990,0.0010	-6895.82
0.9998,0.0002	-6881.37
0.9983,0.0017	-6895.30
0.9947,0.0053	-6911.47
0.9976,0.0024	-6895.12
0.9834,0.0166	-6914.44
0.9987,0.0013	-6888.86
0.9998,0.0002	-6881.38
0.9982,0.0018	-6895.23
0.9957,0.0043	-6889.98
0.9981,0.0019	-6888.95
0.9811,0.0189	-6939.30
0.9986,0.0014	-6882.33
0.9998,0.0002	-6881.38
0.9985,0.0015	-6882.39
0.9962,0.0038	-6889.69
0.9976,0.0024	-6883.04
0.9787,0.0213	-6958.98
0.9989,0.0011	-6882.09
0.9998,0.0002	-6881.40
0.9987,0.0013	-6882.20
0.9961,0.0039	-6889.76
0.9977,0.0023	-6895.13
0.9753,0.0247	-6966.58
0.9988,0.0012	-6882.18
0.9998,0.0002	-6881.41
0.9988,0.0012	-6895.62
0.9961,0.0039	-6884.22
0.9981,0.0019	-6895.21
0.9799,0.0201	-6958.98
0.9987,0.0013	-6888.86
0.9997,0.0003	-6881.42
0.9989,0.0011	-6882.09
0.9964,0.0036	-6895.23
0.9978,0.0022	-6895.15
0.9760,0.0240	-6959.15
0.9986,0.0014	-6895.47
0.9997,0.0003	-6881.43
0.9989,0.0011	-6882.06
0.9957,0.0043	-6895.41
0.9970,0.0030	-6900.94
0.9827,0.0173	-6934.99
0.9987,0.0013	-6888.86
0.9997,0.0003	-6881.46
0.9990,0.0010	-6882.03
0.9962,0.0038	-6895.26
0.9974,0.0026	-6883.18
0.9769,0.0231	-6921.62
0.9986,0.0014	-6888.86
0.9996,0.0004	-6881.51
0.9988,0.0012	-6888.87
0.9969,0.0031	-6900.91
0.9972,0.0028	-6889.24
0.9794,0.0206	-6951.25
0.9989,0.0011	-6882.08
0.9996,0.0004	-6881.52
0.9991,0.0009	-6888.91
0.9963,0.0037	-6906.43
0.9974,0.0026	-6889.16
0.9836,0.0164	-6934.83
0.9991,0.0009	-6881.93
0.9996,0.0004	-6881.50
0.9989,0.0011	-6882.04
0.9964,0.0036	-6900.85
0.9973,0.0027	-6889.21
0.9861,0.0139	-6896.22
0.9990,0.0010	-6881.99
0.9997,0.0003	-6881.49
0.9991,0.0009	-6895.93
0.9964,0.0036	-6900.85
0.9978,0.0022	-6882.92
0.9840,0.0160	-6901.85
0.9992,0.0008	-6881.85
0.9997,0.0003	-6881.47
0.9990,0.0010	-6888.90
0.9969,0.0031	-6883.60
0.9980,0.0020	-6882.79
0.9831,0.0169	-6930.85
0.9992,0.0008	-6881.85
0.9997,0.0003	-6881.44
0.9991,0.0009	-6888.92
0.9962,0.0038	-6911.96
0.9983,0.0017	-6882.54
0.9840,0.0160	-6910.06
0.9991,0.0009	-6881.94
0.9997,0.0003	-6881.42
0.9991,0.0009	-6881.94
0.9962,0.0038	-6900.84
0.9984,0.0016	-6901.71
0.9847,0.0153	-6922.18
0.9990,0.0010	-6895.86
0.9998,0.0002	-6881.39
0.9991,0.0009	-6881.89
0.9970,0.0030	-6889.31
0.9986,0.0014	-6888.86
0.9849,0.0151	-6930.48
0.9991,0.0009	-6881.92
0.9998,0.0002	-6881.40
0.9990,0.0010	-6888.91
0.9967,0.0033	-6883.76
0.9983,0.0017	-6888.90
0.9903,0.0097	-6911.82
0.9991,0.0009	-6888.92
0.9998,0.0002	-6881.41
0.9991,0.0009	-6881.92
0.9967,0.0033	-6895.17
0.9988,0.0012	-6882.11
0.9922,0.0078	-6911.44
0.9990,0.0010	-6881.96
0.9997,0.0003	-6889.65
0.9992,0.0008	-6888.98
0.9974,0.0026	-6889.17
0.9991,0.0009	-6881.93
0.9928,0.0072	-6911.38
0.9991,0.0009	-6888.93
0.9997,0.0003	-6881.45
0.9993,0.0007	-6881.78
0.9965,0.0035	-6906.51
0.9990,0.0010	-6888.90
0.9931,0.0069	-6906.40
0.9989,0.0011	-6882.03
0.9998,0.0002	-6881.40
0.9992,0.0008	-6888.98
0.9971,0.0029	-6900.98
0.9988,0.0012	-6882.11
0.9938,0.0062	-6916.45
0.9988,0.0012	-6888.87
0.9998,0.0002	-6881.40
0.9992,0.0008	-6881.82
0.9969,0.0031	-6895.15
0.9990,0.0010	-6881.96
0.9929,0.0071	-6931.14
0.9989,0.0011	-6895.65
0.9998,0.0002	-6881.41
0.9993,0.0007	-6881.77
0.9963,0.0037	-6906.43
0.9990,0.0010	-6888.89
0.9914,0.0086	-6897.31
0.9989,0.0011	-6888.87
0.9998,0.0002	-6881.39
0.9995,0.0005	-6881.63
0.9964,0.0036	-6895.22
0.9992,0.0008	-6881.87
0.9922,0.0078	-6892.09
0.9990,0.0010	-6882.01
0.9998,0.0002	-6889.89
0.9993,0.0007	-6896.37
0.9965,0.0035	-6906.51
0.9990,0.0010	-6888.90
0.9917,0.0083	-6906.74
0.9988,0.0012	-6882.17
0.9998,0.0002	-6881.40
0.9992,0.0008	-6881.81
0.9968,0.0032	-6900.90
0.9990,0.0010	-6882.00
0.9934,0.0066	-6931.39
0.9991,0.0009	-6881.94
0.9997,0.0003	-6889.69
0.9992,0.0008	-6888.96
0.9968,0.0032	-6889.41
0.9990,0.0010	-6881.99
0.9939,0.0061	-6891.02
0.9990,0.0010	-6881.99
0.9998,0.0002	-6881.40
0.9992,0.0008	-6881.81
0.9969,0.0031	-6895.15
0.9988,0.0012	-6888.87
0.9942,0.0058	-6906.25
0.9990,0.0010	-6882.00
0.9998,0.0002	-6881.41
0.9991,0.0009	-6881.92
0.9963,0.0037	-6900.85
0.9989,0.0011	-6888.87
0.9933,0.0067	-6916.36
0.9991,0.0009	-6888.92
0.9998,0.0002	-6881.40
0.9993,0.0007	-6881.80
0.9970,0.0030	-6900.93
0.9989,0.0011	-6882.10
0.9927,0.0073	-6921.21
0.9991,0.0009	-6888.92
0.9998,0.0002	-6881.38
0.9992,0.0008	-6881.87
0.9974,0.0026	-6883.18
0.9990,0.0010	-6888.90
0.9910,0.0090	-6925.75
0.9990,0.0010	-6888.90
0.9998,0.0002	-6881.40
0.9993,0.0007	-6881.73
0.9975,0.0025	-6889.12
0.9987,0.0013	-6888.86
0.9915,0.0085	-6911.56
0.9990,0.0010	-6888.90
0.9997,0.0003	-6881.43
0.9992,0.0008	-6881.81
0.9976,0.0024	-6889.09
0.9982,0.0018	-6895.25
0.9913,0.0087	-6916.32
0.9991,0.0009	-6888.91
0.9998,0.0002	-6881.40
0.9993,0.0007	-6881.79
0.9977,0.0023	-6907.23
0.9983,0.0017	-6882.52
0.9904,0.0096	-6911.80
0.9993,0.0007	-6881.78
0.9998,0.0002	-6890.05
0.9991,0.0009	-6888.94
0.9977,0.0023	-6889.05
0.9982,0.0018	-6895.24
0.9912,0.0088	-6906.89
0.9991,0.0009	-6888.94
0.9999,0.0001	-6881.33
0.9992,0.0008	-6881.84
0.9980,0.0020	-6888.96
0.9982,0.0018	-6882.62
0.9917,0.0083	-6906.73
0.9993,0.0007	-6889.00
0.9999,0.0001	-6881.32
0.9993,0.0007	-6889.05
0.9982,0.0018	-6882.63
0.9983,0.0017	-6888.90
0.9930,0.0070	-6911.37
0.9993,0.0007	-6889.06
0.9999,0.0001	-6881.33
0.9993,0.0007	-6889.05
0.9985,0.0015	-6882.35
0.9983,0.0017	-6882.51
0.9915,0.0085	-6906.80
0.9993,0.0007	-6881.73
0.9998,0.0002	-6881.35
0.9992,0.0008	-6881.84
0.9986,0.0014	-6882.32
0.9984,0.0016	-6882.47
0.9898,0.0102	-6930.24
0.9994,0.0006	-6881.67
0.9998,0.0002	-6881.37
0.9994,0.0006	-6881.72
0.9988,0.0012	-6888.86
0.9987,0.0013	-6882.19
0.9888,0.0112	-6921.21
0.9993,0.0007	-6889.06
0.9998,0.0002	-6881.36
0.9992,0.0008	-6888.95
0.9989,0.0011	-6882.08
0.9989,0.0011	-6888.87
0.9897,0.0103	-6907.42
0.9995,0.0005	-6881.64
0.9998,0.0002	-6881.35
0.9990,0.0010	-6882.00
0.9988,0.0012	-6888.87
0.9987,0.0013	-6882.24
0.9875,0.0125	-6895.22
0.9995,0.0005	-6881.63
0.9998,0.0002	-6881.34
0.9992,0.0008	-6888.96
0.9990,0.0010	-6888.91
0.9986,0.0014	-6888.86
0.9895,0.0105	-6921.12
0.9995,0.0005	-6881.58
0.9999,0.0001	-6881.34
0.9990,0.0010	-6895.79
0.9988,0.0012	-6902.37
0.9984,0.0016	-6882.43
0.9912,0.0088	-6906.88
0.9997,0.0003	-6881.49
0.9998,0.0002	-6881.36
0.9990,0.0010	-6881.99
0.9986,0.0014	-6888.87
0.9984,0.0016	-6888.88
0.9935,0.0065	-6901.30
0.9997,0.0003	-6881.49
0.9998,0.0002	-6881.38
0.9991,0.0009	-6881.92
0.9985,0.0015	-6888.88
0.9983,0.0017	-6888.90
0.9936,0.0064	-6906.31
0.9997,0.0003	-6881.47
0.9998,0.0002	-6881.37
0.9989,0.0011	-6882.08
0.9983,0.0017	-6882.53
0.9980,0.0020	-6882.73
0.9929,0.0071	-6901.51
0.9997,0.0003	-6881.48
0.9998,0.0002	-6881.35
0.9988,0.0012	-6888.87
0.9983,0.0017	-6895.26
0.9983,0.0017	-6888.90
0.9922,0.0078	-6916.29
0.9997,0.0003	-6881.46
0.9998,0.0002	-6881.36
0.9988,0.0012	-6882.17
0.9985,0.0015	-6895.38
0.9982,0.0018	-6888.91
0.9915,0.0085	-6902.03
0.9997,0.0003	-6881.47
0.9998,0.0002	-6881.37
0.9985,0.0015	-6882.38
0.9987,0.0013	-6888.86
0.9984,0.0016	-6895.32
0.9916,0.0084	-6916.31
0.9997,0.0003	-6881.47
0.9998,0.0002	-6889.82
0.9986,0.0014	-6882.33
0.9986,0.0014	-6882.30
0.9987,0.0013	-6888.86
0.9915,0.0085	-6921.07
0.9997,0.0003	-6881.44
0.9997,0.0003	-6881.42
0.9988,0.0012	-6888.87
0.9985,0.0015	-6888.87
0.9988,0.0012	-6882.11
0.9926,0.0074	-6911.40
0.9998,0.0002	-6881.41
0.9998,0.0002	-6881.39
0.9989,0.0011	-6882.07
0.9989,0.0011	-6888.87
0.9991,0.0009	-6888.91
0.9923,0.0077	-6906.58
0.9997,0.0003	-6881.42
0.9998,0.0002	-6881.37
0.9990,0.0010	-6881.97
0.9991,0.0009	-6881.90
0.9992,0.0008	-6896.15
0.9911,0.0089	-6897.49
0.9997,0.0003	-6881.44
0.9998,0.0002	-6881.37
0.9991,0.0009	-6881.95
0.9992,0.0008	-6881.86
0.9993,0.0007	-6881.79
0.9879,0.0121	-6925.76
0.9997,0.0003	-6889.52
0.9998,0.0002	-6881.35
0.9990,0.0010	-6881.99
0.9992,0.0008	-6881.86
0.9992,0.0008	-6881.85
0.9867,0.0133	-6917.32
0.9997,0.0003	-6881.46
0.9998,0.0002	-6881.37
0.9988,0.0012	-6882.14
0.9992,0.0008	-6888.98
0.9991,0.0009	-6881.89
0.9835,0.0165	-6906.21
0.9997,0.0003	-6881.46
0.9998,0.0002	-6881.41
0.9989,0.0011	-6882.10
0.9992,0.0008	-6888.97
0.9990,0.0010	-6888.91
0.9868,0.0132	-6921.59
0.9997,0.0003	-6881.44
0.9998,0.0002	-6889.82
0.9988,0.0012	-6888.87
0.9990,0.0010	-6881.95
0.9989,0.0011	-6888.88
0.9880,0.0120	-6921.35
0.9997,0.0003	-6897.56
0.9998,0.0002	-6881.37
0.9992,0.0008	-6881.83
0.9993,0.0007	-6881.79
0.9988,0.0012	-6888.87
0.9819,0.0181	-6943.15
0.9997,0.0003	-6881.46
0.9998,0.0002	-6881.39
0.9992,0.0008	-6881.87
0.9991,0.0009	-6888.94
0.9987,0.0013	-6882.21
0.9805,0.0195	-6939.42
0.9996,0.0004	-6881.51
0.9998,0.0002	-6881.38
0.9990,0.0010	-6888.90
0.9991,0.0009	-6881.93
0.9985,0.0015	-6882.34
0.9822,0.0178	-6927.06
0.9997,0.0003	-6881.49
0.9998,0.0002	-6881.40
0.9988,0.0012	-6882.12
0.9990,0.0010	-6881.97
0.9985,0.0015	-6888.87
0.9835,0.0165	-6914.39
0.9997,0.0003	-6889.57
0.9998,0.0002	-6881.39
0.9991,0.0009	-6881.91
0.9989,0.0011	-6882.07
0.9984,0.0016	-6882.43
0.9840,0.0160	-6951.25
0.9998,0.0002	-6898.05
0.9997,0.0003	-6881.44
0.9993,0.0007	-6881.77
0.9986,0.0014	-6882.32
0.9984,0.0016	-6888.89
0.9852,0.0148	-6913.63
0.9998,0.0002	-6881.40
0.9997,0.0003	-6881.42
0.9992,0.0008	-6881.82
0.9987,0.0013	-6882.21
0.9981,0.0019	-6895.21
0.9874,0.0126	-6930.18
0.9997,0.0003	-6881.43
0.9997,0.0003	-6881.44
0.9993,0.0007	-6881.76
0.9990,0.0010	-6882.00
0.9979,0.0021	-6907.47
0.9914,0.0086	-6935.31
0.9997,0.0003	-6881.43
0.9997,0.0003	-6881.47
0.9994,0.0006	-6881.71
0.9988,0.0012	-6882.13
0.9980,0.0020	-6901.42
0.9925,0.0075	-6901.63
0.9997,0.0003	-6881.42
0.9997,0.0003	-6881.47
0.9993,0.0007	-6881.78
0.9989,0.0011	-6895.69
0.9984,0.0016	-6888.88
0.9930,0.0070	-6891.54
0.9998,0.0002	-6881.37
0.9996,0.0004	-6881.50
0.9992,0.0008	-6881.84
0.9988,0.0012	-6882.13
0.9986,0.0014	-6888.86
0.9929,0.0071	-6911.38
0.9998,0.0002	-6898.13
0.9997,0.0003	-6881.46
0.9991,0.0009	-6888.94
0.9986,0.0014	-6882.31
0.9986,0.0014	-6882.32
0.9917,0.0083	-6901.96
0.9997,0.0003	-6881.44
0.9997,0.0003	-6881.46
0.9992,0.0008	-6881.80
0.9983,0.0017	-6888.91
0.9987,0.0013	-6888.86
0.9947,0.0053	-6906.23
0.9997,0.0003	-6881.47
0.9997,0.0003	-6881.43
0.9993,0.0007	-6881.78
0.9983,0.0017	-6888.91
0.9988,0.0012	-6882.11
0.9953,0.0047	-6895.55
0.9997,0.0003	-6881.49
0.9997,0.0003	-6881.45
0.9992,0.0008	-6881.83
0.9977,0.0023	-6901.22
0.9985,0.0015	-6895.38
0.9951,0.0049	-6906.24
0.9997,0.0003	-6881.45
0.9997,0.0003	-6881.44
0.9994,0.0006	-6889.10
0.9984,0.0016	-6888.89
0.9979,0.0021	-6882.80
0.9935,0.0065	-6896.27
0.9998,0.0002	-6881.41
0.9998,0.0002	-6881.40
0.9994,0.0006	-6881.69
0.9984,0.0016	-6882.43
0.9977,0.0023	-6895.13
0.9947,0.0053	-6921.94
0.9998,0.0002	-6881.41
0.9998,0.0002	-6881.40
0.9994,0.0006	-6889.12
0.9984,0.0016	-6888.89
0.9974,0.0026	-6883.18
0.9953,0.0047	-6911.61
0.9997,0.0003	-6889.70
0.9997,0.0003	-6889.69
0.9996,0.0004	-6889.31
0.9984,0.0016	-6882.42
0.9977,0.0023	-6895.13
0.9951,0.0049	-6911.54
0.9997,0.0003	-6881.44
0.9998,0.0002	-6881.40
0.9995,0.0005	-6881.62
0.9985,0.0015	-6895.39
0.9976,0.0024	-6907.22
0.9957,0.0043	-6895.42
0.9997,0.0003	-6881.42
0.9997,0.0003	-6881.42
0.9995,0.0005	-6881.60
0.9986,0.0014	-6882.32
0.9977,0.0023	-6901.18
0.9960,0.0040	-6900.84
0.9998,0.0002	-6881.39
0.9998,0.0002	-6881.40
0.9995,0.0005	-6881.58
0.9981,0.0019	-6888.94
0.9979,0.0021	-6889.01
0.9968,0.0032	-6895.16
0.9998,0.0002	-6881.36
0.9998,0.0002	-6881.39
0.9995,0.0005	-6889.17
0.9979,0.0021	-6895.15
0.9985,0.0015	-6888.87
0.9964,0.0036	-6889.60
0.9999,0.0001	-6881.33
0.9998,0.0002	-6881.40
0.9994,0.0006	-6881.67
0.9979,0.0021	-6888.98
0.9984,0.0016	-6888.88
0.9965,0.0035	-6900.86
0.9999,0.0001	-6881.33
0.9997,0.0003	-6881.45
0.9993,0.0007	-6889.06
0.9981,0.0019	-6888.94
0.9984,0.0016	-6888.88
0.9968,0.0032	-6895.16
0.9999,0.0001	-6890.26
0.9998,0.0002	-6881.39
0.9992,0.0008	-6881.85
0.9980,0.0020	-6901.41
0.9982,0.0018	-6882.56
0.9957,0.0043	-6889.98
0.9999,0.0001	-6881.33
0.9998,0.0002	-6881.38
0.9991,0.0009	-6881.95
0.9984,0.0016	-6901.74
0.9984,0.0016	-6882.47
0.9960,0.0040	-6900.84
0.9998,0.0002	-6881.36
0.9998,0.0002	-6881.37
0.9992,0.0008	-6881.82
0.9982,0.0018	-6882.64
0.9982,0.0018	-6882.60
0.9966,0.0034	-6889.49
0.9999,0.0001	-6881.33
0.9997,0.0003	-6881.46
0.9993,0.0007	-6889.03
0.9983,0.0017	-6882.51
0.9983,0.0017	-6888.90
0.9952,0.0048	-6890.22
0.9999,0.0001	-6881.34
0.9997,0.0003	-6881.49
0.9992,0.0008	-6881.85
0.9980,0.0020	-6895.18
0.9978,0.0022	-6882.93
0.9962,0.0038	-6889.72
0.9998,0.0002	-6881.36
0.9994,0.0006	-6881.69
0.9994,0.0006	-6881.68
0.9984,0.0016	-6888.89
0.9976,0.0024	-6889.10
0.9951,0.0049	-6895.61
0.9998,0.0002	-6881.37
0.9992,0.0008	-6881.87
0.9993,0.0007	-6889.05
0.9976,0.0024	-6883.08
0.9977,0.0023	-6895.13
0.9951,0.0049	-6895.59
0.9998,0.0002	-6881.38
0.9990,0.0010	-6882.02
0.9994,0.0006	-6889.09
0.9976,0.0024	-6883.04
0.9980,0.0020	-6888.96
0.9975,0.0025	-6895.12
0.9998,0.0002	-6881.40
0.9989,0.0011	-6888.88
0.9993,0.0007	-6889.02
0.9979,0.0021	-6901.30
0.9982,0.0018	-6907.82
0.9973,0.0027	-6889.21
0.9998,0.0002	-6881.39
0.9989,0.0011	-6882.03
0.9992,0.0008	-6881.80
0.9984,0.0016	-6888.88
0.9977,0.0023	-6889.05
0.9978,0.0022	-6882.92
0.9997,0.0003	-6881.43
0.9989,0.0011	-6888.88
0.9993,0.0007	-6881.73
0.9985,0.0015	-6882.35
0.9972,0.0028	-6912.78
0.9971,0.0029	-6889.29
0.9997,0.0003	-6881.46
0.9987,0.0013	-6888.86
0.9992,0.0008	-6881.81
0.9987,0.0013	-6888.86
0.9969,0.0031	-6889.35
0.9973,0.0027	-6889.20
0.9997,0.0003	-6881.46
0.9986,0.0014	-6888.87
0.9994,0.0006	-6881.68
0.9988,0.0012	-6882.17
0.9967,0.0033	-6900.88
0.9976,0.0024	-6895.12
0.9997,0.0003	-6881.47
0.9987,0.0013	-6888.86
0.9993,0.0007	-6881.78
0.9987,0.0013	-6882.19
0.9951,0.0049	-6900.92
0.9972,0.0028	-6900.98
0.9997,0.0003	-6881.46
0.9987,0.0013	-6888.86
0.9993,0.0007	-6881.77
0.9988,0.0012	-6888.87
0.9936,0.0064	-6906.32
0.9977,0.0023	-6901.18
0.9997,0.0003	-6881.45
0.9988,0.0012	-6882.16
0.9993,0.0007	-6881.79
0.9987,0.0013	-6888.86
0.9931,0.0069	-6901.42
0.9970,0.0030	-6889.33
0.9997,0.0003	-6881.42
0.9987,0.0013	-6882.25
0.9992,0.0008	-6896.03
0.9986,0.0014	-6882.31
0.9912,0.0088	-6916.33
0.9975,0.0025	-6901.12
0.9998,0.0002	-6881.39
0.9984,0.0016	-6888.88
0.9992,0.0008	-6881.85
0.9982,0.0018	-6901.53
0.9922,0.0078	-6906.59
0.9968,0.0032	-6895.16
0.9998,0.0002	-6881.36
0.9983,0.0017	-6895.26
0.9990,0.0010	-6882.01
0.9982,0.0018	-6888.92
0.9923,0.0077	-6926.00
0.9959,0.0041	-6889.86
0.9998,0.0002	-6881.41
0.9981,0.0019	-6882.64
0.9992,0.0008	-6888.96
0.9976,0.0024	-6883.04
0.9924,0.0076	-6896.79
0.9954,0.0046	-6906.25
0.9998,0.0002	-6881.36
0.9978,0.0022	-6889.03
0.9992,0.0008	-6881.85
0.9975,0.0025	-6889.13
0.9898,0.0102	-6916.53
