#isoforms=['ENSG00000211445.SE.0.A.up_ENSG00000211445.SE.0.A.SE1_ENSG00000211445.SE.0.A.dn','ENSG00000211445.SE.0.B.up_ENSG00000211445.SE.0.B.dn']	exon_lens=('ENSG00000211445.SE.0.A.up',136),('ENSG00000211445.SE.0.A.SE1',426),('ENSG00000211445.SE.0.A.dn',154),('ENSG00000211445.SE.0.B.up',179),('ENSG00000211445.SE.0.B.dn',154)	iters=5000	burn_in=500	lag=10	percent_accept=98.24	proposal_type=drift	counts=(0,0):59,(0,1):1,(1,0):5,(1,1):1	assigned_counts=0:5,1:2	chrom=chr5	strand=+	mRNA_starts=151020606,151020563	mRNA_ends=151025493,151025493
sampled_psi	log_score
0.2629,0.7371	-48.96
0.7173,0.2827	-47.54
0.8079,0.1921	-47.63
0.3216,0.6784	-48.51
0.8772,0.1228	-47.89
0.5938,0.4062	-47.69
0.2471,0.7529	-49.11
0.7363,0.2637	-47.54
0.8257,0.1743	-47.68
0.3802,0.6198	-48.23
0.8602,0.1398	-47.80
0.6040,0.3960	-47.67
0.2206,0.7794	-49.42
0.7334,0.2666	-48.55
0.7835,0.2165	-48.87
0.3800,0.6200	-48.23
0.8274,0.1726	-49.25
0.6220,0.3780	-48.13
0.2670,0.7330	-49.93
0.7383,0.2617	-47.54
0.7103,0.2897	-47.54
0.3816,0.6184	-48.23
0.8383,0.1617	-47.72
0.5725,0.4275	-47.74
0.2934,0.7066	-49.58
0.7863,0.2137	-47.59
0.6926,0.3074	-47.54
0.3958,0.6042	-48.60
0.8475,0.1525	-47.75
0.5493,0.4507	-48.01
0.2716,0.7284	-49.87
0.8036,0.1964	-47.62
0.7319,0.2681	-48.54
0.3845,0.6155	-48.69
0.8191,0.1809	-49.17
0.5709,0.4291	-47.75
0.2446,0.7554	-50.27
0.7961,0.2039	-47.61
0.7468,0.2532	-47.55
0.3430,0.6570	-48.39
0.8697,0.1303	-47.85
0.5648,0.4352	-47.77
0.2407,0.7593	-49.18
0.7809,0.2191	-48.85
0.7238,0.2762	-47.54
0.2831,0.7169	-48.78
0.8716,0.1284	-47.86
0.5504,0.4496	-47.81
0.2826,0.7174	-48.79
0.7821,0.2179	-47.58
0.6960,0.3040	-48.37
0.2912,0.7088	-49.61
0.8773,0.1227	-47.89
0.5684,0.4316	-48.03
0.2563,0.7437	-49.02
0.7877,0.2123	-47.59
0.6533,0.3467	-48.21
0.2938,0.7062	-48.70
0.8817,0.1183	-47.92
0.5797,0.4203	-48.05
0.2141,0.7859	-49.51
0.7810,0.2190	-47.58
0.6180,0.3820	-47.64
0.3221,0.6779	-48.51
0.8746,0.1254	-47.88
0.6457,0.3543	-47.59
0.2527,0.7473	-49.06
0.6644,0.3356	-48.25
0.5856,0.4144	-48.05
0.3033,0.6967	-48.63
0.8639,0.1361	-47.82
0.6424,0.3576	-47.59
0.2787,0.7213	-48.82
0.7091,0.2909	-47.54
0.6233,0.3767	-47.63
0.2861,0.7139	-48.76
0.8872,0.1128	-47.95
0.6671,0.3329	-47.56
0.2540,0.7460	-50.12
0.7488,0.2512	-47.55
0.6320,0.3680	-48.15
0.3109,0.6891	-49.38
0.8891,0.1109	-47.96
0.6452,0.3548	-47.59
0.2797,0.7203	-48.81
0.7724,0.2276	-47.57
0.6770,0.3230	-47.55
0.3011,0.6989	-48.65
0.8824,0.1176	-47.92
0.6714,0.3286	-47.56
0.2611,0.7389	-50.01
0.8387,0.1613	-47.72
0.6081,0.3919	-48.10
0.2432,0.7568	-49.16
0.8705,0.1295	-47.85
0.6924,0.3076	-47.54
0.2861,0.7139	-49.67
0.8405,0.1595	-47.73
0.5529,0.4471	-48.02
0.2724,0.7276	-48.87
0.8743,0.1257	-47.87
0.7168,0.2832	-47.54
0.3191,0.6809	-48.53
0.8203,0.1797	-47.66
0.5624,0.4376	-47.77
0.2913,0.7087	-48.72
0.8661,0.1339	-47.83
0.6944,0.3056	-47.54
0.2979,0.7021	-48.67
0.8142,0.1858	-49.12
0.5555,0.4445	-47.79
0.3015,0.6985	-49.48
0.8922,0.1078	-47.98
0.6615,0.3385	-47.57
0.3025,0.6975	-49.47
0.7587,0.2413	-47.55
0.5608,0.4392	-48.02
0.2985,0.7015	-48.66
0.9121,0.0879	-48.14
0.6360,0.3640	-47.60
0.3201,0.6799	-48.52
0.7608,0.2392	-47.56
0.5323,0.4677	-48.00
0.2458,0.7542	-49.13
0.9053,0.0947	-48.08
0.6556,0.3444	-48.22
0.2950,0.7050	-48.69
0.7480,0.2520	-47.55
0.4946,0.5054	-48.00
0.2523,0.7477	-49.06
0.9045,0.0955	-48.08
0.6715,0.3285	-48.27
0.2907,0.7093	-48.72
0.7142,0.2858	-48.45
0.5056,0.4944	-48.00
0.2689,0.7311	-48.90
0.8978,0.1022	-48.02
0.6396,0.3604	-47.60
0.3153,0.6847	-49.33
0.7139,0.2861	-47.54
0.5219,0.4781	-47.91
0.2918,0.7082	-48.71
0.8852,0.1148	-49.98
0.6821,0.3179	-47.55
0.3362,0.6638	-49.11
0.7490,0.2510	-47.55
0.5589,0.4411	-47.78
0.2659,0.7341	-48.93
0.8914,0.1086	-47.98
0.6409,0.3591	-47.60
0.3445,0.6555	-48.39
0.7519,0.2481	-48.66
0.5758,0.4242	-48.04
0.3400,0.6600	-48.41
0.8902,0.1098	-47.97
0.6763,0.3237	-48.29
0.3848,0.6152	-48.22
0.7291,0.2709	-47.54
0.5464,0.4536	-48.01
0.3671,0.6329	-48.83
0.9070,0.0930	-48.10
0.7130,0.2870	-47.54
0.4240,0.5760	-48.10
0.7301,0.2699	-47.54
0.4992,0.5008	-48.01
0.3694,0.6306	-48.27
0.9104,0.0896	-48.13
0.7187,0.2813	-48.47
0.3771,0.6229	-48.24
0.6702,0.3298	-47.56
0.5338,0.4662	-48.00
0.4019,0.5981	-48.56
0.9076,0.0924	-48.10
0.7156,0.2844	-47.54
0.3360,0.6640	-48.43
0.6994,0.3006	-47.54
0.5772,0.4228	-47.73
0.4073,0.5927	-48.52
0.9129,0.0871	-48.15
0.6641,0.3359	-47.57
0.3796,0.6204	-48.23
0.7063,0.2937	-47.54
0.5752,0.4248	-47.74
0.3625,0.6375	-48.30
0.9006,0.0994	-48.04
0.7064,0.2936	-48.42
0.4290,0.5710	-48.38
0.6945,0.3055	-47.54
0.5454,0.4546	-48.01
0.3711,0.6289	-48.80
0.8816,0.1184	-47.92
0.7263,0.2737	-47.54
0.3954,0.6046	-48.60
0.7091,0.2909	-47.54
0.5697,0.4303	-47.75
0.3218,0.6782	-48.51
0.8787,0.1213	-47.90
0.6976,0.3024	-47.54
0.3674,0.6326	-48.28
0.6967,0.3033	-48.37
0.6390,0.3610	-48.17
0.3662,0.6338	-48.84
0.8637,0.1363	-47.82
0.6730,0.3270	-48.28
0.4100,0.5900	-48.50
0.7120,0.2880	-47.54
0.6284,0.3716	-48.14
0.3341,0.6659	-48.44
0.8455,0.1545	-47.74
0.6096,0.3904	-48.10
0.4823,0.5177	-48.01
0.7077,0.2923	-48.42
0.6391,0.3609	-47.60
0.3578,0.6422	-48.32
0.8458,0.1542	-49.45
0.5497,0.4503	-48.01
0.4900,0.5100	-48.05
0.7033,0.2967	-47.54
0.6609,0.3391	-47.57
0.4105,0.5895	-48.50
0.8645,0.1355	-47.83
0.6028,0.3972	-48.08
0.5080,0.4920	-47.97
0.7163,0.2837	-47.54
0.6396,0.3604	-47.60
0.3673,0.6327	-48.83
0.8716,0.1284	-47.86
0.5912,0.4088	-48.06
0.4986,0.5014	-48.00
0.7210,0.2790	-48.49
0.6387,0.3613	-47.60
0.3894,0.6106	-48.65
0.8789,0.1211	-47.90
0.5833,0.4167	-48.05
0.4626,0.5374	-48.03
0.7215,0.2785	-47.54
0.6278,0.3722	-48.14
0.3697,0.6303	-48.27
0.8865,0.1135	-47.95
0.6036,0.3964	-48.09
0.4640,0.5360	-48.18
0.7350,0.2650	-47.54
0.6585,0.3415	-47.57
0.4212,0.5788	-48.11
0.8659,0.1341	-47.83
0.6312,0.3688	-48.15
0.4771,0.5229	-48.02
0.6927,0.3073	-47.54
0.6918,0.3082	-47.54
0.4354,0.5646	-48.34
0.8408,0.1592	-47.73
0.6631,0.3369	-47.57
0.5317,0.4683	-47.88
0.6957,0.3043	-47.54
0.6765,0.3235	-47.55
0.4049,0.5951	-48.15
0.8976,0.1024	-48.02
0.6309,0.3691	-47.61
0.4613,0.5387	-48.03
0.7215,0.2785	-47.54
0.6468,0.3532	-48.19
0.4424,0.5576	-48.06
0.8766,0.1234	-47.89
0.6254,0.3746	-47.62
0.4753,0.5247	-48.02
0.7311,0.2689	-47.54
0.7127,0.2873	-47.54
0.4160,0.5840	-48.12
0.8389,0.1611	-47.72
0.5914,0.4086	-48.06
0.5480,0.4520	-48.01
0.7393,0.2607	-47.54
0.7155,0.2845	-48.46
0.4264,0.5736	-48.10
0.8517,0.1483	-47.77
0.5456,0.4544	-48.01
0.5922,0.4078	-48.07
0.7075,0.2925	-47.54
0.6784,0.3216	-47.55
0.4605,0.5395	-48.04
0.8348,0.1652	-49.33
0.5724,0.4276	-48.04
0.5681,0.4319	-48.03
0.6992,0.3008	-47.54
0.6687,0.3313	-47.56
0.4735,0.5265	-48.02
0.8457,0.1543	-49.45
0.6136,0.3864	-47.64
0.4974,0.5026	-48.01
0.6913,0.3087	-47.54
0.6689,0.3311	-48.26
0.4666,0.5334	-48.03
0.8459,0.1541	-47.75
0.5644,0.4356	-47.77
0.4742,0.5258	-48.12
0.6969,0.3031	-48.37
0.6264,0.3736	-47.62
0.4836,0.5164	-48.01
0.8620,0.1380	-49.65
0.6073,0.3927	-47.66
0.4792,0.5208	-48.10
0.6494,0.3506	-47.58
0.6043,0.3957	-48.09
0.4933,0.5067	-48.01
0.8602,0.1398	-47.81
0.5740,0.4260	-48.04
0.5113,0.4887	-47.95
0.6779,0.3221	-47.55
0.6100,0.3900	-48.10
0.5421,0.4579	-47.84
0.8524,0.1476	-47.77
0.5241,0.4759	-47.90
0.5493,0.4507	-48.01
0.6890,0.3110	-47.55
0.5824,0.4176	-47.72
0.6092,0.3908	-47.65
0.8652,0.1348	-47.83
0.4259,0.5741	-48.10
0.5699,0.4301	-47.75
0.6536,0.3464	-48.21
0.5847,0.4153	-48.05
0.5525,0.4475	-48.02
0.8747,0.1253	-49.82
0.5013,0.4987	-48.00
0.5488,0.4512	-48.01
0.6341,0.3659	-48.16
0.6064,0.3936	-47.66
0.5139,0.4861	-48.00
0.8795,0.1205	-47.90
0.4898,0.5102	-48.05
0.4702,0.5298	-48.02
0.6799,0.3201	-48.31
0.6668,0.3332	-47.56
0.4849,0.5151	-48.07
0.8966,0.1034	-48.01
0.4217,0.5783	-48.11
0.4889,0.5111	-48.01
0.7007,0.2993	-47.54
0.6028,0.3972	-47.67
0.4533,0.5467	-48.23
0.9139,0.0861	-48.16
0.4573,0.5427	-48.04
0.5173,0.4827	-48.00
0.6707,0.3293	-48.27
0.6424,0.3576	-47.59
0.4567,0.5433	-48.21
0.9246,0.0754	-48.26
0.4372,0.5628	-48.33
0.5049,0.4951	-47.98
0.7250,0.2750	-48.51
0.6172,0.3828	-47.64
0.4328,0.5672	-48.08
0.9037,0.0963	-48.07
0.4447,0.5553	-48.28
0.5399,0.4601	-48.01
0.7179,0.2821	-47.54
0.6739,0.3261	-47.56
0.4353,0.5647	-48.08
0.9142,0.0858	-50.53
0.4848,0.5152	-48.07
0.4927,0.5073	-48.04
0.7067,0.2933	-47.54
0.6924,0.3076	-48.35
0.3911,0.6089	-48.64
0.9136,0.0864	-48.15
0.4935,0.5065	-48.03
0.5047,0.4953	-48.00
0.7377,0.2623	-47.54
0.7101,0.2899	-47.54
0.3620,0.6380	-48.31
0.9164,0.0836	-48.18
0.5186,0.4814	-48.00
0.4513,0.5487	-48.05
0.7377,0.2623	-47.54
0.6856,0.3144	-47.55
0.3582,0.6418	-48.90
0.9290,0.0710	-48.32
0.5836,0.4164	-47.71
0.4349,0.5651	-48.08
0.7481,0.2519	-47.55
0.6436,0.3564	-47.59
0.3395,0.6605	-48.41
0.9157,0.0843	-48.17
0.5864,0.4136	-47.71
0.3954,0.6046	-48.60
0.7852,0.2148	-47.59
0.6614,0.3386	-47.57
0.3676,0.6324	-48.28
0.8874,0.1126	-47.95
0.5919,0.4081	-47.69
0.4177,0.5823	-48.12
0.7903,0.2097	-47.60
0.6249,0.3751	-47.62
0.3557,0.6443	-48.93
0.8922,0.1078	-47.98
0.5608,0.4392	-47.78
0.4554,0.5446	-48.22
0.7913,0.2087	-47.60
0.6568,0.3432	-47.57
0.3522,0.6478	-48.96
0.9160,0.0840	-48.18
0.5114,0.4886	-47.95
0.5242,0.4758	-47.90
0.7738,0.2262	-47.57
0.6495,0.3505	-48.20
0.4314,0.5686	-48.09
0.9215,0.0785	-48.23
0.5611,0.4389	-48.02
0.5629,0.4371	-47.77
0.7675,0.2325	-47.56
0.6742,0.3258	-47.56
0.4087,0.5913	-48.51
0.9067,0.0933	-48.09
0.5981,0.4019	-48.08
0.6057,0.3943	-47.66
0.7161,0.2839	-47.54
0.6402,0.3598	-48.17
0.3912,0.6088	-48.19
0.8877,0.1123	-47.95
0.6088,0.3912	-48.10
0.6616,0.3384	-47.57
0.6936,0.3064	-47.54
0.6137,0.3863	-48.11
0.3822,0.6178	-48.70
0.8777,0.1223	-47.89
0.5644,0.4356	-48.03
0.7087,0.2913	-48.43
0.6785,0.3215	-47.55
0.6378,0.3622	-47.60
0.4503,0.5497	-48.05
0.8789,0.1211	-47.90
0.5828,0.4172	-47.72
0.6726,0.3274	-47.56
0.6466,0.3534	-47.59
0.5917,0.4083	-48.06
0.4434,0.5566	-48.06
0.8596,0.1404	-49.61
0.5601,0.4399	-48.02
0.6642,0.3358	-48.25
0.6366,0.3634	-48.16
0.6655,0.3345	-47.56
0.4360,0.5640	-48.08
0.8543,0.1457	-47.78
0.6260,0.3740	-47.62
0.6849,0.3151	-47.55
0.5939,0.4061	-47.69
0.6241,0.3759	-48.13
0.4693,0.5307	-48.03
0.8467,0.1533	-47.75
0.5395,0.4605	-47.85
0.7469,0.2531	-48.63
0.5246,0.4754	-47.90
0.6732,0.3268	-48.28
0.4516,0.5484	-48.24
0.8608,0.1392	-47.81
0.5216,0.4784	-48.00
0.7318,0.2682	-47.54
0.5709,0.4291	-47.75
0.7049,0.2951	-47.54
0.4475,0.5525	-48.06
0.8329,0.1671	-47.70
0.5486,0.4514	-47.82
0.7329,0.2671	-47.54
0.5629,0.4371	-48.03
0.6567,0.3433	-47.57
0.4555,0.5445	-48.04
0.8551,0.1449	-47.78
0.5441,0.4559	-47.83
0.7045,0.2955	-47.54
0.5306,0.4694	-47.88
0.6546,0.3454	-47.58
0.4680,0.5320	-48.15
0.8544,0.1456	-49.55
0.5880,0.4120	-48.06
0.6633,0.3367	-47.57
0.4300,0.5700	-48.37
0.6145,0.3855	-48.11
0.5039,0.4961	-47.99
0.8635,0.1365	-47.82
0.6111,0.3889	-47.65
0.6419,0.3581	-47.59
0.4395,0.5605	-48.07
0.5461,0.4539	-48.01
0.6026,0.3974	-47.67
0.8565,0.1435	-49.57
0.6052,0.3948	-47.66
0.6087,0.3913	-47.65
0.4427,0.5573	-48.29
0.5249,0.4751	-48.00
0.5966,0.4034	-48.07
0.8475,0.1525	-49.47
0.6109,0.3891	-48.10
0.5700,0.4300	-48.03
0.4877,0.5123	-48.01
0.5253,0.4747	-47.90
0.6092,0.3908	-48.10
0.8740,0.1260	-47.87
0.6396,0.3604	-47.60
0.5615,0.4385	-48.02
0.5291,0.4709	-48.00
0.5669,0.4331	-47.76
0.6124,0.3876	-47.65
0.8345,0.1655	-47.70
0.6382,0.3618	-47.60
0.6046,0.3954	-47.66
0.5620,0.4380	-47.77
0.5423,0.4577	-48.01
0.5507,0.4493	-48.01
0.8223,0.1777	-47.67
0.5663,0.4337	-47.76
0.6334,0.3666	-48.16
0.4693,0.5307	-48.15
0.5381,0.4619	-47.85
0.4822,0.5178	-48.01
0.8218,0.1782	-47.67
0.5568,0.4432	-47.79
0.6102,0.3898	-48.10
0.4631,0.5369	-48.18
0.5587,0.4413	-47.78
0.5334,0.4666	-47.87
0.8387,0.1613	-47.72
0.5425,0.4575	-48.01
0.6074,0.3926	-48.09
0.4756,0.5244	-48.02
0.5803,0.4197	-48.05
0.5210,0.4790	-47.92
0.8107,0.1893	-49.09
0.5465,0.4535	-48.01
0.6697,0.3303	-47.56
0.4626,0.5374	-48.03
0.5605,0.4395	-47.78
0.5314,0.4686	-48.00
0.7971,0.2029	-47.61
0.4837,0.5163	-48.08
0.6867,0.3133	-47.55
0.4931,0.5069	-48.01
0.6456,0.3544	-48.19
0.5153,0.4847	-47.94
0.7816,0.2184	-47.58
0.4339,0.5661	-48.08
0.7107,0.2893	-47.54
0.4108,0.5892	-48.50
0.6187,0.3813	-47.63
0.4895,0.5105	-48.05
0.7970,0.2030	-47.61
0.4465,0.5535	-48.06
0.7423,0.2577	-47.54
0.4118,0.5882	-48.13
0.5475,0.4525	-47.82
0.5459,0.4541	-48.01
0.7838,0.2162	-47.58
0.4834,0.5166	-48.01
0.7924,0.2076	-48.94
0.4799,0.5201	-48.01
0.5251,0.4749	-47.90
0.5007,0.4993	-48.00
0.8017,0.1983	-47.62
0.5882,0.4118	-47.70
0.8024,0.1976	-47.62
0.3744,0.6256	-48.25
0.5194,0.4806	-47.92
0.5154,0.4846	-48.00
0.7713,0.2287	-47.57
0.6206,0.3794	-47.63
0.7972,0.2028	-47.61
0.3597,0.6403	-48.32
0.5208,0.4792	-47.92
0.5503,0.4497	-47.81
0.8025,0.1975	-49.02
0.6273,0.3727	-47.62
0.7544,0.2456	-47.55
0.3675,0.6325	-48.28
0.5019,0.4981	-47.99
0.6291,0.3709	-47.62
0.8399,0.1601	-47.72
0.5974,0.4026	-47.68
0.7364,0.2636	-47.54
0.3777,0.6223	-48.24
0.5881,0.4119	-48.06
0.6482,0.3518	-47.59
0.8636,0.1364	-47.82
0.5967,0.4033	-47.68
0.7536,0.2464	-48.67
0.3972,0.6028	-48.17
0.5544,0.4456	-48.02
0.6391,0.3609	-47.60
0.8271,0.1729	-47.68
0.6272,0.3728	-48.14
0.7270,0.2730	-47.54
0.4134,0.5866	-48.13
0.5785,0.4215	-47.73
0.6607,0.3393	-47.57
0.8362,0.1638	-47.71
0.6152,0.3848	-47.64
0.7344,0.2656	-47.54
0.3867,0.6133	-48.21
0.6348,0.3652	-48.16
0.6743,0.3257	-48.28
0.8688,0.1312	-47.85
0.6080,0.3920	-47.66
0.7298,0.2702	-47.54
0.3592,0.6408	-48.32
0.5962,0.4038	-47.68
0.6251,0.3749	-48.13
0.8552,0.1448	-47.78
0.6039,0.3961	-47.67
0.6949,0.3051	-47.54
0.3927,0.6073	-48.62
0.5884,0.4116	-47.70
0.6662,0.3338	-48.26
0.8542,0.1458	-47.78
0.5905,0.4095	-47.70
0.6312,0.3688	-47.61
0.3661,0.6339	-48.29
0.5552,0.4448	-48.02
0.6911,0.3089	-47.54
0.8513,0.1487	-47.77
0.5292,0.4708	-48.00
0.6152,0.3848	-47.64
0.3492,0.6508	-48.36
0.5652,0.4348	-47.77
0.6960,0.3040	-47.54
0.8519,0.1481	-47.77
0.5610,0.4390	-47.78
0.6045,0.3955	-47.66
0.3869,0.6131	-48.67
0.5817,0.4183	-47.72
0.7464,0.2536	-47.54
0.8705,0.1295	-47.85
0.5072,0.4928	-48.00
0.5826,0.4174	-48.05
0.3892,0.6108	-48.20
0.4872,0.5128	-48.06
0.7151,0.2849	-48.46
0.8524,0.1476	-49.52
0.4990,0.5010	-48.01
0.5935,0.4065	-48.07
0.4111,0.5889	-48.13
0.5221,0.4779	-47.91
0.7166,0.2834	-47.54
0.8546,0.1454	-49.55
0.4980,0.5020	-48.00
0.6149,0.3851	-47.64
0.3808,0.6192	-48.23
0.5149,0.4851	-48.00
0.7303,0.2697	-47.54
0.8786,0.1214	-47.90
0.5350,0.4650	-48.00
0.6356,0.3644	-47.60
0.4076,0.5924	-48.52
0.4860,0.5140	-48.01
0.7579,0.2421	-48.69
0.8860,0.1140	-47.94
0.4499,0.5501	-48.25
0.6650,0.3350	-47.57
0.4317,0.5683	-48.36
0.5524,0.4476	-47.80
0.7930,0.2070	-48.94
0.8752,0.1248	-47.88
0.4302,0.5698	-48.09
0.6941,0.3059	-47.54
0.4605,0.5395	-48.19
0.4873,0.5127	-48.06
0.7788,0.2212	-47.58
0.8763,0.1237	-47.89
0.4031,0.5969	-48.55
0.6550,0.3450	-47.58
0.4771,0.5229	-48.02
0.5131,0.4869	-47.95
0.8131,0.1869	-47.64
0.8895,0.1105	-47.97
0.3220,0.6780	-48.51
0.5942,0.4058	-48.07
0.4547,0.5453	-48.23
0.4512,0.5488	-48.05
0.8417,0.1583	-47.73
0.8684,0.1316	-49.73
0.3414,0.6586	-48.40
0.5652,0.4348	-48.03
0.5012,0.4988	-48.00
0.4338,0.5662	-48.35
0.8199,0.1801	-49.18
0.8608,0.1392	-47.81
0.3143,0.6857	-49.34
0.4677,0.5323	-48.03
0.4819,0.5181	-48.09
0.4183,0.5817	-48.45
0.8013,0.1987	-47.62
0.8474,0.1526	-47.75
0.3008,0.6992	-48.65
0.4129,0.5871	-48.13
0.5021,0.4979	-47.99
0.4313,0.5687	-48.36
0.7915,0.2085	-47.60
0.8293,0.1707	-47.69
0.2755,0.7245	-48.85
0.4485,0.5515	-48.26
0.4402,0.5598	-48.31
0.4854,0.5146	-48.01
0.8028,0.1972	-47.62
0.8205,0.1795	-47.66
0.2845,0.7155	-48.77
0.3896,0.6104	-48.65
0.4330,0.5670	-48.08
0.4799,0.5201	-48.01
0.8310,0.1690	-47.69
0.8086,0.1914	-47.63
0.2595,0.7405	-48.99
0.4138,0.5862	-48.13
0.4795,0.5205	-48.02
0.4583,0.5417	-48.04
0.8039,0.1961	-47.62
0.7995,0.2005	-47.61
0.3193,0.6807	-49.28
0.4405,0.5595	-48.31
0.4622,0.5378	-48.18
0.4941,0.5059	-48.01
0.8107,0.1893	-47.64
0.7914,0.2086	-47.60
0.3337,0.6663	-49.14
0.4160,0.5840	-48.12
0.4779,0.5221	-48.10
0.4629,0.5371	-48.18
0.8247,0.1753	-49.22
0.7632,0.2368	-47.56
0.3265,0.6735	-48.48
0.3879,0.6121	-48.20
0.4767,0.5233	-48.02
0.4299,0.5701	-48.09
0.8834,0.1166	-47.93
0.7940,0.2060	-47.60
0.2987,0.7013	-48.66
0.4407,0.5593	-48.07
0.4798,0.5202	-48.10
0.3734,0.6266	-48.26
0.9066,0.0934	-48.09
0.7654,0.2346	-47.56
0.3421,0.6579	-48.40
0.4296,0.5704	-48.09
0.4814,0.5186	-48.01
0.3265,0.6735	-48.48
0.8739,0.1261	-47.87
0.7397,0.2603	-47.54
0.4039,0.5961	-48.15
0.4497,0.5503	-48.25
0.4714,0.5286	-48.02
0.3631,0.6369	-48.86
0.8750,0.1250	-47.88
0.7154,0.2846	-47.54
0.4198,0.5802	-48.11
0.3962,0.6038	-48.18
0.4690,0.5310	-48.15
0.3798,0.6202	-48.23
0.8697,0.1303	-47.85
0.7234,0.2766	-47.54
0.4753,0.5247	-48.02
0.4341,0.5659	-48.34
0.5303,0.4697	-48.00
0.3742,0.6258	-48.26
0.8429,0.1571	-47.73
0.7474,0.2526	-48.63
0.4852,0.5148	-48.01
0.3968,0.6032	-48.18
0.4746,0.5254	-48.12
0.3933,0.6067	-48.19
0.8019,0.1981	-47.62
0.7790,0.2210	-47.58
0.4697,0.5303	-48.15
0.4016,0.5984	-48.16
0.4735,0.5265	-48.13
0.3410,0.6590	-49.06
0.7906,0.2094	-48.92
0.7836,0.2164	-47.58
0.4872,0.5128	-48.06
0.3986,0.6014	-48.17
0.5076,0.4924	-48.00
0.3355,0.6645	-49.12
0.8381,0.1619	-47.72
0.8043,0.1957	-47.62
0.5510,0.4490	-47.81
0.4090,0.5910	-48.14
0.4476,0.5524	-48.27
0.3991,0.6009	-48.17
0.8142,0.1858	-49.12
0.8016,0.1984	-49.01
0.5492,0.4508	-47.82
0.3848,0.6152	-48.69
0.4088,0.5912	-48.51
0.4399,0.5601	-48.07
0.8227,0.1773	-47.67
0.7918,0.2082	-48.93
0.5497,0.4503	-47.81
0.3473,0.6527	-48.37
0.3784,0.6216	-48.24
0.4086,0.5914	-48.14
0.8309,0.1691	-47.69
0.7911,0.2089	-48.93
0.5408,0.4592	-48.01
0.3992,0.6008	-48.17
0.3721,0.6279	-48.26
0.4146,0.5854	-48.47
0.8231,0.1769	-47.67
0.8259,0.1741	-47.68
0.5592,0.4408	-47.78
0.4766,0.5234	-48.02
0.4085,0.5915	-48.14
0.3968,0.6032	-48.18
0.8239,0.1761	-47.67
0.7971,0.2029	-47.61
0.5607,0.4393	-48.02
0.5619,0.4381	-48.02
0.4258,0.5742	-48.10
0.4277,0.5723	-48.09
0.8012,0.1988	-47.62
0.8248,0.1752	-47.67
0.5632,0.4368	-47.77
0.4859,0.5141	-48.07
0.4084,0.5916	-48.14
0.3973,0.6027	-48.17
0.7521,0.2479	-47.55
0.8175,0.1825	-47.65
0.5759,0.4241	-47.73
0.4404,0.5596	-48.31
0.4214,0.5786	-48.11
0.4255,0.5745	-48.40
0.7382,0.2618	-47.54
0.8126,0.1874	-47.64
0.5588,0.4412	-48.02
0.4759,0.5241	-48.02
0.3349,0.6651	-48.44
0.3953,0.6047	-48.18
0.7613,0.2387	-47.56
0.7861,0.2139	-47.59
0.5508,0.4492	-48.01
0.5336,0.4664	-48.00
0.3512,0.6488	-48.35
0.3580,0.6420	-48.91
0.7843,0.2157	-47.59
0.8019,0.1981	-47.62
0.5858,0.4142	-47.71
0.5675,0.4325	-48.03
0.3898,0.6102	-48.20
0.3771,0.6229	-48.75
0.7712,0.2288	-47.57
0.7776,0.2224	-47.58
0.5824,0.4176	-48.05
0.5942,0.4058	-48.07
0.4119,0.5881	-48.49
0.4392,0.5608	-48.31
0.7687,0.2313	-47.56
0.7957,0.2043	-47.61
0.6535,0.3465	-48.21
0.6850,0.3150	-47.55
0.4205,0.5795	-48.43
0.4314,0.5686	-48.09
0.7966,0.2034	-48.97
0.7844,0.2156	-47.59
0.6573,0.3427	-47.57
0.6989,0.3011	-47.54
0.4349,0.5651	-48.08
0.4778,0.5222	-48.02
0.7734,0.2266	-48.80
0.8078,0.1922	-47.63
0.6373,0.3627	-47.60
0.6709,0.3291	-47.56
0.4127,0.5873	-48.48
0.4703,0.5297	-48.02
0.7831,0.2169	-47.58
0.8378,0.1622	-49.36
0.6124,0.3876	-47.65
0.6519,0.3481	-47.58
0.4516,0.5484	-48.05
0.5242,0.4758	-48.00
0.7420,0.2580	-47.54
0.8182,0.1818	-47.66
0.6407,0.3593	-47.60
0.6338,0.3662	-47.61
0.4939,0.5061	-48.01
0.5074,0.4926	-48.00
0.7435,0.2565	-47.54
0.8454,0.1546	-49.44
0.6597,0.3403	-48.23
0.6306,0.3694	-48.15
0.4986,0.5014	-48.00
0.4893,0.5107	-48.05
0.7036,0.2964	-47.54
0.8500,0.1500	-47.76
0.6321,0.3679	-48.15
0.6277,0.3723	-47.62
0.5120,0.4880	-48.00
0.5398,0.4602	-47.85
0.7616,0.2384	-47.56
0.8368,0.1632	-47.71
0.5657,0.4343	-47.76
0.5586,0.4414	-48.02
0.4720,0.5280	-48.02
0.5519,0.4481	-48.01
0.7897,0.2103	-47.59
0.8407,0.1593	-47.73
0.6033,0.3967	-48.09
0.5234,0.4766	-48.00
0.4345,0.5655	-48.08
0.4617,0.5383	-48.19
0.7656,0.2344	-47.56
0.8714,0.1286	-47.86
0.6715,0.3285	-47.56
0.5272,0.4728	-48.00
0.4509,0.5491	-48.25
0.4417,0.5583	-48.30
0.7332,0.2668	-47.54
0.8945,0.1055	-48.00
0.7232,0.2768	-47.54
0.4993,0.5007	-48.01
0.3871,0.6129	-48.67
0.4676,0.5324	-48.16
0.6738,0.3262	-48.28
0.8971,0.1029	-48.02
0.7089,0.2911	-47.54
0.4929,0.5071	-48.01
0.4484,0.5516	-48.05
0.4846,0.5154	-48.07
0.6819,0.3181	-47.55
0.9073,0.0927	-48.10
0.7129,0.2871	-47.54
0.4878,0.5122	-48.01
0.4310,0.5690	-48.09
0.4820,0.5180	-48.01
0.7437,0.2563	-47.54
0.9088,0.0912	-48.11
0.7044,0.2956	-48.41
0.5004,0.4996	-48.00
0.4698,0.5302	-48.15
0.5120,0.4880	-48.00
0.7654,0.2346	-47.56
0.9129,0.0871	-50.50
0.7222,0.2778	-47.54
0.4781,0.5219	-48.02
0.5459,0.4541	-47.83
0.5378,0.4622	-48.01
0.7361,0.2639	-47.54
0.9169,0.0831	-48.19
0.6798,0.3202	-47.55
0.4357,0.5643	-48.34
0.5551,0.4449	-48.02
0.6061,0.3939	-47.66
0.7750,0.2250	-47.57
0.9095,0.0905	-48.12
0.6091,0.3909	-47.65
0.4461,0.5539	-48.27
0.5454,0.4546	-47.83
0.5868,0.4132	-48.06
0.7564,0.2436	-47.55
0.9036,0.0964	-48.07
0.5491,0.4509	-48.01
0.5153,0.4847	-48.00
0.4832,0.5168	-48.08
0.6034,0.3966	-47.67
0.7713,0.2287	-47.57
0.8897,0.1103	-47.97
0.5105,0.4895	-48.00
0.5029,0.4971	-47.99
0.4993,0.5007	-48.00
0.5953,0.4047	-47.69
0.7483,0.2517	-47.55
0.8847,0.1153	-47.94
0.5196,0.4804	-47.92
0.5591,0.4409	-47.78
0.5247,0.4753	-47.90
0.6530,0.3470	-47.58
0.7421,0.2579	-47.54
0.8892,0.1108	-47.96
0.4998,0.5002	-48.00
0.5727,0.4273	-48.04
0.4808,0.5192	-48.09
0.6126,0.3874	-47.65
0.6940,0.3060	-47.54
0.8855,0.1145	-47.94
0.5018,0.4982	-47.99
0.5612,0.4388	-48.02
0.4554,0.5446	-48.04
0.5848,0.4152	-47.71
0.7041,0.2959	-47.54
0.9037,0.0963	-48.07
0.5380,0.4620	-47.85
0.6610,0.3390	-47.57
0.4207,0.5793	-48.43
0.5163,0.4837	-47.93
0.6712,0.3288	-47.56
0.8900,0.1100	-47.97
0.4623,0.5377	-48.18
0.6598,0.3402	-47.57
0.4315,0.5685	-48.36
0.5760,0.4240	-47.73
0.6480,0.3520	-47.59
0.8923,0.1077	-47.99
0.3875,0.6125	-48.21
0.6522,0.3478	-47.58
0.3979,0.6021	-48.17
0.5579,0.4421	-47.79
0.6457,0.3543	-48.19
0.8910,0.1090	-47.98
0.3755,0.6245	-48.76
0.6448,0.3552	-48.19
0.3418,0.6582	-48.40
0.5666,0.4334	-47.76
0.6122,0.3878	-48.10
0.8745,0.1255	-47.88
0.4295,0.5705	-48.37
0.6688,0.3312	-48.26
0.4132,0.5868	-48.13
0.5504,0.4496	-48.01
0.6115,0.3885	-47.65
0.8874,0.1126	-47.95
0.4095,0.5905	-48.50
0.6278,0.3722	-48.14
0.3953,0.6047	-48.18
0.5219,0.4781	-47.91
0.5914,0.4086	-48.06
0.8757,0.1243	-47.88
0.3820,0.6180	-48.71
0.5991,0.4009	-47.68
0.4338,0.5662	-48.08
0.5313,0.4687	-48.00
0.5816,0.4184	-47.72
0.8414,0.1586	-47.73
0.4750,0.5250	-48.12
0.5870,0.4130	-48.06
0.4321,0.5679	-48.36
0.4947,0.5053	-48.03
0.5728,0.4272	-48.04
0.8510,0.1490	-49.51
0.5064,0.4936	-48.00
0.6300,0.3700	-47.61
0.4697,0.5303	-48.15
0.5124,0.4876	-48.00
0.5933,0.4067	-48.07
0.8541,0.1459	-47.78
0.4985,0.5015	-48.01
0.6342,0.3658	-47.61
0.4542,0.5458	-48.04
0.5298,0.4702	-48.00
0.5824,0.4176	-47.72
0.8405,0.1595	-47.73
0.5584,0.4416	-47.79
0.5997,0.4003	-47.67
0.5053,0.4947	-48.00
0.5334,0.4666	-48.00
0.5625,0.4375	-47.77
0.8701,0.1299	-47.85
0.5274,0.4726	-48.00
0.6116,0.3884	-47.65
0.5706,0.4294	-48.03
0.5385,0.4615	-48.01
0.5460,0.4540	-47.83
0.8706,0.1294	-49.76
0.4652,0.5348	-48.03
0.5614,0.4386	-47.78
0.5520,0.4480	-48.01
0.5472,0.4528	-48.01
0.5575,0.4425	-48.02
0.8250,0.1750	-47.68
0.4043,0.5957	-48.15
0.6125,0.3875	-47.65
0.5734,0.4266	-47.74
0.5064,0.4936	-48.00
0.5730,0.4270	-47.74
0.8190,0.1810	-49.17
0.4048,0.5952	-48.54
0.6468,0.3532	-47.59
0.5999,0.4001	-48.08
0.4702,0.5298	-48.02
0.5565,0.4435	-48.02
0.8199,0.1801	-49.18
0.3776,0.6224	-48.24
0.6341,0.3659	-47.61
0.6114,0.3886	-47.65
0.4508,0.5492	-48.25
0.5295,0.4705	-47.88
0.8466,0.1534	-47.75
0.3751,0.6249	-48.25
0.7015,0.2985	-47.54
0.6315,0.3685	-47.61
0.4739,0.5261	-48.02
0.4953,0.5047	-48.02
0.8599,0.1401	-47.80
0.4212,0.5788	-48.11
0.6839,0.3161	-47.55
0.6425,0.3575	-47.59
0.5288,0.4712	-47.89
0.4651,0.5349	-48.03
0.8589,0.1411	-47.80
0.4250,0.5750	-48.10
0.6624,0.3376	-48.24
0.6371,0.3629	-47.60
0.5218,0.4782	-48.00
0.4120,0.5880	-48.13
0.8911,0.1089	-47.98
0.4191,0.5809	-48.44
0.7076,0.2924	-48.42
0.5898,0.4102	-48.06
0.4667,0.5333	-48.16
0.4161,0.5839	-48.12
0.9179,0.0821	-48.19
0.4832,0.5168	-48.08
0.7790,0.2210	-47.58
0.5411,0.4589	-48.01
0.4554,0.5446	-48.04
0.4802,0.5198	-48.09
0.9386,0.0614	-48.44
0.4782,0.5218	-48.02
0.7600,0.2400	-48.71
0.5120,0.4880	-47.95
0.4656,0.5344	-48.03
0.5037,0.4963	-47.99
0.9411,0.0589	-48.47
0.4321,0.5679	-48.08
0.7878,0.2122	-48.90
0.5163,0.4837	-48.00
0.5031,0.4969	-48.00
0.4938,0.5062	-48.01
0.9344,0.0656	-48.38
0.4460,0.5540	-48.06
0.8102,0.1898	-47.64
0.5278,0.4722	-47.89
0.5825,0.4175	-47.72
0.4657,0.5343	-48.17
0.9115,0.0885	-48.14
0.4241,0.5759	-48.10
0.8284,0.1716	-47.69
0.4848,0.5152	-48.01
0.6135,0.3865	-48.11
0.4804,0.5196	-48.09
0.8981,0.1019	-48.03
0.4051,0.5949	-48.15
0.8092,0.1908	-47.63
0.5064,0.4936	-47.98
0.6717,0.3283	-47.56
0.4986,0.5014	-48.00
0.8901,0.1099	-47.97
0.3687,0.6313	-48.82
0.7988,0.2012	-47.61
0.4907,0.5093	-48.04
0.6204,0.3796	-47.63
0.5052,0.4948	-48.00
0.9071,0.0929	-48.10
0.3737,0.6263	-48.26
0.7504,0.2496	-47.55
0.4592,0.5408	-48.20
0.6120,0.3880	-48.10
0.5251,0.4749	-48.00
0.8956,0.1044	-48.01
0.3370,0.6630	-48.43
0.7375,0.2625	-47.54
0.4247,0.5753	-48.10
0.6622,0.3378	-47.57
0.5776,0.4224	-48.04
0.8946,0.1054	-50.14
0.3527,0.6473	-48.35
0.7666,0.2334	-48.75
0.4678,0.5322	-48.03
0.6314,0.3686	-47.61
0.5802,0.4198	-47.72
0.9029,0.0971	-48.06
0.3183,0.6817	-48.53
0.7929,0.2071	-48.94
0.4182,0.5818	-48.12
0.5520,0.4480	-47.81
0.5635,0.4365	-47.77
0.9025,0.0975	-48.06
0.2862,0.7138	-48.76
0.7550,0.2450	-48.68
0.4580,0.5420	-48.04
0.6190,0.3810	-48.12
0.5876,0.4124	-47.70
0.9076,0.0924	-48.10
0.2810,0.7190	-48.80
0.7222,0.2778	-47.54
0.5118,0.4882	-47.95
0.6800,0.3200	-47.55
0.5107,0.4893	-47.96
0.8874,0.1126	-47.95
0.2617,0.7383	-48.97
0.7777,0.2223	-47.58
0.5633,0.4367	-47.77
0.6432,0.3568	-47.59
0.5384,0.4616	-47.85
0.8804,0.1196	-47.91
0.2650,0.7350	-48.94
0.7897,0.2103	-48.92
0.5607,0.4393	-48.02
0.6760,0.3240	-47.55
0.5022,0.4978	-48.00
0.9018,0.0982	-48.05
0.2847,0.7153	-48.77
0.7876,0.2124	-47.59
0.5339,0.4661	-48.00
0.5962,0.4038	-47.68
0.4780,0.5220	-48.10
0.9134,0.0866	-48.15
0.3108,0.6892	-48.58
0.8024,0.1976	-49.02
0.5147,0.4853	-47.94
0.5597,0.4403	-47.78
0.4761,0.5239	-48.02
0.9267,0.0733	-48.29
0.3689,0.6311	-48.28
0.8290,0.1710	-47.69
0.5649,0.4351	-48.03
0.5877,0.4123	-47.70
0.4711,0.5289	-48.02
0.9249,0.0751	-48.27
0.3559,0.6441	-48.93
0.8244,0.1756	-47.67
0.4983,0.5017	-48.00
0.5867,0.4133	-47.71
0.4582,0.5418	-48.21
0.9159,0.0841	-48.18
0.3466,0.6534	-48.38
0.8278,0.1722	-47.68
0.4963,0.5037	-48.02
0.5318,0.4682	-48.00
0.4908,0.5092	-48.04
0.9003,0.0997	-48.04
0.3731,0.6269	-48.26
0.8303,0.1697	-47.69
0.4740,0.5260	-48.12
0.4863,0.5137	-48.01
0.4820,0.5180	-48.09
0.8932,0.1068	-47.99
0.3786,0.6214	-48.73
0.8104,0.1896	-47.64
0.4797,0.5203	-48.01
0.4670,0.5330	-48.03
0.5176,0.4824	-47.93
0.8786,0.1214	-49.88
0.3931,0.6069	-48.62
0.7596,0.2404	-48.71
0.5125,0.4875	-47.95
0.4877,0.5123	-48.06
0.5074,0.4926	-47.97
0.8723,0.1277	-47.86
0.4544,0.5456	-48.23
0.7520,0.2480	-48.66
0.5194,0.4806	-47.92
0.4971,0.5029	-48.00
0.5017,0.4983	-48.00
0.8683,0.1317	-47.84
0.4638,0.5362	-48.18
0.7157,0.2843	-47.54
0.5265,0.4735	-47.90
0.4534,0.5466	-48.23
0.5287,0.4713	-47.89
0.8244,0.1756	-47.67
0.5090,0.4910	-47.96
0.7137,0.2863	-48.45
0.5484,0.4516	-47.82
0.4307,0.5693	-48.37
0.5441,0.4559	-48.01
0.8136,0.1864	-47.64
0.5434,0.4566	-47.83
0.6480,0.3520	-48.20
0.5148,0.4852	-47.94
0.4253,0.5747	-48.40
0.5950,0.4050	-47.69
0.8259,0.1741	-47.68
0.5587,0.4413	-47.78
0.6128,0.3872	-47.65
0.5166,0.4834	-48.00
0.3860,0.6140	-48.68
0.5920,0.4080	-48.07
0.8562,0.1438	-47.79
0.6508,0.3492	-48.21
0.6442,0.3558	-48.19
0.5179,0.4821	-48.00
0.3692,0.6308	-48.81
0.5593,0.4407	-47.78
0.8382,0.1618	-47.72
0.6623,0.3377	-47.57
0.6378,0.3622	-48.17
0.5680,0.4320	-47.76
0.3174,0.6826	-49.30
0.6137,0.3863	-47.64
0.8561,0.1439	-47.79
0.6684,0.3316	-48.26
0.6634,0.3366	-47.57
0.6003,0.3997	-48.08
0.3362,0.6638	-49.11
0.5827,0.4173	-47.72
0.8276,0.1724	-47.68
0.6251,0.3749	-48.13
0.7079,0.2921	-48.42
0.6082,0.3918	-48.10
0.3799,0.6201	-48.72
0.5886,0.4114	-48.06
0.7534,0.2466	-47.55
0.5398,0.4602	-48.01
0.6741,0.3259	-47.56
0.6601,0.3399	-47.57
0.3323,0.6677	-49.15
0.6047,0.3953	-47.66
0.7636,0.2364	-47.56
0.5006,0.4994	-48.00
0.7360,0.2640	-48.56
0.6631,0.3369	-48.24
0.3292,0.6708	-49.18
0.6532,0.3468	-47.58
0.7597,0.2403	-47.56
0.4688,0.5312	-48.15
0.7048,0.2952	-47.54
0.6392,0.3608	-47.60
0.2846,0.7154	-49.69
0.6930,0.3070	-47.54
0.7803,0.2197	-47.58
0.4194,0.5806	-48.44
0.7091,0.2909	-47.54
0.5780,0.4220	-47.73
0.2375,0.7625	-49.22
0.6773,0.3227	-47.55
0.7952,0.2048	-47.60
0.3516,0.6484	-48.35
0.6695,0.3305	-48.27
0.5591,0.4409	-47.78
0.2293,0.7707	-49.31
0.7010,0.2990	-47.54
0.7802,0.2198	-47.58
0.3031,0.6969	-48.63
0.6716,0.3284	-47.56
0.4808,0.5192	-48.01
0.2295,0.7705	-50.52
0.6954,0.3046	-48.37
0.7866,0.2134	-47.59
0.3739,0.6261	-48.77
0.6066,0.3934	-48.09
0.4714,0.5286	-48.02
0.2376,0.7624	-49.22
0.7226,0.2774	-47.54
0.7754,0.2246	-47.57
0.3811,0.6189	-48.23
0.6239,0.3761	-48.13
0.5223,0.4777	-48.00
0.2439,0.7561	-50.28
0.6725,0.3275	-48.28
0.7650,0.2350	-47.56
0.3799,0.6201	-48.23
0.6283,0.3717	-48.14
0.4676,0.5324	-48.03
0.2367,0.7633	-49.23
0.6566,0.3434	-48.22
0.7794,0.2206	-48.84
0.4624,0.5376	-48.18
0.6184,0.3816	-48.12
0.4591,0.5409	-48.04
0.2375,0.7625	-49.22
0.6316,0.3684	-48.15
0.8019,0.1981	-47.62
0.4785,0.5215	-48.02
0.6052,0.3948	-47.66
0.4373,0.5627	-48.33
0.2643,0.7357	-49.97
0.6817,0.3183	-48.31
0.8029,0.1971	-47.62
0.4837,0.5163	-48.01
0.6076,0.3924	-48.09
0.4545,0.5455	-48.04
0.2656,0.7344	-48.93
0.6563,0.3437	-47.58
0.7886,0.2114	-47.59
0.5157,0.4843	-47.94
0.5999,0.4001	-48.08
0.4604,0.5396	-48.19
0.2445,0.7555	-50.27
0.5933,0.4067	-47.69
0.7459,0.2541	-48.62
0.5024,0.4976	-48.00
0.6460,0.3540	-48.19
0.4232,0.5768	-48.41
0.2963,0.7037	-48.68
0.6366,0.3634	-48.16
0.7472,0.2528	-47.55
0.5107,0.4893	-47.96
0.5863,0.4137	-47.71
0.4226,0.5774	-48.10
0.2932,0.7068	-49.58
0.6625,0.3375	-47.57
0.7115,0.2885	-48.44
0.5201,0.4799	-47.92
0.6019,0.3981	-47.67
0.4474,0.5526	-48.27
0.2562,0.7438	-49.02
0.6270,0.3730	-48.14
0.7102,0.2898	-47.54
0.5163,0.4837	-47.93
0.5889,0.4111	-47.70
0.4470,0.5530	-48.27
0.3086,0.6914	-48.60
0.6157,0.3843	-47.64
0.6545,0.3455	-47.58
0.4782,0.5218	-48.10
0.5451,0.4549	-47.83
0.4550,0.5450	-48.22
0.2919,0.7081	-48.71
0.6237,0.3763	-47.63
0.6410,0.3590	-47.60
0.4993,0.5007	-48.01
0.4901,0.5099	-48.05
0.4402,0.5598	-48.07
0.2805,0.7195	-48.80
0.6665,0.3335	-47.56
0.6197,0.3803	-48.12
0.4743,0.5257	-48.12
0.4412,0.5588	-48.07
0.4479,0.5521	-48.26
0.2754,0.7246	-48.85
0.6536,0.3464	-47.58
0.6033,0.3967	-47.67
0.4936,0.5064	-48.01
0.4039,0.5961	-48.15
0.4672,0.5328	-48.16
0.2923,0.7077	-48.71
0.5881,0.4119	-47.70
0.5801,0.4199	-47.72
0.4714,0.5286	-48.14
0.3844,0.6156	-48.22
0.4839,0.5161	-48.08
0.3153,0.6847	-48.55
0.5500,0.4500	-47.81
0.5542,0.4458	-48.02
0.4703,0.5297	-48.02
0.3921,0.6079	-48.19
0.4419,0.5581	-48.06
0.3623,0.6377	-48.30
0.4916,0.5084	-48.01
0.6076,0.3924	-48.09
0.5008,0.4992	-48.00
0.3471,0.6529	-48.37
0.4293,0.5707	-48.09
0.4013,0.5987	-48.16
0.5557,0.4443	-47.79
0.6538,0.3462	-47.58
0.5224,0.4776	-48.00
0.3430,0.6570	-49.04
0.4143,0.5857	-48.47
0.3763,0.6237	-48.75
0.5189,0.4811	-47.92
0.6945,0.3055	-47.54
0.4478,0.5522	-48.05
0.3727,0.6273	-48.26
0.4212,0.5788	-48.43
0.3870,0.6130	-48.67
0.4739,0.5261	-48.12
0.6577,0.3423	-48.23
0.4509,0.5491	-48.25
0.4589,0.5411	-48.04
0.3841,0.6159	-48.22
0.4330,0.5670	-48.08
0.4973,0.5027	-48.01
0.6500,0.3500	-48.20
0.4884,0.5116	-48.05
0.4932,0.5068	-48.03
0.3724,0.6276	-48.78
0.3780,0.6220	-48.74
0.4843,0.5157	-48.01
0.6686,0.3314	-48.26
0.4440,0.5560	-48.06
0.4731,0.5269	-48.13
0.3704,0.6296	-48.27
0.3876,0.6124	-48.21
0.4653,0.5347	-48.03
0.7053,0.2947	-47.54
0.4576,0.5424	-48.04
0.4830,0.5170	-48.08
0.3364,0.6636	-49.11
0.4064,0.5936	-48.15
0.4606,0.5394	-48.19
0.6968,0.3032	-47.54
0.4406,0.5594	-48.07
0.5060,0.4940	-47.98
0.3222,0.6778	-48.51
0.3454,0.6546	-48.38
0.4437,0.5563	-48.06
0.7262,0.2738	-47.54
0.3739,0.6261	-48.26
0.4697,0.5303	-48.02
0.2931,0.7069	-48.70
0.3749,0.6251	-48.25
0.4414,0.5586	-48.07
0.7101,0.2899	-48.43
0.3687,0.6313	-48.81
0.4984,0.5016	-48.00
0.3492,0.6508	-48.99
0.3693,0.6307	-48.27
0.4067,0.5933	-48.52
0.6927,0.3073	-47.54
0.3894,0.6106	-48.20
0.5421,0.4579	-47.84
0.2486,0.7514	-49.10
0.4037,0.5963	-48.15
0.3966,0.6034	-48.60
0.6828,0.3172	-48.32
0.4366,0.5634	-48.07
0.5517,0.4483	-47.81
0.2546,0.7454	-49.04
0.4478,0.5522	-48.26
0.3543,0.6457	-48.34
0.7270,0.2730	-47.54
0.4038,0.5962	-48.15
0.5365,0.4635	-47.86
0.2863,0.7137	-49.67
0.4761,0.5239	-48.02
0.3254,0.6746	-49.22
0.7510,0.2490	-47.55
0.3831,0.6169	-48.22
0.5036,0.4964	-48.00
0.2504,0.7496	-50.18
0.5731,0.4269	-48.04
0.3543,0.6457	-48.34
0.7032,0.2968	-47.54
0.4042,0.5958	-48.15
0.5431,0.4569	-48.01
0.2550,0.7450	-50.11
0.5764,0.4236	-47.73
0.3684,0.6316	-48.82
0.7405,0.2595	-47.54
0.4513,0.5487	-48.24
0.4074,0.5926	-48.14
0.2543,0.7457	-49.04
0.6462,0.3538	-47.59
0.3870,0.6130	-48.21
0.7841,0.2159	-47.59
0.4684,0.5316	-48.15
0.3839,0.6161	-48.22
0.2669,0.7331	-48.92
0.6462,0.3538	-47.59
0.4507,0.5493	-48.05
0.7759,0.2241	-48.82
0.4723,0.5277	-48.13
0.4472,0.5528	-48.06
0.2503,0.7497	-49.08
0.6773,0.3227	-47.55
0.4184,0.5816	-48.12
0.7805,0.2195	-47.58
0.5184,0.4816	-48.00
0.4269,0.5731	-48.39
0.2326,0.7674	-50.47
0.7066,0.2934	-48.42
0.4352,0.5648	-48.34
0.7507,0.2493	-47.55
0.4528,0.5472	-48.05
0.4231,0.5769	-48.41
0.1955,0.8045	-51.19
0.6871,0.3129	-47.55
0.4479,0.5521	-48.05
0.7964,0.2036	-47.61
0.4422,0.5578	-48.06
0.4428,0.5572	-48.06
0.2350,0.7650	-49.25
0.6976,0.3024	-48.38
0.4563,0.5437	-48.04
0.7830,0.2170	-47.58
0.4879,0.5121	-48.01
0.4271,0.5729	-48.39
0.2598,0.7402	-48.99
0.6832,0.3168	-47.55
0.3723,0.6277	-48.78
0.7735,0.2265	-47.57
0.5026,0.4974	-47.99
0.4736,0.5264	-48.13
0.2643,0.7357	-48.94
0.6980,0.3020	-47.54
0.3730,0.6270	-48.26
0.8422,0.1578	-47.73
0.4719,0.5281	-48.02
0.4948,0.5052	-48.00
0.3010,0.6990	-49.49
0.6879,0.3121	-47.55
0.3682,0.6318	-48.82
0.8226,0.1774	-47.67
0.4233,0.5767	-48.10
0.5648,0.4352	-47.77
0.3015,0.6985	-48.64
0.7133,0.2867	-48.45
0.3604,0.6396	-48.89
0.8324,0.1676	-47.70
0.4401,0.5599	-48.07
0.5756,0.4244	-47.74
0.2708,0.7292	-48.89
0.7236,0.2764	-47.54
0.3825,0.6175	-48.70
0.8463,0.1537	-47.75
0.4069,0.5931	-48.15
0.6164,0.3836	-48.11
0.2998,0.7002	-48.66
0.6886,0.3114	-48.34
0.4318,0.5682	-48.36
0.8304,0.1696	-47.69
0.3917,0.6083	-48.63
0.6560,0.3440	-47.58
0.2880,0.7120	-48.74
0.7118,0.2882	-47.54
0.4132,0.5868	-48.13
0.8287,0.1713	-47.69
0.3923,0.6077	-48.19
0.6946,0.3054	-47.54
0.2840,0.7160	-49.70
0.7095,0.2905	-48.43
0.3859,0.6141	-48.21
0.8655,0.1345	-47.83
0.3909,0.6091	-48.19
0.6701,0.3299	-47.56
0.2984,0.7016	-48.67
0.6742,0.3258	-47.56
0.4475,0.5525	-48.06
0.8359,0.1641	-47.71
0.3886,0.6114	-48.66
0.7240,0.2760	-47.54
0.2881,0.7119	-48.74
0.6858,0.3142	-48.33
0.4976,0.5024	-48.01
0.8690,0.1310	-47.85
0.4007,0.5993	-48.16
0.6976,0.3024	-48.38
0.2710,0.7290	-48.88
0.6405,0.3595	-47.60
0.4428,0.5572	-48.29
0.8686,0.1314	-47.85
0.4065,0.5935	-48.53
0.6615,0.3385	-48.24
0.2601,0.7399	-48.98
0.6755,0.3245	-48.29
0.3943,0.6057	-48.61
0.8751,0.1249	-47.88
0.4074,0.5926	-48.14
0.5752,0.4248	-48.04
0.2672,0.7328	-48.92
0.6390,0.3610	-47.60
0.3797,0.6203	-48.23
0.8875,0.1125	-47.95
0.4244,0.5756	-48.10
0.5790,0.4210	-48.04
0.2496,0.7504	-49.09
0.6358,0.3642	-48.16
0.4029,0.5971	-48.16
0.8727,0.1273	-49.79
0.4611,0.5389	-48.19
0.5548,0.4452	-47.80
0.2778,0.7222	-48.83
0.5790,0.4210	-47.73
0.4832,0.5168	-48.08
0.8685,0.1315	-47.84
0.4548,0.5452	-48.04
0.5652,0.4348	-48.03
0.3003,0.6997	-48.65
0.5770,0.4230	-48.04
0.4429,0.5571	-48.06
0.8447,0.1553	-47.74
0.4840,0.5160	-48.08
0.5424,0.4576	-47.84
0.2938,0.7062	-49.58
0.5872,0.4128	-47.70
0.4135,0.5865	-48.13
0.8212,0.1788	-49.19
0.4853,0.5147	-48.07
0.5875,0.4125	-48.06
0.2951,0.7049	-48.69
0.5935,0.4065	-48.07
0.3906,0.6094	-48.20
0.8365,0.1635	-47.71
0.4760,0.5240	-48.11
0.5910,0.4090	-47.70
0.2776,0.7224	-49.78
0.5681,0.4319	-47.76
0.3668,0.6332	-48.83
0.8337,0.1663	-47.70
0.4282,0.5718	-48.38
0.5542,0.4458	-47.80
0.2875,0.7125	-48.75
0.6280,0.3720	-48.14
0.4118,0.5882	-48.49
0.8257,0.1743	-49.23
0.3905,0.6095	-48.20
0.5165,0.4835	-47.93
0.2689,0.7311	-48.90
0.6139,0.3861	-47.64
0.3934,0.6066	-48.62
0.8338,0.1662	-47.70
0.3572,0.6428	-48.33
0.4413,0.5587	-48.30
0.2228,0.7772	-49.39
0.6442,0.3558	-47.59
0.3516,0.6484	-48.35
0.8150,0.1850	-47.65
0.3590,0.6410	-48.32
0.5066,0.4934	-48.00
0.2852,0.7148	-48.77
0.6601,0.3399	-47.57
0.3241,0.6759	-48.50
0.8253,0.1747	-47.68
0.3167,0.6833	-48.54
0.5037,0.4963	-48.00
0.3017,0.6983	-48.64
0.7268,0.2732	-48.52
0.3027,0.6973	-48.64
0.8458,0.1542	-49.45
0.3265,0.6735	-48.48
0.4769,0.5231	-48.11
0.2865,0.7135	-48.76
0.7420,0.2580	-47.54
0.3280,0.6720	-48.48
0.8317,0.1683	-47.70
0.3854,0.6146	-48.21
0.4947,0.5053	-48.03
0.2616,0.7384	-48.97
0.7428,0.2572	-48.60
0.2981,0.7019	-48.67
0.8473,0.1527	-47.75
0.3306,0.6694	-49.17
0.4582,0.5418	-48.21
0.2606,0.7394	-50.02
0.7797,0.2203	-47.58
0.2975,0.7025	-48.67
0.8627,0.1373	-47.82
0.2506,0.7494	-49.08
0.4716,0.5284	-48.02
0.2591,0.7409	-48.99
0.7155,0.2845	-47.54
0.3392,0.6608	-48.41
0.8323,0.1677	-47.70
0.2417,0.7583	-49.17
0.4600,0.5400	-48.04
0.3093,0.6907	-49.39
0.6918,0.3082	-48.35
0.4061,0.5939	-48.15
0.8517,0.1483	-47.77
0.2235,0.7765	-49.38
0.4641,0.5359	-48.03
0.2642,0.7358	-48.94
0.7096,0.2904	-47.54
0.4188,0.5812	-48.11
0.8809,0.1191	-47.91
0.2167,0.7833	-50.76
0.4167,0.5833	-48.46
0.2591,0.7409	-48.99
0.6666,0.3334	-47.56
0.4441,0.5559	-48.06
0.8712,0.1288	-47.86
0.2208,0.7792	-49.42
0.4176,0.5824	-48.45
0.2669,0.7331	-49.93
0.6811,0.3189	-47.55
0.4927,0.5073	-48.04
0.8294,0.1706	-47.69
0.2256,0.7744	-49.36
0.4426,0.5574	-48.06
0.3002,0.6998	-48.65
0.7153,0.2847	-47.54
0.4655,0.5345	-48.17
0.8469,0.1531	-47.75
0.2435,0.7565	-50.29
0.4226,0.5774	-48.11
0.3092,0.6908	-49.39
0.7221,0.2779	-48.49
0.4494,0.5506	-48.26
0.8173,0.1827	-47.65
0.2522,0.7478	-49.06
0.3980,0.6020	-48.59
0.3678,0.6322	-48.28
0.6528,0.3472	-47.58
0.4255,0.5745	-48.40
0.7974,0.2026	-47.61
0.2357,0.7643	-49.24
0.4265,0.5735	-48.10
0.3771,0.6229	-48.75
0.6156,0.3844	-47.64
0.4060,0.5940	-48.15
0.8235,0.1765	-47.67
0.2623,0.7377	-48.96
0.3942,0.6058	-48.18
0.3219,0.6781	-48.51
0.5703,0.4297	-47.75
0.4154,0.5846	-48.12
0.8197,0.1803	-47.66
0.3228,0.6772	-48.51
0.4506,0.5494	-48.05
0.3159,0.6841	-48.55
0.6399,0.3601	-48.17
0.4776,0.5224	-48.02
0.8441,0.1559	-47.74
0.3566,0.6434	-48.92
0.3875,0.6125	-48.21
0.3743,0.6257	-48.25
0.6896,0.3104	-47.55
0.4655,0.5345	-48.03
0.8512,0.1488	-47.77
0.4080,0.5920	-48.14
0.3514,0.6486	-48.35
0.4360,0.5640	-48.33
0.7011,0.2989	-47.54
0.4770,0.5230	-48.02
0.8836,0.1164	-47.93
0.4141,0.5859	-48.47
0.3099,0.6901	-48.59
0.4853,0.5147	-48.01
0.7548,0.2452	-47.55
0.5281,0.4719	-48.00
0.8790,0.1210	-47.90
0.4192,0.5808	-48.44
0.3544,0.6456	-48.34
0.4932,0.5068	-48.01
0.7751,0.2249	-47.57
0.5843,0.4157	-48.05
0.8792,0.1208	-49.89
0.3870,0.6130	-48.67
0.3376,0.6624	-48.42
0.5037,0.4963	-48.00
0.7899,0.2101	-47.59
0.5601,0.4399	-47.78
0.8701,0.1299	-47.85
0.3850,0.6150	-48.22
0.3548,0.6452	-48.94
0.4595,0.5405	-48.20
0.8221,0.1779	-47.67
0.6029,0.3971	-48.09
0.8557,0.1443	-47.78
0.4082,0.5918	-48.14
0.3736,0.6264	-48.26
0.5305,0.4695	-47.88
0.8327,0.1673	-47.70
0.6408,0.3592	-47.60
0.8647,0.1353	-49.68
0.3923,0.6077	-48.63
0.3321,0.6679	-49.15
0.5349,0.4651	-48.00
0.8366,0.1634	-49.34
0.6859,0.3141	-48.33
0.8845,0.1155	-47.93
0.4744,0.5256	-48.02
0.3659,0.6341	-48.29
0.5553,0.4447	-47.80
0.8666,0.1334	-47.83
0.7178,0.2822	-47.54
0.8873,0.1127	-47.95
0.4593,0.5407	-48.20
0.3371,0.6629	-48.42
0.4887,0.5113	-48.01
0.8866,0.1134	-47.95
0.7455,0.2545	-47.54
0.8978,0.1022	-48.02
0.4870,0.5130	-48.06
0.3617,0.6383	-48.31
0.5293,0.4707	-48.00
0.8741,0.1259	-47.87
0.6963,0.3037	-47.54
0.8939,0.1061	-48.00
0.4676,0.5324	-48.16
0.3335,0.6665	-48.44
0.5223,0.4777	-48.00
0.8648,0.1352	-47.83
0.7058,0.2942	-47.54
0.8808,0.1192	-47.91
0.4156,0.5844	-48.46
0.3460,0.6540	-49.02
0.5074,0.4926	-47.97
0.8380,0.1620	-47.72
0.6781,0.3219	-47.55
0.8781,0.1219	-47.90
0.3457,0.6543	-49.02
0.3523,0.6477	-48.96
0.4605,0.5395	-48.19
0.8327,0.1673	-47.70
0.6905,0.3095	-47.54
0.8963,0.1037	-50.17
0.3780,0.6220	-48.74
0.3505,0.6495	-48.36
0.4919,0.5081	-48.04
0.8310,0.1690	-47.69
0.6950,0.3050	-48.37
0.9013,0.0987	-48.05
0.4610,0.5390	-48.19
0.3753,0.6247	-48.25
0.4807,0.5193	-48.09
0.8290,0.1710	-47.69
0.6658,0.3342	-47.56
0.9181,0.0819	-48.20
0.4655,0.5345	-48.17
0.3776,0.6224	-48.24
0.5371,0.4629	-48.01
0.8142,0.1858	-47.65
0.6690,0.3310	-47.56
0.9247,0.0753	-48.27
0.4699,0.5301	-48.02
0.4275,0.5725	-48.09
0.5408,0.4592	-48.01
0.8409,0.1591	-47.73
0.7062,0.2938	-47.54
0.9318,0.0682	-48.35
0.4730,0.5270	-48.02
0.4148,0.5852	-48.12
0.5739,0.4261	-47.74
0.8261,0.1739	-49.24
0.6700,0.3300	-48.27
0.9388,0.0612	-51.17
0.4709,0.5291	-48.02
0.4166,0.5834	-48.46
0.5718,0.4282	-48.04
0.8115,0.1885	-49.10
0.6879,0.3121	-47.55
0.9101,0.0899	-48.12
0.4290,0.5710	-48.09
0.3721,0.6279	-48.26
0.5457,0.4543	-47.83
0.8133,0.1867	-47.64
0.6331,0.3669	-47.61
0.9231,0.0769	-48.25
0.4466,0.5534	-48.06
0.3745,0.6255	-48.77
0.5154,0.4846	-47.94
0.8053,0.1947	-47.63
0.6872,0.3128	-48.33
0.9254,0.0746	-48.27
0.4352,0.5648	-48.08
0.4067,0.5933	-48.15
0.5121,0.4879	-48.00
0.8214,0.1786	-47.67
0.6990,0.3010	-48.38
0.9238,0.0762	-48.26
0.4626,0.5374	-48.18
0.4053,0.5947	-48.15
0.5458,0.4542	-47.83
0.8126,0.1874	-47.64
0.7313,0.2687	-47.54
0.9395,0.0605	-48.45
0.4266,0.5734	-48.39
0.4193,0.5807	-48.11
0.5903,0.4097	-48.06
0.8133,0.1867	-47.64
0.7537,0.2463	-47.55
0.9521,0.0479	-48.66
0.4177,0.5823	-48.12
0.3609,0.6391	-48.31
0.5861,0.4139	-47.71
0.8071,0.1929	-47.63
0.7333,0.2667	-47.54
0.9513,0.0487	-51.62
0.4334,0.5666	-48.08
0.3398,0.6602	-48.41
0.5282,0.4718	-48.00
0.8146,0.1854	-47.65
0.7223,0.2777	-48.49
0.9543,0.0457	-48.70
0.3878,0.6122	-48.66
0.3461,0.6539	-49.01
0.4984,0.5016	-48.01
0.8111,0.1889	-47.64
0.7746,0.2254	-47.57
0.9521,0.0479	-48.66
0.3966,0.6034	-48.60
0.4098,0.5902	-48.14
0.5339,0.4661	-47.87
0.7791,0.2209	-47.58
0.7378,0.2622	-48.58
0.9585,0.0415	-48.79
0.3621,0.6379	-48.30
0.4261,0.5739	-48.39
0.5371,0.4629	-48.01
0.7700,0.2300	-47.57
0.6863,0.3137	-47.55
0.9535,0.0465	-48.68
0.3494,0.6506	-48.98
0.4686,0.5314	-48.03
0.5257,0.4743	-47.90
0.7608,0.2392	-47.56
0.6447,0.3553	-47.59
0.9483,0.0517	-48.59
0.3970,0.6030	-48.59
0.4586,0.5414	-48.20
0.5394,0.4606	-47.85
0.6988,0.3012	-47.54
0.6214,0.3786	-47.63
0.9419,0.0581	-48.49
0.4386,0.5614	-48.07
0.3611,0.6389	-48.31
0.5779,0.4221	-47.73
0.6861,0.3139	-47.55
0.6538,0.3462	-47.58
0.9323,0.0677	-48.35
0.5299,0.4701	-47.88
0.3336,0.6664	-49.14
0.5867,0.4133	-48.06
0.6659,0.3341	-48.25
0.6583,0.3417	-47.57
0.9265,0.0735	-48.29
0.5223,0.4777	-47.91
0.3440,0.6560	-48.39
0.5856,0.4144	-47.71
0.6819,0.3181	-48.31
0.6586,0.3414	-47.57
0.9132,0.0868	-48.15
0.5881,0.4119	-48.06
0.3484,0.6516	-48.37
0.5517,0.4483	-48.01
0.6755,0.3245	-47.56
0.6097,0.3903	-48.10
0.8961,0.1039	-48.01
0.5706,0.4294	-48.03
0.4302,0.5698	-48.37
0.6023,0.3977	-47.67
0.7450,0.2550	-47.54
0.6318,0.3682	-47.61
0.9191,0.0809	-48.21
0.5464,0.4536	-48.01
0.3906,0.6094	-48.20
0.5980,0.4020	-48.08
0.7456,0.2544	-47.54
0.5985,0.4015	-47.68
0.9290,0.0710	-48.31
0.5805,0.4195	-48.05
0.3850,0.6150	-48.68
0.6825,0.3175	-48.32
0.7034,0.2966	-48.40
0.5068,0.4932	-48.00
0.9196,0.0804	-48.21
0.6135,0.3865	-47.64
0.3956,0.6044	-48.60
0.6694,0.3306	-47.56
0.7512,0.2488	-48.65
0.4885,0.5115	-48.05
0.9319,0.0681	-48.35
0.6320,0.3680	-48.15
0.4009,0.5991	-48.16
0.6737,0.3263	-47.56
0.7173,0.2827	-47.54
0.4593,0.5407	-48.04
0.9374,0.0626	-48.42
0.6443,0.3557	-48.19
0.3959,0.6041	-48.18
0.6568,0.3432	-47.57
0.7382,0.2618	-47.54
0.4366,0.5634	-48.33
0.9405,0.0595	-48.47
0.7014,0.2986	-47.54
0.2769,0.7231	-48.83
0.6783,0.3217	-48.30
0.7180,0.2820	-48.47
0.4371,0.5629	-48.07
0.9341,0.0659	-48.38
0.6688,0.3312	-48.26
0.2765,0.7235	-48.84
0.6998,0.3002	-48.39
0.6722,0.3278	-48.28
0.3952,0.6048	-48.18
0.9089,0.0911	-48.11
0.6566,0.3434	-47.58
0.3049,0.6951	-48.62
0.6993,0.3007	-47.54
0.6935,0.3065	-48.36
0.4603,0.5397	-48.04
0.9027,0.0973	-50.29
0.6106,0.3894	-48.10
0.3437,0.6563	-48.39
0.7080,0.2920	-47.54
0.6753,0.3247	-47.56
0.4814,0.5186	-48.09
0.8784,0.1216	-47.90
0.6224,0.3776	-47.63
0.3513,0.6487	-48.97
0.7256,0.2744	-47.54
0.7034,0.2966	-47.54
0.5296,0.4704	-47.88
0.8474,0.1526	-47.75
0.5970,0.4030	-48.07
0.3327,0.6673	-48.45
0.7426,0.2574	-47.54
0.6741,0.3259	-48.28
0.5236,0.4764	-47.91
0.8484,0.1516	-47.75
0.6202,0.3798	-48.12
0.4119,0.5881	-48.13
0.7228,0.2772	-48.50
0.7073,0.2927	-47.54
0.4699,0.5301	-48.02
0.8369,0.1631	-47.71
0.6786,0.3214	-47.55
0.4778,0.5222	-48.02
0.7202,0.2798	-48.48
0.7376,0.2624	-47.54
0.4595,0.5405	-48.04
0.8446,0.1554	-47.74
0.6825,0.3175	-48.32
0.4726,0.5274	-48.02
0.6568,0.3432	-47.57
0.6793,0.3207	-47.55
0.4616,0.5384	-48.03
0.8793,0.1207	-47.90
0.6612,0.3388	-47.57
0.4646,0.5354	-48.03
0.6736,0.3264	-47.56
0.7224,0.2776	-48.49
0.4894,0.5106	-48.05
0.8604,0.1396	-47.81
0.6622,0.3378	-47.57
0.4667,0.5333	-48.16
0.6774,0.3226	-47.55
0.7348,0.2652	-48.56
0.4580,0.5420	-48.04
0.8482,0.1518	-47.75
0.6539,0.3461	-47.58
0.4145,0.5855	-48.47
0.6787,0.3213	-47.55
0.7068,0.2932	-47.54
0.5131,0.4869	-48.00
0.8103,0.1897	-49.09
0.6406,0.3594	-48.17
0.4438,0.5562	-48.06
0.6700,0.3300	-47.56
0.7523,0.2477	-47.55
0.5240,0.4760	-48.00
0.8040,0.1960	-47.62
0.6932,0.3068	-47.54
0.4184,0.5816	-48.12
0.7139,0.2861	-47.54
0.7444,0.2556	-48.61
0.5430,0.4570	-47.84
0.7660,0.2340	-47.56
0.6933,0.3067	-48.36
0.3916,0.6084	-48.63
0.7022,0.2978	-48.40
0.7799,0.2201	-47.58
0.5566,0.4434	-47.79
0.8040,0.1960	-47.62
0.6865,0.3135	-47.55
0.3604,0.6396	-48.31
0.7079,0.2921	-48.42
0.7819,0.2181	-47.58
0.5433,0.4567	-48.01
0.8197,0.1803	-47.66
0.7050,0.2950	-47.54
0.3692,0.6308	-48.27
0.6319,0.3681	-47.61
0.7556,0.2444	-47.55
0.4997,0.5003	-48.00
0.8291,0.1709	-47.69
0.7051,0.2949	-48.41
0.3961,0.6039	-48.18
0.6556,0.3444	-47.58
0.7985,0.2015	-47.61
0.4983,0.5017	-48.00
0.8360,0.1640	-49.34
0.7438,0.2562	-48.61
0.3961,0.6039	-48.18
0.6757,0.3243	-48.29
0.7770,0.2230	-48.82
0.5115,0.4885	-48.00
0.8353,0.1647	-47.71
0.6810,0.3190	-47.55
0.4165,0.5835	-48.12
0.6802,0.3198	-47.55
0.7869,0.2131	-47.59
0.5882,0.4118	-47.70
0.8118,0.1882	-47.64
0.6527,0.3473	-47.58
0.4115,0.5885	-48.13
0.6664,0.3336	-47.56
0.7745,0.2255	-47.57
0.6079,0.3921	-48.10
0.7801,0.2199	-47.58
0.6489,0.3511	-48.20
0.3760,0.6240	-48.75
0.7133,0.2867	-47.54
0.7989,0.2011	-47.61
0.6894,0.3106	-48.34
0.7976,0.2024	-47.61
0.6581,0.3419	-47.57
0.4479,0.5521	-48.26
0.6960,0.3040	-48.37
0.8186,0.1814	-47.66
0.6845,0.3155	-48.32
0.7328,0.2672	-47.54
0.7216,0.2784	-47.54
0.4817,0.5183	-48.01
0.7128,0.2872	-48.45
0.8401,0.1599	-47.72
0.6221,0.3779	-48.13
0.7348,0.2652	-47.54
0.7221,0.2779	-47.54
0.4667,0.5333	-48.16
0.6716,0.3284	-47.56
0.8220,0.1780	-47.67
0.5799,0.4201	-47.72
0.7726,0.2274	-47.57
0.7032,0.2968	-47.54
0.4296,0.5704	-48.37
0.6775,0.3225	-48.30
0.7963,0.2037	-47.61
0.5963,0.4037	-47.68
0.7797,0.2203	-48.84
0.6854,0.3146	-47.55
0.4329,0.5671	-48.08
0.6729,0.3271	-47.56
0.8199,0.1801	-47.66
0.6393,0.3607	-48.17
0.7680,0.2320	-47.56
0.7101,0.2899	-47.54
0.4614,0.5386	-48.03
0.6094,0.3906	-48.10
0.8271,0.1729	-47.68
0.6748,0.3252	-48.29
0.7321,0.2679	-47.54
0.7669,0.2331	-47.56
0.5162,0.4838	-47.93
0.6222,0.3778	-47.63
0.8165,0.1835	-47.65
0.6759,0.3241	-47.56
0.7156,0.2844	-48.46
0.7234,0.2766	-47.54
0.4844,0.5156	-48.01
0.5629,0.4371	-48.02
0.7939,0.2061	-47.60
0.6909,0.3091	-48.35
0.7176,0.2824	-48.47
0.6995,0.3005	-47.54
0.4468,0.5532	-48.06
0.5473,0.4527	-48.01
0.7812,0.2188	-48.85
0.6644,0.3356	-47.57
0.7122,0.2878	-48.44
0.7050,0.2950	-47.54
0.4698,0.5302	-48.02
0.6182,0.3818	-47.64
0.7303,0.2697	-47.54
0.6807,0.3193	-47.55
0.7222,0.2778	-47.54
0.7263,0.2737	-47.54
0.4257,0.5743	-48.40
0.6524,0.3476	-47.58
0.6601,0.3399	-47.57
0.7203,0.2797	-47.54
0.7374,0.2626	-48.57
0.8033,0.1967	-47.62
0.4727,0.5273	-48.02
0.6840,0.3160	-47.55
0.6677,0.3323	-47.56
0.7141,0.2859	-47.54
0.7385,0.2615	-47.54
0.8088,0.1912	-47.63
0.4165,0.5835	-48.12
0.7429,0.2571	-48.60
0.7262,0.2738	-47.54
0.7453,0.2547	-47.54
0.7472,0.2528	-47.55
0.7830,0.2170	-47.58
0.3570,0.6430	-48.33
0.7131,0.2869	-47.54
0.6751,0.3249	-47.56
0.7669,0.2331	-48.75
0.7057,0.2943	-47.54
0.7768,0.2232	-47.57
0.3710,0.6290	-48.27
0.7427,0.2573	-47.54
0.6689,0.3311	-47.56
0.7439,0.2561	-47.54
0.6802,0.3198	-48.31
0.7792,0.2208	-47.58
0.3708,0.6292	-48.27
0.7085,0.2915	-47.54
0.7054,0.2946	-47.54
0.7487,0.2513	-48.64
0.6389,0.3611	-47.60
0.7449,0.2551	-48.62
0.3441,0.6559	-48.39
0.7083,0.2917	-48.42
0.6485,0.3515	-47.59
0.7783,0.2217	-48.83
0.6088,0.3912	-48.10
0.7108,0.2892	-47.54
0.3288,0.6712	-48.47
0.7552,0.2448	-47.55
0.5945,0.4055	-47.69
0.8027,0.1973	-47.62
0.6149,0.3851	-48.11
0.7045,0.2955	-47.54
0.3429,0.6571	-48.40
0.7757,0.2243	-47.57
0.5849,0.4151	-48.05
0.8107,0.1893	-47.64
0.6373,0.3627	-48.17
0.6763,0.3237	-48.29
0.3712,0.6288	-48.27
0.7261,0.2739	-47.54
0.5940,0.4060	-48.07
0.7972,0.2028	-47.61
0.6363,0.3637	-47.60
0.6934,0.3066	-47.54
0.4009,0.5991	-48.16
0.7215,0.2785	-47.54
0.5417,0.4583	-47.84
0.7556,0.2444	-47.55
0.5770,0.4230	-47.73
0.6813,0.3187	-47.55
0.3320,0.6680	-49.15
0.7650,0.2350	-48.74
0.5685,0.4315	-48.03
0.7221,0.2779	-47.54
0.5978,0.4022	-48.08
0.6756,0.3244	-48.29
0.3389,0.6611	-49.08
0.7615,0.2385	-48.72
0.5818,0.4182	-47.72
0.6948,0.3052	-47.54
0.5957,0.4043	-47.68
0.6278,0.3722	-47.62
0.3494,0.6506	-48.98
0.7817,0.2183	-47.58
0.6375,0.3625	-47.60
0.6466,0.3534	-47.59
0.6273,0.3727	-47.62
0.6454,0.3546	-47.59
0.3385,0.6615	-48.42
0.7959,0.2041	-47.61
0.6214,0.3786	-48.13
0.6682,0.3318	-48.26
0.6589,0.3411	-47.57
0.6369,0.3631	-48.16
0.2820,0.7180	-48.79
0.8262,0.1738	-47.68
0.5866,0.4134	-47.71
0.7361,0.2639	-47.54
0.6233,0.3767	-48.13
0.6658,0.3342	-48.25
0.3294,0.6706	-48.47
0.8336,0.1664	-47.70
0.6068,0.3932	-48.09
0.7388,0.2612	-47.54
0.5844,0.4156	-47.71
0.6792,0.3208	-47.55
0.3061,0.6939	-48.61
0.7926,0.2074	-48.94
0.6026,0.3974	-47.67
0.6848,0.3152	-47.55
0.5365,0.4635	-47.86
0.7005,0.2995	-48.39
0.2770,0.7230	-48.83
0.7487,0.2513	-47.55
0.6522,0.3478	-47.58
0.6144,0.3856	-47.64
0.5658,0.4342	-47.76
0.6606,0.3394	-47.57
0.2926,0.7074	-48.71
0.7740,0.2260	-47.57
0.6517,0.3483	-47.58
0.6175,0.3825	-48.12
0.5585,0.4415	-47.79
0.6952,0.3048	-47.54
0.3364,0.6636	-48.43
0.7433,0.2567	-47.54
0.6296,0.3704	-48.15
0.5831,0.4169	-47.72
0.5393,0.4607	-48.01
0.7010,0.2990	-48.39
0.3541,0.6459	-48.94
0.7413,0.2587	-47.54
0.6259,0.3741	-48.14
0.5697,0.4303	-47.75
0.5884,0.4116	-48.06
0.6940,0.3060	-47.54
0.4328,0.5672	-48.08
0.7440,0.2560	-48.61
0.6473,0.3527	-47.59
0.5734,0.4266	-48.04
0.4982,0.5018	-48.01
0.6874,0.3126	-47.55
0.4083,0.5917	-48.14
0.7316,0.2684	-47.54
0.6704,0.3296	-48.27
0.5604,0.4396	-47.78
0.5032,0.4968	-47.99
0.6776,0.3224	-47.55
0.3630,0.6370	-48.86
0.7537,0.2463	-47.55
0.6324,0.3676	-47.61
0.5901,0.4099	-47.70
0.5816,0.4184	-47.72
0.7033,0.2967	-48.40
0.3758,0.6242	-48.25
0.7138,0.2862	-47.54
0.6288,0.3712	-47.62
0.6097,0.3903	-48.10
0.5522,0.4478	-47.81
0.7471,0.2529	-48.63
0.3425,0.6575	-48.40
0.7374,0.2626	-47.54
0.6393,0.3607	-48.17
0.5588,0.4412	-47.78
0.5180,0.4820	-47.93
0.6611,0.3389	-48.24
0.3060,0.6940	-48.61
0.7730,0.2270	-47.57
0.5783,0.4217	-47.73
0.5635,0.4365	-48.03
0.5762,0.4238	-48.04
0.6524,0.3476	-47.58
0.3308,0.6692	-49.16
0.7840,0.2160	-47.59
0.6528,0.3472	-48.21
0.5437,0.4563	-48.01
0.5710,0.4290	-48.03
0.6599,0.3401	-47.57
0.3423,0.6577	-48.40
0.8010,0.1990	-47.62
0.6542,0.3458	-48.22
0.5221,0.4779	-48.00
0.5162,0.4838	-48.00
0.6566,0.3434	-47.58
0.3930,0.6070	-48.19
0.7763,0.2237	-47.57
0.6078,0.3922	-47.66
0.5456,0.4544	-47.83
0.5263,0.4737	-48.00
0.6274,0.3726	-47.62
0.3829,0.6171	-48.22
0.7643,0.2357	-47.56
0.6000,0.4000	-48.08
0.5485,0.4515	-47.82
0.4968,0.5032	-48.00
0.6456,0.3544	-47.59
0.3449,0.6551	-49.03
0.7860,0.2140	-47.59
0.6059,0.3941	-47.66
0.5601,0.4399	-47.78
0.4989,0.5011	-48.00
0.6636,0.3364	-47.57
0.3450,0.6550	-48.38
0.8085,0.1915	-49.07
0.6625,0.3375	-47.57
0.5451,0.4549	-47.83
0.4968,0.5032	-48.02
0.6042,0.3958	-48.09
0.3183,0.6817	-48.53
0.8279,0.1721	-47.68
0.6790,0.3210	-48.30
0.5737,0.4263	-47.74
0.5328,0.4672	-47.87
0.5821,0.4179	-47.72
0.2991,0.7009	-48.66
0.8134,0.1866	-47.64
0.6262,0.3738	-48.14
0.5899,0.4101	-48.06
0.5341,0.4659	-48.00
0.5865,0.4135	-48.06
0.2954,0.7046	-48.69
0.8077,0.1923	-47.63
0.5912,0.4088	-48.06
0.5920,0.4080	-47.69
0.5056,0.4944	-47.98
0.5514,0.4486	-47.81
0.3190,0.6810	-48.53
0.8037,0.1963	-47.62
0.5505,0.4495	-48.01
0.6449,0.3551	-48.19
0.4855,0.5145	-48.07
0.5575,0.4425	-48.02
0.3614,0.6386	-48.31
0.8377,0.1623	-47.72
0.6193,0.3807	-48.12
0.6547,0.3453	-48.22
0.5037,0.4963	-48.00
0.5330,0.4670	-48.00
0.3794,0.6206	-48.24
0.8538,0.1462	-47.78
0.5869,0.4131	-47.71
0.6466,0.3534	-48.19
0.4893,0.5107	-48.01
0.5476,0.4524	-47.82
0.3682,0.6318	-48.82
0.8609,0.1391	-47.81
0.6162,0.3838	-48.11
0.6546,0.3454	-47.58
0.4742,0.5258	-48.12
0.5871,0.4129	-48.06
0.4153,0.5847	-48.12
0.8665,0.1335	-47.83
0.6060,0.3940	-47.66
0.6937,0.3063	-47.54
0.5043,0.4957	-47.98
0.6233,0.3767	-47.63
0.4017,0.5983	-48.16
0.8318,0.1682	-49.29
0.6627,0.3373	-47.57
0.6778,0.3222	-48.30
0.5297,0.4703	-47.88
0.6137,0.3863	-47.64
0.4052,0.5948	-48.53
0.8614,0.1386	-47.81
0.7001,0.2999	-47.54
0.7379,0.2621	-47.54
0.5799,0.4201	-48.05
0.6819,0.3181	-47.55
0.4024,0.5976	-48.55
0.8557,0.1443	-47.78
0.6110,0.3890	-48.10
0.7345,0.2655	-47.54
0.5566,0.4434	-47.79
0.7354,0.2646	-47.54
0.3970,0.6030	-48.18
0.8507,0.1493	-47.76
0.6790,0.3210	-47.55
0.7405,0.2595	-48.59
0.6326,0.3674	-47.61
0.6779,0.3221	-47.55
0.5089,0.4911	-48.00
0.8640,0.1360	-47.82
0.6075,0.3925	-47.66
0.6782,0.3218	-48.30
0.7022,0.2978	-47.54
0.6877,0.3123	-47.55
0.5524,0.4476	-48.02
0.8457,0.1543	-47.74
0.5617,0.4383	-48.02
0.6121,0.3879	-48.10
0.6524,0.3476	-47.58
0.7154,0.2846	-47.54
0.4533,0.5467	-48.05
0.8218,0.1782	-47.67
0.5692,0.4308	-47.75
0.7261,0.2739	-47.54
0.6314,0.3686	-47.61
0.7201,0.2799	-47.54
0.4628,0.5372	-48.03
0.8518,0.1482	-47.77
0.5608,0.4392	-47.78
0.7214,0.2786	-48.49
0.6826,0.3174	-47.55
0.6733,0.3267	-47.56
0.4928,0.5072	-48.01
0.8098,0.1902	-47.64
0.4910,0.5090	-48.04
0.7086,0.2914	-48.43
0.6633,0.3367	-47.57
0.6675,0.3325	-47.56
0.4864,0.5136	-48.06
0.8189,0.1811	-47.66
0.5111,0.4889	-48.00
0.7116,0.2884	-47.54
0.6683,0.3317	-48.26
0.6287,0.3713	-47.62
0.4981,0.5019	-48.00
0.8103,0.1897	-47.64
0.5089,0.4911	-47.96
0.6714,0.3286	-48.27
0.6645,0.3355	-47.57
0.6060,0.3940	-48.09
0.5188,0.4812	-48.00
0.8408,0.1592	-47.73
0.5100,0.4900	-48.00
0.7029,0.2971	-47.54
0.6878,0.3122	-48.34
0.5892,0.4108	-48.06
0.5011,0.4989	-48.00
0.8400,0.1600	-47.72
0.5171,0.4829	-48.00
0.7226,0.2774	-47.54
0.7201,0.2799	-48.48
0.6253,0.3747	-48.13
0.5030,0.4970	-48.00
0.8072,0.1928	-49.06
0.5204,0.4796	-48.00
0.6472,0.3528	-47.59
0.7703,0.2297	-47.57
0.6376,0.3624	-48.17
0.5567,0.4433	-48.02
0.8010,0.1990	-47.62
0.4579,0.5421	-48.04
0.6018,0.3982	-47.67
0.7663,0.2337	-47.56
0.6064,0.3936	-47.66
0.5406,0.4594	-48.01
0.7957,0.2043	-47.61
0.3921,0.6079	-48.19
0.5832,0.4168	-47.72
0.7456,0.2544	-47.54
0.6105,0.3895	-48.10
0.4925,0.5075	-48.01
0.7606,0.2394	-47.56
0.3665,0.6335	-48.83
0.5467,0.4533	-47.82
0.7497,0.2503	-48.64
0.6652,0.3348	-47.57
0.4796,0.5204	-48.10
0.7873,0.2127	-47.59
0.3760,0.6240	-48.25
0.5529,0.4471	-47.80
0.7351,0.2649	-47.54
0.6213,0.3787	-47.63
0.4088,0.5912	-48.14
0.7863,0.2137	-47.59
0.3486,0.6514	-48.37
0.5345,0.4655	-47.87
0.7407,0.2593	-47.54
0.5535,0.4465	-47.80
0.3734,0.6266	-48.78
0.7679,0.2321	-47.56
0.3147,0.6853	-49.33
0.5562,0.4438	-47.79
0.7499,0.2501	-47.55
0.5056,0.4944	-48.00
0.3525,0.6475	-48.35
0.7781,0.2219	-47.58
0.3279,0.6721	-49.19
0.4618,0.5382	-48.03
0.7577,0.2423	-47.55
0.5079,0.4921	-48.00
0.3627,0.6373	-48.30
0.7642,0.2358	-47.56
0.3350,0.6650	-49.12
0.4176,0.5824	-48.45
0.7845,0.2155	-47.59
0.4814,0.5186	-48.01
0.3831,0.6169	-48.70
0.7983,0.2017	-47.61
0.3589,0.6411	-48.90
0.3973,0.6027	-48.17
0.7633,0.2367	-48.73
0.4537,0.5463	-48.23
0.4315,0.5685	-48.09
0.7906,0.2094	-47.60
0.4588,0.5412	-48.04
0.4625,0.5375	-48.18
0.7917,0.2083	-47.60
0.4849,0.5151	-48.01
0.4387,0.5613	-48.07
0.7874,0.2126	-48.90
0.3670,0.6330	-48.28
0.4411,0.5589	-48.07
0.7720,0.2280	-48.79
0.4920,0.5080	-48.04
0.4182,0.5818	-48.12
0.7887,0.2113	-48.91
0.3776,0.6224	-48.74
0.4363,0.5637	-48.33
0.7846,0.2154	-47.59
0.5279,0.4721	-48.00
0.4024,0.5976	-48.16
0.7039,0.2961	-48.40
0.4251,0.5749	-48.40
0.5434,0.4566	-47.83
0.8534,0.1466	-47.78
0.5199,0.4801	-47.92
0.4036,0.5964	-48.55
0.6790,0.3210	-47.55
0.4127,0.5873	-48.13
0.6264,0.3736	-47.62
0.8689,0.1311	-47.85
0.4630,0.5370	-48.18
0.3835,0.6165	-48.22
0.6280,0.3720	-47.62
0.4161,0.5839	-48.46
0.6590,0.3410	-47.57
0.8859,0.1141	-47.94
0.5322,0.4678	-48.00
0.3621,0.6379	-48.30
0.6110,0.3890	-47.65
0.4226,0.5774	-48.42
0.7082,0.2918	-47.54
0.8951,0.1049	-48.00
0.5126,0.4874	-48.00
0.3855,0.6145	-48.68
0.5964,0.4036	-47.68
0.4290,0.5710	-48.09
0.7070,0.2930	-47.54
0.8995,0.1005	-48.04
0.5191,0.4809	-48.00
0.4865,0.5135	-48.06
0.5549,0.4451	-48.02
0.4290,0.5710	-48.09
0.6456,0.3544	-47.59
0.8953,0.1047	-50.15
0.5217,0.4783	-48.00
0.5412,0.4588	-48.01
0.6257,0.3743	-47.62
0.5108,0.4892	-47.96
0.6631,0.3369	-47.57
0.9144,0.0856	-48.16
0.5262,0.4738	-47.90
0.5604,0.4396	-47.78
0.6245,0.3755	-47.62
0.5370,0.4630	-47.86
0.6397,0.3603	-48.17
0.9166,0.0834	-48.18
0.4692,0.5308	-48.15
0.5372,0.4628	-47.86
0.6329,0.3671	-47.61
0.5826,0.4174	-47.72
0.6757,0.3243	-47.56
0.8979,0.1021	-50.20
0.4265,0.5735	-48.10
0.5122,0.4878	-47.95
0.6266,0.3734	-47.62
0.5398,0.4602	-48.01
0.6797,0.3203	-47.55
0.9009,0.0991	-48.05
0.4934,0.5066	-48.03
