#isoforms=['ENSG00000211445.SE.0.A.up_ENSG00000211445.SE.0.A.SE1_ENSG00000211445.SE.0.A.dn','ENSG00000211445.SE.0.B.up_ENSG00000211445.SE.0.B.dn']	exon_lens=('ENSG00000211445.SE.0.A.up',136),('ENSG00000211445.SE.0.A.SE1',426),('ENSG00000211445.SE.0.A.dn',154),('ENSG00000211445.SE.0.B.up',179),('ENSG00000211445.SE.0.B.dn',154)	iters=5000	burn_in=500	lag=10	percent_accept=98.76	proposal_type=drift	counts=(0,0):72,(1,0):1,(1,1):1	assigned_counts=0:2	chrom=chr5	strand=+	mRNA_starts=151020606,151020563	mRNA_ends=151025493,151025493
sampled_psi	log_score
0.7994,0.2006	-13.03
0.4415,0.5585	-13.63
0.5117,0.4883	-13.46
0.4435,0.5565	-13.40
0.3695,0.6305	-13.84
0.5163,0.4837	-13.52
0.8329,0.1671	-12.99
0.4806,0.5194	-13.53
0.5313,0.4687	-13.55
0.4769,0.5231	-13.45
0.3915,0.6085	-13.77
0.5722,0.4278	-13.64
0.8148,0.1852	-14.49
0.4633,0.5367	-13.43
0.6206,0.3794	-13.26
0.4800,0.5200	-13.53
0.3694,0.6306	-13.84
0.6000,0.4000	-13.30
0.8175,0.1825	-14.51
0.4423,0.5577	-13.63
0.6383,0.3617	-13.80
0.4468,0.5532	-13.40
0.3677,0.6323	-13.85
0.6566,0.3434	-13.21
0.8495,0.1505	-12.98
0.4821,0.5179	-13.46
0.6915,0.3085	-13.97
0.4702,0.5298	-13.56
0.2987,0.7013	-14.12
0.6205,0.3795	-13.75
0.9006,0.0994	-12.93
0.4884,0.5116	-13.51
0.6877,0.3123	-13.16
0.4923,0.5077	-13.51
0.3208,0.6792	-13.27
0.6990,0.3010	-13.15
0.8991,0.1009	-12.93
0.4935,0.5065	-13.50
0.7095,0.2905	-14.03
0.5269,0.4731	-13.43
0.3134,0.6866	-13.27
0.6937,0.3063	-13.97
0.9177,0.0823	-12.91
0.4991,0.5009	-13.49
0.6846,0.3154	-13.94
0.5214,0.4786	-13.53
0.3211,0.6789	-13.27
0.6856,0.3144	-13.17
0.9132,0.0868	-12.92
0.5088,0.4912	-13.50
0.6970,0.3030	-13.15
0.5836,0.4164	-13.66
0.3501,0.6499	-13.29
0.6182,0.3818	-13.75
0.9038,0.0962	-12.93
0.5361,0.4639	-13.56
0.6744,0.3256	-13.91
0.5323,0.4677	-13.42
0.3251,0.6749	-14.01
0.6492,0.3508	-13.22
0.8928,0.1072	-12.94
0.5421,0.4579	-13.57
0.6535,0.3465	-13.21
0.5196,0.4804	-13.45
0.3102,0.6898	-13.27
0.5728,0.4272	-13.64
0.8889,0.1111	-15.02
0.5403,0.4597	-13.57
0.7077,0.2923	-13.14
0.4606,0.5394	-13.58
0.2887,0.7113	-13.26
0.5991,0.4009	-13.30
0.8902,0.1098	-12.94
0.5586,0.4414	-13.37
0.7114,0.2886	-13.13
0.4768,0.5232	-13.54
0.2959,0.7041	-13.26
0.5989,0.4011	-13.30
0.8896,0.1104	-12.94
0.5821,0.4179	-13.33
0.7386,0.2614	-13.10
0.4619,0.5381	-13.42
0.2904,0.7096	-13.26
0.5855,0.4145	-13.32
0.8429,0.1571	-12.98
0.5217,0.4783	-13.53
0.7009,0.2991	-14.00
0.4097,0.5903	-13.35
0.2728,0.7272	-13.26
0.5481,0.4519	-13.39
0.8558,0.1442	-12.97
0.4873,0.5127	-13.52
0.7014,0.2986	-14.00
0.4088,0.5912	-13.35
0.2736,0.7264	-14.24
0.5342,0.4658	-13.55
0.8733,0.1267	-12.95
0.4910,0.5090	-13.51
0.7484,0.2516	-13.09
0.4414,0.5586	-13.63
0.2794,0.7206	-13.26
0.5464,0.4536	-13.39
0.8881,0.1119	-12.94
0.4565,0.5435	-13.42
0.7445,0.2555	-13.09
0.4623,0.5377	-13.58
0.2902,0.7098	-14.16
0.5046,0.4954	-13.48
0.8784,0.1216	-12.95
0.4795,0.5205	-13.45
0.7759,0.2241	-13.05
0.4987,0.5013	-13.49
0.2757,0.7243	-13.26
0.5244,0.4756	-13.44
0.8698,0.1302	-12.96
0.4664,0.5336	-13.43
0.7913,0.2087	-13.04
0.4595,0.5405	-13.42
0.2295,0.7705	-13.27
0.5372,0.4628	-13.41
0.8480,0.1520	-12.98
0.5097,0.4903	-13.51
0.8015,0.1985	-13.03
0.4404,0.5596	-13.39
0.2260,0.7740	-14.51
0.5358,0.4642	-13.41
0.8555,0.1445	-12.97
0.5206,0.4794	-13.53
0.8131,0.1869	-13.01
0.4549,0.5451	-13.41
0.2192,0.7808	-13.28
0.5368,0.4632	-13.56
0.8512,0.1488	-12.97
0.6034,0.3966	-13.29
0.7915,0.2085	-13.04
0.4709,0.5291	-13.44
0.2008,0.7992	-14.68
0.5952,0.4048	-13.69
0.8624,0.1376	-14.80
0.5844,0.4156	-13.66
0.7985,0.2015	-13.03
0.4806,0.5194	-13.53
0.1649,0.8351	-13.36
0.6424,0.3576	-13.81
0.8600,0.1400	-12.97
0.5776,0.4224	-13.65
0.8234,0.1766	-13.00
0.3987,0.6013	-13.34
0.1530,0.8470	-13.39
0.6389,0.3611	-13.80
0.8395,0.1605	-14.64
0.5153,0.4847	-13.52
0.8194,0.1806	-14.52
0.4044,0.5956	-13.34
0.1498,0.8502	-13.40
0.6227,0.3773	-13.26
0.8310,0.1690	-12.99
0.4806,0.5194	-13.45
0.8140,0.1860	-13.01
0.4105,0.5895	-13.35
0.1618,0.8382	-13.37
0.6076,0.3924	-13.28
0.8565,0.1435	-12.97
0.4337,0.5663	-13.38
0.7405,0.2595	-13.10
0.3844,0.6156	-13.79
0.1856,0.8144	-13.32
0.5933,0.4067	-13.31
0.8704,0.1296	-12.96
0.4400,0.5600	-13.39
0.6782,0.3218	-13.92
0.4537,0.5463	-13.60
0.2048,0.7952	-14.65
0.5806,0.4194	-13.65
0.8860,0.1140	-12.94
0.4315,0.5685	-13.66
0.6600,0.3400	-13.20
0.4972,0.5028	-13.48
0.2015,0.7985	-13.30
0.5650,0.4350	-13.62
0.8810,0.1190	-12.95
0.4527,0.5473	-13.41
0.6497,0.3503	-13.84
0.4644,0.5356	-13.57
0.1921,0.8079	-13.31
0.5589,0.4411	-13.61
0.8829,0.1171	-12.94
0.4882,0.5118	-13.51
0.6345,0.3655	-13.79
0.4404,0.5596	-13.63
0.1777,0.8223	-13.34
0.5532,0.4468	-13.59
0.8701,0.1299	-14.86
0.5529,0.4471	-13.38
0.6009,0.3991	-13.29
0.4419,0.5581	-13.63
0.1628,0.8372	-15.01
0.5810,0.4190	-13.33
0.8553,0.1447	-12.97
0.5312,0.4688	-13.42
0.6039,0.3961	-13.29
0.4008,0.5992	-13.74
0.1547,0.8453	-13.39
0.5904,0.4096	-13.31
0.8624,0.1376	-12.96
0.5518,0.4482	-13.59
0.5487,0.4513	-13.58
0.4231,0.5769	-13.37
0.1456,0.8544	-13.42
0.5641,0.4359	-13.36
0.8898,0.1102	-12.94
0.4956,0.5044	-13.48
0.5735,0.4265	-13.64
0.4298,0.5702	-13.38
0.1507,0.8493	-13.40
0.6383,0.3617	-13.80
0.8712,0.1288	-12.96
0.4559,0.5441	-13.59
0.5332,0.4668	-13.42
0.5101,0.4899	-13.51
0.1488,0.8512	-13.41
0.7271,0.2729	-13.11
0.8728,0.1272	-12.95
0.5115,0.4885	-13.51
0.4861,0.5139	-13.52
0.5114,0.4886	-13.51
0.1690,0.8310	-13.36
0.7712,0.2288	-13.06
0.8529,0.1471	-12.97
0.4902,0.5098	-13.47
0.5348,0.4652	-13.55
0.6166,0.3834	-13.27
0.1819,0.8181	-13.33
0.7752,0.2248	-13.05
0.8908,0.1092	-12.94
0.5292,0.4708	-13.54
0.5854,0.4146	-13.32
0.6609,0.3391	-13.20
0.2061,0.7939	-13.30
0.7482,0.2518	-13.09
0.8777,0.1223	-12.95
0.5408,0.4592	-13.57
0.5958,0.4042	-13.30
0.6756,0.3244	-13.18
0.1915,0.8085	-14.76
0.7079,0.2921	-13.14
0.8873,0.1127	-12.94
0.5404,0.4596	-13.57
0.5536,0.4464	-13.38
0.6575,0.3425	-13.21
0.1953,0.8047	-13.31
0.7490,0.2510	-13.09
0.8860,0.1140	-12.94
0.5656,0.4344	-13.36
0.5636,0.4364	-13.62
0.6426,0.3574	-13.81
0.1631,0.8369	-13.37
0.7927,0.2073	-13.04
0.8851,0.1149	-12.94
0.5457,0.4543	-13.39
0.5653,0.4347	-13.62
0.6326,0.3674	-13.79
0.1634,0.8366	-13.37
0.7907,0.2093	-13.04
0.8755,0.1245	-12.95
0.5123,0.4877	-13.46
0.5735,0.4265	-13.34
0.6699,0.3301	-13.19
0.1566,0.8434	-13.38
0.7962,0.2038	-13.03
0.8752,0.1248	-12.95
0.4638,0.5362	-13.43
0.5780,0.4220	-13.65
0.6658,0.3342	-13.88
0.1605,0.8395	-13.37
0.7724,0.2276	-13.06
0.8528,0.1472	-14.73
0.4627,0.5373	-13.43
0.6301,0.3699	-13.78
0.6602,0.3398	-13.87
0.1923,0.8077	-13.31
0.8119,0.1881	-13.01
0.8176,0.1824	-13.01
0.4125,0.5875	-13.35
0.6374,0.3626	-13.24
0.6936,0.3064	-13.16
0.2283,0.7717	-13.28
0.8016,0.1984	-13.03
0.8450,0.1550	-12.98
0.4170,0.5830	-13.36
0.6172,0.3828	-13.75
0.7650,0.2350	-13.07
0.2283,0.7717	-13.28
0.7666,0.2334	-14.25
0.8430,0.1570	-12.98
0.4978,0.5022	-13.49
0.6090,0.3910	-13.28
0.7685,0.2315	-13.06
0.2273,0.7727	-14.50
0.7320,0.2680	-13.11
0.8422,0.1578	-12.98
0.4984,0.5016	-13.49
0.6436,0.3564	-13.23
0.7874,0.2126	-13.04
0.2498,0.7502	-13.26
0.7508,0.2492	-13.08
0.8631,0.1369	-12.96
0.4857,0.5143	-13.46
0.6580,0.3420	-13.86
0.7610,0.2390	-13.07
0.2460,0.7540	-14.39
0.7784,0.2216	-14.31
0.8508,0.1492	-12.97
0.5124,0.4876	-13.51
0.6970,0.3030	-13.15
0.8328,0.1672	-12.99
0.2656,0.7344	-13.26
0.7681,0.2319	-13.06
0.8323,0.1677	-12.99
0.4951,0.5049	-13.50
0.6581,0.3419	-13.21
0.7930,0.2070	-13.03
0.2754,0.7246	-13.26
0.7207,0.2793	-14.07
0.8656,0.1344	-14.82
0.5652,0.4348	-13.36
0.6358,0.3642	-13.24
0.8021,0.1979	-14.42
0.2652,0.7348	-13.26
0.7230,0.2770	-13.12
0.8582,0.1418	-14.77
0.5726,0.4274	-13.64
0.6787,0.3213	-13.18
0.8101,0.1899	-13.02
0.2662,0.7338	-14.28
0.7335,0.2665	-13.10
0.8295,0.1705	-13.00
0.6075,0.3925	-13.28
0.6915,0.3085	-13.16
0.8135,0.1865	-13.01
0.2891,0.7109	-13.26
0.7037,0.2963	-14.01
0.8557,0.1443	-12.97
0.5701,0.4299	-13.63
0.6871,0.3129	-13.95
0.8212,0.1788	-13.00
0.2511,0.7489	-13.26
0.7224,0.2776	-13.12
0.8747,0.1253	-12.95
0.5980,0.4020	-13.30
0.7180,0.2820	-13.12
0.8344,0.1656	-12.99
0.2268,0.7732	-13.28
0.7255,0.2745	-14.09
0.8636,0.1364	-12.96
0.5260,0.4740	-13.43
0.6880,0.3120	-13.16
0.8225,0.1775	-13.00
0.2624,0.7376	-13.26
0.7465,0.2535	-13.09
0.8625,0.1375	-14.80
0.5494,0.4506	-13.39
0.6633,0.3367	-13.20
0.8110,0.1890	-13.02
0.3244,0.6756	-13.27
0.7446,0.2554	-13.09
0.8656,0.1344	-12.96
0.4973,0.5027	-13.48
0.6550,0.3450	-13.85
0.8459,0.1541	-12.98
0.3608,0.6392	-13.87
0.7475,0.2525	-14.17
0.8810,0.1190	-12.95
0.4955,0.5045	-13.48
0.6024,0.3976	-13.71
0.8392,0.1608	-12.99
0.4162,0.5838	-13.36
0.7561,0.2439	-13.08
0.8720,0.1280	-12.95
0.5196,0.4804	-13.52
0.5556,0.4444	-13.38
0.8360,0.1640	-12.99
0.3823,0.6177	-13.32
0.7741,0.2259	-13.06
0.8702,0.1298	-12.96
0.5435,0.4565	-13.57
0.5211,0.4789	-13.53
0.8343,0.1657	-12.99
0.4313,0.5687	-13.66
0.7285,0.2715	-13.11
0.8668,0.1332	-12.96
0.5635,0.4365	-13.36
0.4842,0.5158	-13.46
0.8562,0.1438	-12.97
0.4012,0.5988	-13.34
0.7474,0.2526	-13.09
0.8957,0.1043	-12.93
0.5957,0.4043	-13.69
0.4301,0.5699	-13.38
0.8062,0.1938	-14.45
0.3995,0.6005	-13.34
0.7694,0.2306	-14.27
0.8635,0.1365	-12.96
0.5704,0.4296	-13.63
0.4398,0.5602	-13.39
0.8003,0.1997	-13.03
0.3303,0.6697	-13.98
0.7856,0.2144	-14.34
0.8643,0.1357	-12.96
0.5110,0.4890	-13.46
0.4598,0.5402	-13.58
0.8113,0.1887	-13.02
0.2730,0.7270	-13.26
0.8102,0.1898	-13.02
0.8249,0.1751	-13.00
0.4408,0.5592	-13.63
0.4683,0.5317	-13.56
0.8213,0.1787	-13.00
0.2651,0.7349	-13.26
0.7918,0.2082	-14.37
0.8384,0.1616	-12.99
0.4536,0.5464	-13.41
0.4746,0.5254	-13.44
0.8412,0.1588	-12.98
0.2773,0.7227	-13.26
0.7850,0.2150	-13.04
0.7870,0.2130	-13.04
0.5099,0.4901	-13.51
0.5077,0.4923	-13.47
0.7962,0.2038	-13.03
0.2653,0.7347	-13.26
0.8038,0.1962	-13.02
0.7660,0.2340	-14.25
0.5187,0.4813	-13.45
0.4874,0.5126	-13.47
0.7648,0.2352	-14.25
0.2657,0.7343	-13.26
0.8011,0.1989	-13.03
0.7570,0.2430	-14.21
0.5288,0.4712	-13.54
0.4164,0.5836	-13.36
0.7812,0.2188	-14.32
0.3082,0.6918	-13.27
0.8177,0.1823	-13.01
0.7927,0.2073	-14.38
0.5294,0.4706	-13.54
0.3952,0.6048	-13.33
0.7608,0.2392	-13.07
0.3042,0.6958	-13.27
0.7900,0.2100	-13.04
0.7774,0.2226	-13.05
0.5754,0.4246	-13.64
0.4316,0.5684	-13.65
0.7573,0.2427	-13.08
0.2706,0.7294	-14.25
0.7552,0.2448	-13.08
0.8147,0.1853	-13.01
0.5706,0.4294	-13.63
0.4229,0.5771	-13.37
0.7787,0.2213	-13.05
0.2975,0.7025	-14.12
0.7372,0.2628	-13.10
0.8174,0.1826	-13.01
0.6160,0.3840	-13.27
0.4106,0.5894	-13.35
0.7729,0.2271	-14.28
0.2868,0.7132	-14.17
0.7467,0.2533	-13.09
0.7979,0.2021	-13.03
0.5723,0.4277	-13.64
0.4242,0.5758	-13.37
0.7738,0.2262	-13.06
0.3215,0.6785	-13.27
0.7300,0.2700	-13.11
0.7954,0.2046	-13.03
0.6088,0.3912	-13.72
0.4098,0.5902	-13.72
0.7727,0.2273	-13.06
0.2903,0.7097	-13.26
0.7555,0.2445	-13.08
0.7785,0.2215	-13.05
0.6551,0.3449	-13.21
0.3888,0.6112	-13.33
0.7925,0.2075	-13.04
0.4087,0.5913	-13.35
0.7873,0.2127	-13.04
0.7853,0.2147	-13.04
0.6403,0.3597	-13.23
0.3406,0.6594	-13.28
0.7699,0.2301	-13.06
0.4257,0.5743	-13.67
0.7617,0.2383	-14.23
0.7814,0.2186	-14.32
0.6478,0.3522	-13.83
0.3046,0.6954	-13.27
0.7977,0.2023	-13.03
0.4232,0.5768	-13.37
0.7583,0.2417	-13.07
0.7763,0.2237	-13.05
0.6511,0.3489	-13.22
0.3148,0.6852	-13.27
0.7748,0.2252	-13.06
0.3895,0.6105	-13.33
0.7706,0.2294	-13.06
0.7865,0.2135	-14.35
0.6457,0.3543	-13.82
0.3972,0.6028	-13.75
0.7797,0.2203	-13.05
0.3443,0.6557	-13.29
0.7719,0.2281	-13.06
0.7984,0.2016	-14.41
0.6675,0.3325	-13.19
0.3445,0.6555	-13.93
0.7894,0.2106	-13.04
0.3501,0.6499	-13.29
0.7762,0.2238	-13.05
0.8249,0.1751	-13.00
0.6620,0.3380	-13.87
0.3687,0.6313	-13.31
0.7827,0.2173	-14.33
0.3841,0.6159	-13.79
0.8028,0.1972	-13.02
0.8015,0.1985	-14.42
0.6374,0.3626	-13.24
0.3292,0.6708	-13.28
0.7115,0.2885	-13.13
0.3816,0.6184	-13.80
0.7509,0.2491	-14.19
0.8022,0.1978	-13.02
0.6329,0.3671	-13.24
0.3265,0.6735	-14.00
0.7171,0.2829	-13.12
0.3901,0.6099	-13.78
0.7250,0.2750	-14.08
0.7813,0.2187	-14.32
0.5663,0.4337	-13.36
0.3060,0.6940	-13.27
0.6829,0.3171	-13.17
0.3569,0.6431	-13.89
0.7380,0.2620	-13.10
0.7969,0.2031	-13.03
0.6311,0.3689	-13.25
0.3122,0.6878	-14.06
0.7095,0.2905	-14.03
0.4050,0.5950	-13.35
0.7282,0.2718	-13.11
0.7908,0.2092	-14.37
0.6243,0.3757	-13.26
0.3683,0.6317	-13.31
0.6890,0.3110	-13.16
0.3706,0.6294	-13.31
0.6958,0.3042	-13.98
0.7649,0.2351	-13.07
0.6394,0.3606	-13.81
0.4116,0.5884	-13.35
0.7547,0.2453	-14.20
0.4097,0.5903	-13.72
0.6423,0.3577	-13.23
0.7675,0.2325	-14.26
0.6563,0.3437	-13.21
0.3871,0.6129	-13.78
0.7378,0.2622	-13.10
0.4519,0.5481	-13.41
0.5380,0.4620	-13.56
0.7883,0.2117	-13.04
0.6261,0.3739	-13.77
0.4023,0.5977	-13.74
0.7565,0.2435	-13.08
0.4204,0.5796	-13.36
0.5144,0.4856	-13.46
0.8016,0.1984	-13.03
0.6351,0.3649	-13.79
0.4122,0.5878	-13.35
0.7575,0.2425	-13.08
0.4811,0.5189	-13.46
0.5376,0.4624	-13.41
0.7612,0.2388	-13.07
0.6364,0.3636	-13.24
0.4112,0.5888	-13.35
0.7440,0.2560	-13.09
0.5164,0.4836	-13.52
0.5454,0.4546	-13.58
0.7697,0.2303	-14.27
0.5818,0.4182	-13.33
0.4497,0.5503	-13.41
0.7171,0.2829	-14.05
0.5558,0.4442	-13.60
0.5387,0.4613	-13.41
0.7622,0.2378	-13.07
0.6398,0.3602	-13.23
0.4368,0.5632	-13.39
0.6712,0.3288	-13.90
0.6297,0.3703	-13.25
0.5118,0.4882	-13.46
0.7785,0.2215	-13.05
0.5989,0.4011	-13.30
0.5522,0.4478	-13.59
0.6637,0.3363	-13.20
0.5723,0.4277	-13.34
0.5332,0.4668	-13.55
0.7755,0.2245	-13.05
0.5576,0.4424	-13.37
0.5350,0.4650	-13.56
0.6916,0.3084	-13.16
0.6065,0.3935	-13.29
0.5773,0.4227	-13.65
0.7773,0.2227	-13.05
0.5912,0.4088	-13.31
0.5790,0.4210	-13.33
0.7063,0.2937	-14.02
0.5602,0.4398	-13.37
0.5462,0.4538	-13.58
0.7636,0.2364	-14.24
0.5846,0.4154	-13.32
0.6306,0.3694	-13.25
0.7384,0.2616	-13.10
0.5791,0.4209	-13.33
0.4954,0.5046	-13.48
0.7598,0.2402	-13.07
0.6258,0.3742	-13.77
0.6678,0.3322	-13.19
0.7227,0.2773	-14.08
0.6226,0.3774	-13.26
0.5546,0.4454	-13.38
0.7351,0.2649	-14.12
0.6262,0.3738	-13.25
0.6240,0.3760	-13.76
0.7285,0.2715	-13.11
0.6283,0.3717	-13.25
0.5054,0.4946	-13.50
0.7564,0.2436	-13.08
0.6108,0.3892	-13.28
0.5932,0.4068	-13.31
0.7125,0.2875	-13.13
0.6534,0.3466	-13.85
0.4630,0.5370	-13.43
0.7280,0.2720	-13.11
0.6236,0.3764	-13.26
0.6544,0.3456	-13.21
0.7245,0.2755	-13.12
0.6262,0.3738	-13.77
0.4164,0.5836	-13.70
0.7373,0.2627	-13.10
0.6317,0.3683	-13.78
0.5963,0.4037	-13.69
0.7199,0.2801	-14.07
0.6501,0.3499	-13.22
0.4550,0.5450	-13.59
0.7126,0.2874	-14.04
0.6478,0.3522	-13.83
0.5934,0.4066	-13.31
0.7489,0.2511	-13.09
0.6661,0.3339	-13.19
0.4732,0.5268	-13.44
0.7598,0.2402	-14.22
0.6579,0.3421	-13.86
0.5855,0.4145	-13.67
0.7088,0.2912	-14.03
0.6301,0.3699	-13.78
0.4992,0.5008	-13.49
0.8072,0.1928	-13.02
0.7173,0.2827	-13.12
0.6331,0.3669	-13.24
0.6015,0.3985	-13.29
0.6584,0.3416	-13.86
0.5364,0.4636	-13.41
0.7723,0.2277	-13.06
0.7511,0.2489	-13.08
0.6708,0.3292	-13.19
0.6733,0.3267	-13.18
0.6420,0.3580	-13.81
0.5526,0.4474	-13.59
0.7723,0.2277	-13.06
0.7383,0.2617	-13.10
0.6495,0.3505	-13.22
0.6812,0.3188	-13.17
0.6567,0.3433	-13.21
0.6178,0.3822	-13.27
0.7842,0.2158	-13.04
0.8186,0.1814	-13.01
0.6211,0.3789	-13.26
0.6873,0.3127	-13.16
0.6320,0.3680	-13.79
0.5827,0.4173	-13.66
0.7803,0.2197	-13.05
0.8253,0.1747	-13.00
0.6167,0.3833	-13.27
0.6781,0.3219	-13.18
0.6403,0.3597	-13.81
0.6241,0.3759	-13.26
0.7733,0.2267	-14.28
0.8475,0.1525	-12.98
0.6239,0.3761	-13.76
0.6504,0.3496	-13.22
0.6242,0.3758	-13.76
0.6299,0.3701	-13.25
0.7819,0.2181	-13.05
0.8667,0.1333	-12.96
0.6099,0.3901	-13.28
0.6254,0.3746	-13.25
0.6323,0.3677	-13.79
0.5851,0.4149	-13.67
0.7196,0.2804	-13.12
0.8667,0.1333	-12.96
0.6113,0.3887	-13.28
0.6193,0.3807	-13.75
0.6737,0.3263	-13.91
0.5648,0.4352	-13.62
0.7469,0.2531	-13.09
0.8638,0.1362	-12.96
0.6083,0.3917	-13.28
0.5671,0.4329	-13.35
0.6725,0.3275	-13.18
0.5683,0.4317	-13.35
0.7563,0.2437	-13.08
0.8623,0.1377	-12.96
0.6121,0.3879	-13.28
0.5601,0.4399	-13.37
0.6591,0.3409	-13.86
0.5707,0.4293	-13.35
0.7777,0.2223	-14.30
0.8684,0.1316	-12.96
0.5407,0.4593	-13.40
0.5596,0.4404	-13.61
0.6847,0.3153	-13.17
0.5775,0.4225	-13.65
0.7936,0.2064	-13.03
0.8611,0.1389	-12.96
0.5620,0.4380	-13.61
0.6469,0.3531	-13.22
0.6676,0.3324	-13.89
0.6226,0.3774	-13.26
0.8066,0.1934	-13.02
0.8461,0.1539	-12.98
0.5442,0.4558	-13.40
0.5757,0.4243	-13.34
0.7098,0.2902	-13.13
0.6307,0.3693	-13.25
0.7962,0.2038	-14.39
0.8703,0.1297	-12.96
0.5359,0.4641	-13.41
0.5755,0.4245	-13.64
0.7348,0.2652	-13.10
0.5987,0.4013	-13.30
0.8494,0.1506	-12.98
0.8913,0.1087	-12.94
0.5235,0.4765	-13.53
0.5535,0.4465	-13.59
0.7155,0.2845	-13.13
0.6630,0.3370	-13.87
0.8381,0.1619	-12.99
0.8768,0.1232	-14.91
0.4898,0.5102	-13.47
0.5244,0.4756	-13.53
0.7355,0.2645	-13.10
0.6459,0.3541	-13.82
0.7693,0.2307	-13.06
0.8540,0.1460	-12.97
0.4550,0.5450	-13.41
0.5131,0.4869	-13.51
0.8162,0.1838	-13.01
0.6295,0.3705	-13.25
0.7034,0.2966	-14.01
0.8164,0.1836	-13.01
0.4494,0.5506	-13.61
0.5316,0.4684	-13.42
0.7651,0.2349	-13.07
0.6655,0.3345	-13.19
0.7021,0.2979	-14.00
0.7409,0.2591	-13.09
0.4531,0.5469	-13.41
0.5303,0.4697	-13.55
0.8061,0.1939	-13.02
0.6453,0.3547	-13.22
0.7183,0.2817	-14.06
0.7739,0.2261	-14.29
0.4695,0.5305	-13.44
0.4960,0.5040	-13.50
0.8413,0.1587	-12.98
0.5889,0.4111	-13.32
0.6930,0.3070	-13.97
0.8027,0.1973	-13.02
0.5141,0.4859	-13.46
0.4800,0.5200	-13.45
0.8416,0.1584	-12.98
0.5815,0.4185	-13.66
0.7124,0.2876	-13.13
0.8163,0.1837	-13.01
0.4836,0.5164	-13.46
0.4630,0.5370	-13.43
0.8507,0.1493	-12.98
0.5833,0.4167	-13.32
0.6901,0.3099	-13.96
0.8074,0.1926	-13.02
0.5163,0.4837	-13.52
0.5117,0.4883	-13.51
0.8521,0.1479	-12.97
0.5743,0.4257	-13.64
0.7078,0.2922	-14.02
0.8089,0.1911	-13.02
0.4494,0.5506	-13.61
0.5440,0.4560	-13.40
0.8729,0.1271	-12.95
0.5442,0.4558	-13.57
0.7185,0.2815	-13.12
0.8296,0.1704	-13.00
0.5141,0.4859	-13.46
0.5363,0.4637	-13.41
0.8863,0.1137	-14.99
0.5001,0.4999	-13.49
0.7487,0.2513	-13.09
0.7987,0.2013	-13.03
0.4916,0.5084	-13.47
0.5760,0.4240	-13.34
0.8779,0.1221	-12.95
0.4909,0.5091	-13.47
0.7500,0.2500	-14.18
0.7919,0.2081	-13.04
0.5199,0.4801	-13.53
0.5647,0.4353	-13.36
0.8660,0.1340	-12.96
0.4418,0.5582	-13.63
0.7163,0.2837	-13.13
0.7877,0.2123	-13.04
0.4518,0.5482	-13.41
0.5830,0.4170	-13.66
0.8598,0.1402	-12.97
0.3970,0.6030	-13.34
0.6904,0.3096	-13.16
0.7939,0.2061	-14.38
0.4771,0.5229	-13.54
0.6130,0.3870	-13.27
0.8778,0.1222	-12.95
0.3939,0.6061	-13.76
0.6795,0.3205	-13.17
0.7734,0.2266	-14.28
0.4465,0.5535	-13.62
0.6013,0.3987	-13.70
0.8940,0.1060	-12.93
0.4147,0.5853	-13.36
0.6560,0.3440	-13.85
0.7865,0.2135	-13.04
0.4253,0.5747	-13.37
0.5896,0.4104	-13.68
0.8869,0.1131	-12.94
0.3912,0.6088	-13.33
0.6553,0.3447	-13.21
0.7894,0.2106	-13.04
0.3945,0.6055	-13.33
0.5862,0.4138	-13.32
0.8915,0.1085	-12.94
0.3872,0.6128	-13.78
0.7080,0.2920	-13.14
0.7820,0.2180	-13.05
0.4206,0.5794	-13.69
0.5685,0.4315	-13.35
0.8610,0.1390	-14.79
0.3731,0.6269	-13.83
0.7438,0.2562	-13.09
0.7646,0.2354	-13.07
0.4835,0.5165	-13.53
0.5273,0.4727	-13.43
0.8608,0.1392	-12.97
0.3588,0.6412	-13.30
0.7590,0.2410	-13.07
0.7528,0.2472	-14.19
0.4336,0.5664	-13.65
0.6170,0.3830	-13.75
0.8601,0.1399	-14.78
0.3573,0.6427	-13.30
0.7354,0.2646	-13.10
0.7728,0.2272	-13.06
0.4571,0.5429	-13.42
0.6388,0.3612	-13.23
0.8534,0.1466	-12.97
0.4334,0.5666	-13.38
0.6963,0.3037	-13.98
0.7962,0.2038	-13.03
0.5364,0.4636	-13.56
0.5651,0.4349	-13.62
0.8720,0.1280	-12.95
0.4509,0.5491	-13.41
0.7017,0.2983	-14.00
0.7530,0.2470	-13.08
0.5872,0.4128	-13.32
0.5197,0.4803	-13.52
0.8453,0.1547	-12.98
0.5067,0.4933	-13.47
0.7136,0.2864	-14.04
0.7521,0.2479	-14.19
0.5811,0.4189	-13.66
0.5879,0.4121	-13.67
0.8183,0.1817	-13.01
0.4968,0.5032	-13.50
0.6799,0.3201	-13.93
0.7493,0.2507	-14.18
0.6070,0.3930	-13.72
0.6341,0.3659	-13.24
0.7829,0.2171	-13.05
0.5349,0.4651	-13.56
0.7229,0.2771	-13.12
0.7541,0.2459	-13.08
0.6053,0.3947	-13.29
0.5903,0.4097	-13.68
0.7921,0.2079	-13.04
0.5457,0.4543	-13.58
0.7891,0.2109	-13.04
0.7468,0.2532	-13.09
0.6365,0.3635	-13.24
0.5146,0.4854	-13.52
0.7469,0.2531	-13.09
0.5664,0.4336	-13.36
0.7737,0.2263	-14.29
0.7266,0.2734	-13.11
0.5538,0.4462	-13.59
0.4459,0.5541	-13.62
0.7452,0.2548	-13.09
0.6156,0.3844	-13.74
0.8103,0.1897	-13.02
0.7388,0.2612	-13.10
0.5540,0.4460	-13.59
0.4968,0.5032	-13.50
0.7179,0.2821	-13.12
0.6224,0.3776	-13.76
0.8190,0.1810	-13.01
0.7655,0.2345	-14.25
0.5470,0.4530	-13.39
0.5282,0.4718	-13.43
0.6798,0.3202	-13.17
0.6547,0.3453	-13.21
0.8200,0.1800	-14.52
0.7367,0.2633	-14.13
0.5285,0.4715	-13.43
0.5474,0.4526	-13.39
0.6677,0.3323	-13.19
0.6647,0.3353	-13.88
0.8241,0.1759	-13.00
0.7408,0.2592	-14.15
0.5134,0.4866	-13.51
0.5483,0.4517	-13.58
0.6638,0.3362	-13.88
0.6132,0.3868	-13.27
0.8150,0.1850	-14.49
0.7360,0.2640	-13.10
0.4957,0.5043	-13.50
0.5997,0.4003	-13.70
0.7375,0.2625	-13.10
0.6131,0.3869	-13.27
0.7866,0.2134	-13.04
0.7331,0.2669	-13.10
0.5355,0.4645	-13.41
0.6371,0.3629	-13.80
0.7484,0.2516	-14.18
0.6151,0.3849	-13.27
0.8254,0.1746	-13.00
0.6741,0.3259	-13.18
0.5306,0.4694	-13.42
0.6336,0.3664	-13.24
0.7274,0.2726	-13.11
0.6642,0.3358	-13.20
0.7967,0.2033	-13.03
0.6822,0.3178	-13.17
0.4233,0.5767	-13.37
0.6061,0.3939	-13.29
0.7346,0.2654	-14.12
0.7082,0.2918	-14.02
0.7378,0.2622	-14.13
0.6441,0.3559	-13.23
0.4071,0.5929	-13.35
0.5827,0.4173	-13.33
0.7382,0.2618	-13.10
0.6853,0.3147	-13.17
0.7809,0.2191	-14.32
0.6256,0.3744	-13.25
0.3814,0.6186	-13.80
0.5933,0.4067	-13.69
0.7233,0.2767	-13.12
0.6526,0.3474	-13.84
0.7840,0.2160	-13.04
0.6405,0.3595	-13.23
0.4202,0.5798	-13.36
0.5751,0.4249	-13.34
0.7618,0.2382	-13.07
0.6943,0.3057	-13.15
0.7990,0.2010	-13.03
0.6343,0.3657	-13.79
0.4554,0.5446	-13.59
0.5485,0.4515	-13.39
0.7458,0.2542	-13.09
0.6599,0.3401	-13.20
0.8184,0.1816	-14.51
0.6322,0.3678	-13.79
0.4257,0.5743	-13.67
0.5983,0.4017	-13.70
0.6907,0.3093	-13.96
0.6423,0.3577	-13.23
0.8088,0.1912	-14.46
0.6515,0.3485	-13.22
0.4551,0.5449	-13.59
0.6125,0.3875	-13.73
0.6909,0.3091	-13.96
0.6501,0.3499	-13.84
0.8106,0.1894	-13.02
0.6758,0.3242	-13.91
0.4403,0.5597	-13.39
0.5923,0.4077	-13.31
0.6989,0.3011	-13.15
0.6715,0.3285	-13.19
0.7862,0.2138	-13.04
0.6883,0.3117	-13.96
0.4729,0.5271	-13.55
0.5555,0.4445	-13.60
0.7193,0.2807	-14.06
0.6572,0.3428	-13.86
0.7911,0.2089	-13.04
0.6733,0.3267	-13.91
0.5566,0.4434	-13.37
0.4456,0.5544	-13.40
0.7285,0.2715	-13.11
0.6857,0.3143	-13.17
0.7880,0.2120	-14.35
0.6878,0.3122	-13.16
0.6070,0.3930	-13.28
0.4565,0.5435	-13.42
0.7893,0.2107	-13.04
0.6623,0.3377	-13.20
0.8084,0.1916	-13.02
0.6495,0.3505	-13.83
0.6393,0.3607	-13.81
0.4569,0.5431	-13.59
0.7790,0.2210	-14.31
0.6569,0.3431	-13.86
0.7781,0.2219	-14.31
0.6857,0.3143	-13.17
0.6597,0.3403	-13.86
0.4875,0.5125	-13.47
0.8132,0.1868	-14.48
0.6619,0.3381	-13.20
0.7405,0.2595	-13.10
0.7286,0.2714	-13.11
0.5457,0.4543	-13.39
0.4479,0.5521	-13.61
0.8638,0.1362	-12.96
0.6805,0.3195	-13.17
0.7359,0.2641	-13.10
0.7514,0.2486	-14.19
0.5689,0.4311	-13.35
0.4956,0.5044	-13.48
0.8963,0.1037	-12.93
0.6682,0.3318	-13.19
0.7625,0.2375	-14.24
0.7837,0.2163	-13.05
0.5791,0.4209	-13.33
0.5371,0.4629	-13.41
0.8829,0.1171	-12.94
0.6259,0.3741	-13.25
0.7758,0.2242	-13.05
0.7930,0.2070	-14.38
0.6198,0.3802	-13.75
0.6015,0.3985	-13.29
0.8783,0.1217	-12.95
0.6433,0.3567	-13.82
0.7673,0.2327	-13.06
0.8337,0.1663	-12.99
0.5780,0.4220	-13.65
0.5960,0.4040	-13.69
0.9034,0.0966	-15.16
0.5863,0.4137	-13.32
0.7813,0.2187	-14.32
0.8756,0.1244	-12.95
0.5891,0.4109	-13.31
0.6830,0.3170	-13.17
0.8917,0.1083	-12.94
0.5609,0.4391	-13.61
0.7621,0.2379	-14.23
0.8838,0.1162	-12.94
0.5953,0.4047	-13.69
0.7058,0.2942	-13.14
0.8757,0.1243	-14.90
0.6084,0.3916	-13.72
0.7400,0.2600	-13.10
0.8703,0.1297	-12.96
0.5918,0.4082	-13.31
0.6966,0.3034	-13.15
0.8672,0.1328	-12.96
0.6038,0.3962	-13.71
0.7164,0.2836	-14.05
0.8679,0.1321	-12.96
0.6057,0.3943	-13.29
0.7055,0.2945	-13.14
0.8397,0.1603	-12.99
0.6047,0.3953	-13.71
0.7274,0.2726	-13.11
0.8632,0.1368	-12.96
0.5785,0.4215	-13.33
0.6585,0.3415	-13.20
0.8429,0.1571	-12.98
0.5075,0.4925	-13.47
0.6963,0.3037	-13.15
0.8537,0.1463	-12.97
0.6230,0.3770	-13.76
0.6490,0.3510	-13.22
0.8103,0.1897	-13.02
0.5082,0.4918	-13.47
0.6621,0.3379	-13.20
0.8743,0.1257	-12.95
0.6429,0.3571	-13.23
0.6539,0.3461	-13.85
0.7966,0.2034	-14.40
0.5229,0.4771	-13.53
0.6268,0.3732	-13.25
0.8808,0.1192	-12.95
0.6896,0.3104	-13.16
0.6523,0.3477	-13.84
0.7847,0.2153	-13.04
0.5360,0.4640	-13.56
0.6503,0.3497	-13.22
0.8876,0.1124	-12.94
0.7112,0.2888	-13.13
0.6666,0.3334	-13.89
0.7924,0.2076	-13.04
0.5562,0.4438	-13.37
0.6540,0.3460	-13.21
0.8980,0.1020	-12.93
0.6527,0.3473	-13.21
0.6347,0.3653	-13.79
0.8132,0.1868	-13.01
0.5429,0.4571	-13.57
0.6422,0.3578	-13.23
0.8977,0.1023	-12.93
0.7075,0.2925	-14.02
0.5848,0.4152	-13.32
0.7963,0.2037	-13.03
0.4653,0.5347	-13.43
0.6677,0.3323	-13.19
0.8895,0.1105	-12.94
0.7295,0.2705	-13.11
0.5688,0.4312	-13.35
0.8155,0.1845	-13.01
0.4364,0.5636	-13.64
0.6110,0.3890	-13.73
0.8869,0.1131	-12.94
0.6655,0.3345	-13.19
0.5930,0.4070	-13.68
0.7905,0.2095	-13.04
0.4144,0.5856	-13.70
0.6549,0.3451	-13.21
0.8983,0.1017	-12.93
0.6522,0.3478	-13.21
0.5698,0.4302	-13.35
0.7854,0.2146	-13.04
0.4295,0.5705	-13.66
0.6783,0.3217	-13.18
0.9082,0.0918	-12.92
0.6648,0.3352	-13.20
0.6145,0.3855	-13.74
0.8025,0.1975	-14.43
0.4834,0.5166	-13.46
0.7022,0.2978	-13.14
0.9070,0.0930	-12.92
0.6525,0.3475	-13.84
0.5651,0.4349	-13.62
0.8505,0.1495	-14.71
0.4352,0.5648	-13.65
0.6970,0.3030	-13.15
0.8903,0.1097	-12.94
0.6325,0.3675	-13.24
0.5683,0.4317	-13.63
0.8676,0.1324	-12.96
0.4354,0.5646	-13.38
0.6898,0.3102	-13.16
0.8820,0.1180	-12.95
0.6441,0.3559	-13.82
0.5244,0.4756	-13.53
0.8550,0.1450	-14.75
0.3854,0.6146	-13.79
0.7221,0.2779	-13.12
0.8704,0.1296	-12.96
0.6937,0.3063	-13.16
0.5332,0.4668	-13.55
0.8383,0.1617	-14.63
0.4329,0.5671	-13.38
0.7217,0.2783	-13.12
0.8862,0.1138	-12.94
0.6936,0.3064	-13.16
0.5023,0.4977	-13.49
0.8397,0.1603	-12.99
0.4115,0.5885	-13.35
0.7157,0.2843	-13.13
0.8626,0.1374	-12.96
0.5976,0.4024	-13.30
0.5246,0.4754	-13.44
0.8226,0.1774	-14.54
0.4110,0.5890	-13.71
0.6963,0.3037	-13.15
0.8449,0.1551	-12.98
0.5774,0.4226	-13.34
0.5256,0.4744	-13.54
0.8360,0.1640	-14.62
0.3684,0.6316	-13.31
0.6828,0.3172	-13.17
0.8671,0.1329	-14.83
0.5679,0.4321	-13.63
0.4987,0.5013	-13.49
0.8274,0.1726	-13.00
0.3647,0.6353	-13.30
0.6765,0.3235	-13.18
0.8706,0.1294	-12.96
0.5647,0.4353	-13.62
0.4844,0.5156	-13.46
0.8219,0.1781	-13.00
0.3765,0.6235	-13.82
0.6876,0.3124	-13.16
0.8592,0.1408	-14.78
0.5702,0.4298	-13.35
0.4445,0.5555	-13.40
0.8020,0.1980	-13.03
0.3963,0.6037	-13.76
0.6649,0.3351	-13.88
0.8349,0.1651	-12.99
0.6083,0.3917	-13.28
0.4280,0.5720	-13.37
0.7953,0.2047	-13.03
0.4369,0.5631	-13.39
0.7105,0.2895	-14.03
0.8111,0.1889	-13.02
0.6563,0.3437	-13.21
0.4254,0.5746	-13.37
0.7611,0.2389	-13.07
0.4438,0.5562	-13.40
0.7170,0.2830	-13.12
0.7759,0.2241	-13.05
0.6805,0.3195	-13.93
0.3602,0.6398	-13.30
0.7636,0.2364	-14.24
0.4208,0.5792	-13.37
0.7344,0.2656	-13.10
0.7994,0.2006	-14.41
0.6763,0.3237	-13.18
0.3693,0.6307	-13.84
0.6969,0.3031	-13.98
0.4403,0.5597	-13.39
0.7884,0.2116	-13.04
0.7764,0.2236	-13.05
0.6900,0.3100	-13.16
0.3605,0.6395	-13.87
0.7682,0.2318	-14.26
0.3947,0.6053	-13.33
0.7613,0.2387	-13.07
0.7723,0.2277	-13.06
0.7297,0.2703	-13.11
0.3945,0.6055	-13.33
0.7697,0.2303	-13.06
0.3701,0.6299	-13.84
0.7873,0.2127	-13.04
0.7468,0.2532	-13.09
0.7448,0.2552	-13.09
0.3906,0.6094	-13.77
0.8280,0.1720	-13.00
0.4199,0.5801	-13.36
0.7874,0.2126	-13.04
0.7268,0.2732	-13.11
0.7038,0.2962	-13.14
0.3262,0.6738	-14.00
0.8407,0.1593	-12.98
0.4732,0.5268	-13.44
0.8263,0.1737	-13.00
0.7206,0.2794	-14.07
0.7241,0.2759	-13.12
0.3557,0.6443	-13.30
0.8682,0.1318	-12.96
0.4521,0.5479	-13.60
0.8347,0.1653	-12.99
0.7269,0.2731	-13.11
0.6920,0.3080	-13.97
0.3342,0.6658	-13.28
0.8847,0.1153	-12.94
0.4990,0.5010	-13.49
0.8648,0.1352	-12.96
0.6888,0.3112	-13.16
0.6977,0.3023	-13.99
0.3502,0.6498	-13.91
0.8962,0.1038	-12.93
0.5301,0.4699	-13.55
0.8786,0.1214	-12.95
0.7219,0.2781	-14.07
0.6710,0.3290	-13.19
0.4049,0.5951	-13.73
0.8981,0.1019	-12.93
0.4774,0.5226	-13.45
0.8698,0.1302	-12.96
0.6919,0.3081	-13.16
0.6473,0.3527	-13.22
0.4249,0.5751	-13.67
0.9053,0.0947	-12.92
0.4818,0.5182	-13.53
0.8465,0.1535	-12.98
0.7092,0.2908	-13.13
0.6572,0.3428	-13.86
0.4876,0.5124	-13.47
0.8791,0.1209	-12.95
0.5834,0.4166	-13.32
0.8218,0.1782	-13.00
0.7459,0.2541	-13.09
0.6600,0.3400	-13.87
0.5063,0.4937	-13.50
0.9040,0.0960	-12.93
0.6693,0.3307	-13.19
0.8725,0.1275	-12.95
0.7051,0.2949	-13.14
0.6472,0.3528	-13.22
0.4946,0.5054	-13.48
0.8928,0.1072	-12.94
0.6726,0.3274	-13.90
0.8932,0.1068	-12.93
0.6427,0.3573	-13.23
0.6178,0.3822	-13.27
0.4632,0.5368	-13.57
0.9022,0.0978	-12.93
0.6939,0.3061	-13.97
0.8909,0.1091	-12.94
0.6610,0.3390	-13.20
0.6425,0.3575	-13.81
0.5178,0.4822	-13.52
0.9002,0.0998	-15.13
0.6759,0.3241	-13.18
0.8824,0.1176	-12.94
0.6219,0.3781	-13.76
0.6520,0.3480	-13.21
0.5648,0.4352	-13.62
0.9197,0.0803	-12.91
0.7086,0.2914	-14.02
0.8806,0.1194	-12.95
0.6000,0.4000	-13.30
0.6200,0.3800	-13.26
0.5460,0.4540	-13.39
0.8978,0.1022	-12.93
0.6848,0.3152	-13.17
0.8768,0.1232	-12.95
0.6207,0.3793	-13.26
0.6532,0.3468	-13.85
0.6193,0.3807	-13.26
0.9110,0.0890	-12.92
0.6092,0.3908	-13.28
0.8880,0.1120	-12.94
0.5820,0.4180	-13.66
0.6223,0.3777	-13.26
0.5795,0.4205	-13.33
0.9137,0.0863	-12.92
0.6060,0.3940	-13.72
0.8654,0.1346	-12.96
0.5781,0.4219	-13.33
0.6785,0.3215	-13.18
0.5603,0.4397	-13.61
0.9164,0.0836	-12.91
0.5908,0.4092	-13.68
0.8685,0.1315	-12.96
0.5815,0.4185	-13.33
0.6354,0.3646	-13.24
0.5063,0.4937	-13.47
0.9121,0.0879	-12.92
0.6711,0.3289	-13.19
0.8719,0.1281	-12.95
0.5523,0.4477	-13.38
0.6416,0.3584	-13.23
0.4233,0.5767	-13.37
0.9125,0.0875	-12.92
0.6762,0.3238	-13.18
0.8522,0.1478	-12.97
0.5747,0.4253	-13.64
0.6470,0.3530	-13.22
0.4097,0.5903	-13.35
0.9252,0.0748	-12.91
0.6977,0.3023	-13.15
0.8373,0.1627	-12.99
0.5749,0.4251	-13.64
0.6277,0.3723	-13.77
0.4255,0.5745	-13.37
0.9161,0.0839	-15.30
0.6918,0.3082	-13.16
0.8239,0.1761	-13.00
0.5199,0.4801	-13.45
0.6048,0.3952	-13.71
0.4453,0.5547	-13.62
0.8770,0.1230	-12.95
0.7004,0.2996	-13.15
0.8383,0.1617	-12.99
0.5358,0.4642	-13.41
0.6058,0.3942	-13.29
0.4263,0.5737	-13.37
0.8755,0.1245	-12.95
0.6600,0.3400	-13.20
0.8153,0.1847	-13.01
0.4990,0.5010	-13.49
0.6334,0.3666	-13.79
0.3752,0.6248	-13.31
0.8584,0.1416	-12.97
0.6569,0.3431	-13.86
0.8435,0.1565	-14.67
0.4637,0.5363	-13.57
0.6672,0.3328	-13.19
0.4011,0.5989	-13.34
0.8602,0.1398	-12.97
0.5967,0.4033	-13.30
0.8603,0.1397	-12.97
0.4664,0.5336	-13.43
0.6451,0.3549	-13.82
0.4347,0.5653	-13.65
0.8722,0.1278	-14.87
0.5559,0.4441	-13.60
0.8383,0.1617	-14.63
0.4567,0.5433	-13.42
0.6570,0.3430	-13.86
0.4251,0.5749	-13.67
0.8734,0.1266	-12.95
0.5590,0.4410	-13.61
0.8083,0.1917	-13.02
0.4946,0.5054	-13.48
0.6490,0.3510	-13.22
0.4260,0.5740	-13.37
0.8914,0.1086	-12.94
0.5365,0.4635	-13.56
0.8009,0.1991	-13.03
0.4973,0.5027	-13.49
0.5757,0.4243	-13.34
0.4206,0.5794	-13.36
0.8803,0.1197	-12.95
0.5416,0.4584	-13.40
0.8229,0.1771	-13.00
0.4317,0.5683	-13.38
0.6035,0.3965	-13.29
0.3690,0.6310	-13.31
0.8858,0.1142	-12.94
0.4785,0.5215	-13.45
0.8013,0.1987	-13.03
0.4502,0.5498	-13.41
0.5997,0.4003	-13.70
0.3675,0.6325	-13.31
0.9119,0.0881	-12.92
0.4767,0.5233	-13.54
0.7911,0.2089	-13.04
0.4497,0.5503	-13.61
0.5830,0.4170	-13.33
0.3896,0.6104	-13.33
0.9072,0.0928	-12.92
0.4967,0.5033	-13.50
0.8050,0.1950	-13.02
0.4279,0.5721	-13.66
0.5084,0.4916	-13.47
0.3618,0.6382	-13.87
0.9021,0.0979	-12.93
0.5663,0.4337	-13.62
0.7681,0.2319	-13.06
0.4402,0.5598	-13.63
0.4640,0.5360	-13.57
0.3600,0.6400	-13.30
0.9070,0.0930	-12.92
0.5393,0.4607	-13.41
0.7465,0.2535	-13.09
0.4167,0.5833	-13.70
0.4781,0.5219	-13.45
0.3809,0.6191	-13.32
0.9087,0.0913	-12.92
0.5640,0.4360	-13.36
0.6921,0.3079	-13.16
0.3438,0.6562	-13.29
0.4667,0.5333	-13.56
0.3619,0.6381	-13.87
0.9062,0.0938	-12.92
0.5690,0.4310	-13.35
0.6943,0.3057	-13.97
0.3349,0.6651	-13.97
0.5455,0.4545	-13.39
0.3630,0.6370	-13.30
0.8830,0.1170	-12.94
0.5925,0.4075	-13.31
0.7225,0.2775	-14.07
0.3857,0.6143	-13.79
0.5491,0.4509	-13.39
0.3817,0.6183	-13.80
0.8797,0.1203	-12.95
0.6417,0.3583	-13.81
0.6722,0.3278	-13.19
0.4211,0.5789	-13.37
0.5646,0.4354	-13.36
0.4255,0.5745	-13.37
0.8867,0.1133	-12.94
0.6350,0.3650	-13.24
0.6725,0.3275	-13.18
0.3839,0.6161	-13.80
0.5704,0.4296	-13.63
0.3789,0.6211	-13.32
0.8755,0.1245	-12.95
0.6656,0.3344	-13.19
0.6371,0.3629	-13.24
0.3887,0.6113	-13.78
0.5740,0.4260	-13.64
0.4519,0.5481	-13.41
0.8809,0.1191	-12.95
0.6459,0.3541	-13.22
0.6531,0.3469	-13.21
0.3851,0.6149	-13.32
0.5671,0.4329	-13.35
0.4304,0.5696	-13.38
0.8913,0.1087	-12.94
0.5967,0.4033	-13.69
0.5984,0.4016	-13.30
0.2926,0.7074	-13.26
0.6124,0.3876	-13.28
0.4369,0.5631	-13.39
0.8861,0.1139	-12.94
0.6474,0.3526	-13.22
0.6051,0.3949	-13.29
0.3110,0.6890	-14.06
0.6690,0.3310	-13.19
0.4636,0.5364	-13.57
0.9080,0.0920	-12.92
0.6099,0.3901	-13.28
0.6281,0.3719	-13.25
0.2737,0.7263	-14.24
0.6767,0.3233	-13.18
0.4686,0.5314	-13.43
0.9242,0.0758	-12.91
0.5894,0.4106	-13.68
0.6526,0.3474	-13.21
0.3044,0.6956	-13.27
0.6743,0.3257	-13.18
0.4489,0.5511	-13.40
0.9356,0.0644	-15.57
0.5809,0.4191	-13.66
0.6645,0.3355	-13.20
0.3127,0.6873	-13.27
0.6395,0.3605	-13.23
0.3971,0.6029	-13.75
0.9221,0.0779	-12.91
0.5565,0.4435	-13.60
0.6697,0.3303	-13.19
0.2965,0.7035	-13.26
0.6042,0.3958	-13.71
0.3900,0.6100	-13.33
0.9358,0.0642	-12.90
0.4877,0.5123	-13.52
0.7248,0.2752	-13.11
0.3101,0.6899	-13.27
0.5971,0.4029	-13.69
0.3324,0.6676	-13.98
0.9542,0.0458	-12.88
0.4528,0.5472	-13.60
0.6836,0.3164	-13.17
0.3757,0.6243	-13.31
0.6105,0.3895	-13.28
0.3408,0.6592	-13.28
0.9579,0.0421	-12.88
0.4744,0.5256	-13.44
0.6762,0.3238	-13.92
0.4140,0.5860	-13.70
0.5550,0.4450	-13.38
0.2824,0.7176	-13.26
0.9632,0.0368	-12.88
0.4951,0.5049	-13.50
0.6151,0.3849	-13.27
0.4721,0.5279	-13.55
0.5348,0.4652	-13.55
0.2111,0.7889	-13.29
0.9544,0.0456	-12.88
0.5013,0.4987	-13.49
0.6283,0.3717	-13.25
0.4502,0.5498	-13.61
0.6040,0.3960	-13.29
0.1992,0.8008	-13.30
0.9648,0.0352	-12.87
0.5452,0.4548	-13.58
0.6484,0.3516	-13.22
0.4680,0.5320	-13.43
0.6763,0.3237	-13.18
0.2353,0.7647	-14.45
0.9658,0.0342	-12.87
0.5910,0.4090	-13.68
0.6668,0.3332	-13.19
0.4685,0.5315	-13.56
0.6918,0.3082	-13.97
0.2499,0.7501	-13.26
0.9595,0.0405	-12.88
0.5171,0.4829	-13.45
0.6891,0.3109	-13.16
0.4872,0.5128	-13.47
0.6267,0.3733	-13.25
0.2473,0.7527	-14.38
0.9535,0.0465	-12.88
0.5474,0.4526	-13.39
0.7462,0.2538	-13.09
0.4501,0.5499	-13.61
0.6369,0.3631	-13.24
0.2493,0.7507	-13.26
0.9583,0.0417	-12.88
0.5679,0.4321	-13.63
0.7173,0.2827	-14.06
0.4556,0.5444	-13.41
0.5972,0.4028	-13.69
0.2880,0.7120	-13.26
0.9645,0.0355	-12.87
0.6017,0.3983	-13.71
0.6795,0.3205	-13.17
0.5092,0.4908	-13.51
0.6067,0.3933	-13.29
0.2702,0.7298	-13.26
0.9603,0.0397	-12.88
0.6478,0.3522	-13.83
0.7101,0.2899	-14.03
0.5372,0.4628	-13.56
0.6102,0.3898	-13.73
0.3172,0.6828	-14.04
0.9557,0.0443	-12.88
0.6681,0.3319	-13.19
0.6930,0.3070	-13.16
0.4985,0.5015	-13.49
0.5837,0.4163	-13.32
0.3550,0.6450	-13.89
0.9591,0.0409	-12.88
0.6442,0.3558	-13.82
0.6700,0.3300	-13.19
0.5044,0.4956	-13.48
0.6241,0.3759	-13.76
0.3162,0.6838	-13.27
0.9489,0.0511	-12.89
0.6187,0.3813	-13.27
0.6370,0.3630	-13.24
0.4395,0.5605	-13.63
0.6052,0.3948	-13.29
0.3314,0.6686	-13.28
0.9456,0.0544	-12.89
0.6351,0.3649	-13.24
0.6840,0.3160	-13.17
0.4537,0.5463	-13.60
0.5733,0.4267	-13.34
0.3054,0.6946	-14.09
0.9361,0.0639	-12.90
0.6417,0.3583	-13.23
0.7153,0.2847	-13.13
0.3797,0.6203	-13.81
0.5704,0.4296	-13.63
0.2985,0.7015	-13.26
0.9309,0.0691	-12.90
0.5876,0.4124	-13.32
0.7471,0.2529	-13.09
0.3503,0.6497	-13.29
0.5856,0.4144	-13.67
0.3548,0.6452	-13.30
0.9247,0.0753	-12.91
0.5760,0.4240	-13.34
0.7279,0.2721	-13.11
0.2715,0.7285	-13.26
0.6096,0.3904	-13.73
0.3214,0.6786	-13.27
0.9249,0.0751	-12.91
0.5551,0.4449	-13.38
0.7308,0.2692	-13.11
0.2943,0.7057	-13.26
0.6232,0.3768	-13.26
0.4200,0.5800	-13.69
0.9255,0.0745	-12.91
0.5483,0.4517	-13.39
0.7229,0.2771	-13.12
0.2199,0.7801	-14.55
0.5882,0.4118	-13.32
0.4644,0.5356	-13.57
0.9183,0.0817	-15.33
0.5779,0.4221	-13.33
0.7510,0.2490	-14.19
0.2598,0.7402	-13.26
0.5737,0.4263	-13.34
0.4393,0.5607	-13.39
0.9019,0.0981	-12.93
0.6455,0.3545	-13.82
0.7635,0.2365	-14.24
0.2535,0.7465	-13.26
0.5389,0.4611	-13.56
0.4459,0.5541	-13.62
0.9114,0.0886	-12.92
0.6953,0.3047	-13.15
0.6959,0.3041	-13.15
0.2120,0.7880	-13.29
0.4977,0.5023	-13.48
0.5075,0.4925	-13.47
0.9032,0.0968	-12.93
0.7439,0.2561	-13.09
0.6975,0.3025	-13.15
0.1767,0.8233	-13.34
0.4497,0.5503	-13.41
0.4310,0.5690	-13.38
0.8871,0.1129	-12.94
0.7798,0.2202	-14.31
0.6609,0.3391	-13.20
0.1673,0.8327	-13.36
0.4582,0.5418	-13.42
0.3720,0.6280	-13.31
0.8828,0.1172	-12.94
0.8102,0.1898	-13.02
0.6694,0.3306	-13.19
0.1881,0.8119	-13.32
0.4303,0.5697	-13.66
0.3694,0.6306	-13.31
0.9009,0.0991	-12.93
0.8149,0.1851	-13.01
0.6418,0.3582	-13.23
0.1929,0.8071	-14.74
0.4735,0.5265	-13.44
0.3727,0.6273	-13.31
0.8978,0.1022	-12.93
0.7771,0.2229	-13.05
0.6350,0.3650	-13.24
0.2147,0.7853	-13.29
0.4973,0.5027	-13.48
0.3878,0.6122	-13.78
0.8831,0.1169	-12.94
0.7825,0.2175	-13.05
0.5937,0.4063	-13.69
0.2423,0.7577	-14.41
0.5333,0.4667	-13.55
0.3803,0.6197	-13.81
0.8823,0.1177	-12.94
0.7393,0.2607	-14.14
0.5463,0.4537	-13.58
0.2681,0.7319	-13.26
0.5755,0.4245	-13.34
0.4041,0.5959	-13.34
0.8964,0.1036	-12.93
0.7433,0.2567	-13.09
0.5797,0.4203	-13.65
0.2646,0.7354	-14.28
0.6172,0.3828	-13.27
0.3929,0.6071	-13.77
0.8910,0.1090	-15.04
0.6958,0.3042	-13.15
0.5480,0.4520	-13.39
0.2666,0.7334	-14.27
0.5571,0.4429	-13.60
0.3850,0.6150	-13.32
0.8728,0.1272	-12.95
0.7140,0.2860	-13.13
0.5229,0.4771	-13.44
0.2955,0.7045	-13.26
0.6061,0.3939	-13.72
0.3996,0.6004	-13.75
0.8564,0.1436	-12.97
0.7153,0.2847	-13.13
0.6162,0.3838	-13.74
0.2786,0.7214	-14.21
0.6534,0.3466	-13.21
0.3617,0.6383	-13.87
0.8373,0.1627	-12.99
0.7044,0.2956	-13.14
0.5976,0.4024	-13.30
0.2438,0.7562	-13.27
0.6150,0.3850	-13.27
0.3618,0.6382	-13.30
0.8489,0.1511	-14.70
0.6519,0.3481	-13.21
0.5220,0.4780	-13.53
0.2195,0.7805	-14.55
0.5819,0.4181	-13.33
0.3671,0.6329	-13.85
0.8143,0.1857	-13.01
0.7211,0.2789	-13.12
0.5262,0.4738	-13.54
0.2684,0.7316	-13.26
0.5840,0.4160	-13.32
0.3731,0.6269	-13.31
0.8266,0.1734	-13.00
0.6955,0.3045	-13.15
0.5325,0.4675	-13.42
0.2896,0.7104	-13.26
0.5728,0.4272	-13.64
0.3832,0.6168	-13.32
0.8288,0.1712	-14.57
0.7739,0.2261	-13.06
0.5369,0.4631	-13.56
0.2912,0.7088	-14.15
0.5397,0.4603	-13.41
0.3154,0.6846	-13.27
0.8497,0.1503	-12.98
0.7651,0.2349	-14.25
0.5456,0.4544	-13.58
0.3130,0.6870	-13.27
0.5474,0.4526	-13.58
0.3106,0.6894	-14.07
0.8478,0.1522	-12.98
0.7783,0.2217	-13.05
0.5314,0.4686	-13.55
0.3012,0.6988	-14.11
0.5405,0.4595	-13.57
0.3206,0.6794	-13.27
0.8321,0.1679	-12.99
0.8027,0.1973	-14.43
0.5690,0.4310	-13.63
0.3227,0.6773	-13.27
0.5764,0.4236	-13.64
0.3121,0.6879	-13.27
0.8395,0.1605	-14.64
0.8115,0.1885	-13.01
0.5992,0.4008	-13.70
0.3194,0.6806	-13.27
0.6231,0.3769	-13.76
0.3351,0.6649	-13.28
0.8395,0.1605	-14.64
0.7841,0.2159	-13.04
0.5855,0.4145	-13.32
0.3360,0.6640	-13.96
0.5744,0.4256	-13.64
0.3566,0.6434	-13.89
0.8713,0.1287	-12.96
0.8347,0.1653	-14.61
0.5763,0.4237	-13.34
0.2991,0.7009	-14.12
0.5562,0.4438	-13.37
0.3553,0.6447	-13.30
0.8853,0.1147	-12.94
0.8499,0.1501	-14.71
0.6252,0.3748	-13.26
0.3713,0.6287	-13.31
0.5246,0.4754	-13.53
0.3268,0.6732	-13.28
0.8706,0.1294	-12.96
0.8639,0.1361	-12.96
0.5572,0.4428	-13.37
0.3849,0.6151	-13.79
0.4984,0.5016	-13.49
0.3185,0.6815	-14.03
0.8707,0.1293	-12.96
0.8784,0.1216	-14.93
0.6505,0.3495	-13.22
0.3367,0.6633	-13.28
0.4787,0.5213	-13.54
0.3155,0.6845	-13.27
0.8805,0.1195	-14.94
0.9070,0.0930	-12.92
0.6285,0.3715	-13.25
0.3719,0.6281	-13.31
0.4430,0.5570	-13.40
0.3241,0.6759	-13.27
0.8676,0.1324	-12.96
0.8975,0.1025	-12.93
0.6502,0.3498	-13.84
0.3117,0.6883	-14.06
0.4386,0.5614	-13.64
0.3168,0.6832	-13.27
0.8693,0.1307	-12.96
0.8838,0.1162	-12.94
0.5325,0.4675	-13.42
0.3038,0.6962	-13.27
0.4400,0.5600	-13.39
0.2811,0.7189	-13.26
0.8672,0.1328	-12.96
0.8923,0.1077	-12.94
0.5072,0.4928	-13.47
0.2712,0.7288	-13.26
0.4059,0.5941	-13.73
0.2593,0.7407	-13.26
0.8537,0.1463	-12.97
0.9040,0.0960	-12.93
0.5013,0.4987	-13.49
0.3265,0.6735	-13.28
0.4106,0.5894	-13.71
0.2864,0.7136	-14.17
0.8462,0.1538	-14.68
0.8757,0.1243	-12.95
0.4520,0.5480	-13.60
0.3613,0.6387	-13.87
0.4377,0.5623	-13.64
0.2743,0.7257	-13.26
0.8641,0.1359	-12.96
0.8764,0.1236	-14.91
0.5104,0.4896	-13.47
0.3905,0.6095	-13.77
0.4926,0.5074	-13.50
0.2681,0.7319	-13.26
0.8462,0.1538	-12.98
0.8491,0.1509	-12.98
0.4576,0.5424	-13.42
0.3937,0.6063	-13.33
0.4542,0.5458	-13.41
0.2657,0.7343	-13.26
0.8304,0.1696	-13.00
0.8487,0.1513	-12.98
0.4568,0.5432	-13.59
0.3955,0.6045	-13.33
0.4500,0.5500	-13.41
0.2866,0.7134	-13.26
0.8211,0.1789	-14.53
0.8507,0.1493	-12.98
0.4619,0.5381	-13.42
0.3637,0.6363	-13.86
0.4587,0.5413	-13.42
0.3117,0.6883	-13.27
0.8105,0.1895	-13.02
0.8635,0.1365	-12.96
0.4532,0.5468	-13.60
0.4027,0.5973	-13.74
0.4456,0.5544	-13.40
0.3299,0.6701	-13.28
0.7759,0.2241	-14.30
0.8279,0.1721	-13.00
0.4336,0.5664	-13.65
0.4288,0.5712	-13.38
0.4194,0.5806	-13.36
0.2617,0.7383	-13.26
0.7463,0.2537	-14.17
0.8381,0.1619	-12.99
0.4045,0.5955	-13.35
0.4534,0.5466	-13.41
0.4585,0.5415	-13.58
0.2748,0.7252	-14.23
0.6985,0.3015	-13.15
0.8253,0.1747	-14.55
0.3889,0.6111	-13.33
0.4246,0.5754	-13.67
0.4489,0.5511	-13.40
0.2614,0.7386	-13.26
0.6711,0.3289	-13.19
0.8069,0.1931	-13.02
0.4245,0.5755	-13.37
0.3367,0.6633	-13.28
0.4283,0.5717	-13.38
0.2801,0.7199	-13.26
0.5810,0.4190	-13.66
0.7899,0.2101	-13.04
0.3791,0.6209	-13.81
0.3429,0.6571	-13.94
0.3972,0.6028	-13.34
0.2700,0.7300	-14.26
0.5495,0.4505	-13.39
0.7897,0.2103	-13.04
0.3317,0.6683	-13.28
0.3070,0.6930	-14.08
0.4821,0.5179	-13.46
0.1898,0.8102	-13.32
0.5791,0.4209	-13.65
0.7737,0.2263	-13.06
0.3297,0.6703	-13.99
0.2647,0.7353	-13.26
0.5490,0.4510	-13.39
0.1831,0.8169	-13.33
0.5487,0.4513	-13.39
0.7656,0.2344	-13.07
0.3223,0.6777	-13.27
0.2388,0.7612	-13.27
0.4777,0.5223	-13.54
0.2342,0.7658	-13.27
0.5014,0.4986	-13.49
0.7543,0.2457	-13.08
0.3509,0.6491	-13.29
0.2309,0.7691	-13.27
0.5272,0.4728	-13.43
0.2226,0.7774	-13.28
0.5149,0.4851	-13.46
0.7495,0.2505	-13.08
0.3421,0.6579	-13.29
0.2344,0.7656	-13.27
0.4990,0.5010	-13.49
0.2450,0.7550	-13.27
0.4387,0.5613	-13.64
0.7263,0.2737	-13.11
0.3338,0.6662	-13.28
0.2633,0.7367	-13.26
0.5132,0.4868	-13.46
0.2265,0.7735	-13.28
0.4325,0.5675	-13.38
0.7025,0.2975	-13.14
0.3511,0.6489	-13.29
0.2375,0.7625	-14.44
0.4882,0.5118	-13.51
0.2048,0.7952	-13.30
0.4584,0.5416	-13.42
0.7068,0.2932	-13.14
0.4080,0.5920	-13.72
0.1857,0.8143	-14.80
0.5074,0.4926	-13.47
0.2038,0.7962	-13.30
0.4466,0.5534	-13.40
0.7059,0.2941	-13.14
0.4213,0.5787	-13.68
0.1681,0.8319	-13.36
0.4625,0.5375	-13.58
0.2029,0.7971	-13.30
0.4653,0.5347	-13.57
0.6718,0.3282	-13.19
0.4439,0.5561	-13.40
0.1380,0.8620	-13.44
0.4637,0.5363	-13.57
0.2256,0.7744	-13.28
0.4584,0.5416	-13.59
0.6914,0.3086	-13.16
0.4117,0.5883	-13.71
0.1462,0.8538	-13.41
0.4698,0.5302	-13.56
0.2066,0.7934	-13.30
0.3963,0.6037	-13.34
0.7237,0.2763	-13.12
0.4326,0.5674	-13.38
0.1580,0.8420	-13.38
0.4282,0.5718	-13.38
0.1944,0.8056	-13.31
0.4247,0.5753	-13.37
0.8007,0.1993	-13.03
0.4078,0.5922	-13.35
0.1459,0.8541	-13.41
0.3361,0.6639	-13.28
0.1687,0.8313	-13.36
0.4320,0.5680	-13.38
0.8319,0.1681	-14.59
0.4641,0.5359	-13.57
0.1531,0.8469	-13.39
0.3800,0.6200	-13.32
0.2010,0.7990	-14.68
0.3627,0.6373	-13.30
0.8226,0.1774	-13.00
0.4109,0.5891	-13.71
0.1500,0.8500	-13.40
0.3820,0.6180	-13.32
0.2508,0.7492	-13.26
0.3314,0.6686	-13.98
0.8291,0.1709	-14.58
0.3731,0.6269	-13.31
0.1300,0.8700	-13.47
0.4033,0.5967	-13.34
0.2980,0.7020	-13.26
0.3209,0.6791	-13.27
0.8393,0.1607	-12.99
0.3230,0.6770	-14.01
0.1415,0.8585	-13.43
0.3986,0.6014	-13.75
0.3186,0.6814	-14.03
0.2815,0.7185	-13.26
0.8355,0.1645	-12.99
0.3401,0.6599	-13.28
0.1770,0.8230	-13.34
0.3665,0.6335	-13.31
0.2920,0.7080	-13.26
0.2930,0.7070	-14.14
0.7843,0.2157	-13.04
0.3248,0.6752	-14.01
0.2056,0.7944	-14.65
0.3516,0.6484	-13.29
0.2802,0.7198	-13.26
0.3649,0.6351	-13.86
0.8157,0.1843	-13.01
0.3716,0.6284	-13.31
0.2145,0.7855	-13.29
0.4127,0.5873	-13.35
0.2138,0.7862	-13.29
0.3515,0.6485	-13.29
0.7652,0.2348	-13.07
0.4029,0.5971	-13.74
0.2237,0.7763	-13.28
0.4040,0.5960	-13.34
0.1767,0.8233	-13.34
0.3762,0.6238	-13.31
0.7339,0.2661	-14.12
0.4495,0.5505	-13.41
0.2339,0.7661	-14.46
0.3544,0.6456	-13.30
0.1863,0.8137	-14.80
0.3790,0.6210	-13.81
0.7342,0.2658	-13.10
0.4138,0.5862	-13.36
0.2080,0.7920	-13.29
0.3047,0.6953	-13.27
0.1836,0.8164	-13.33
0.3625,0.6375	-13.30
0.7231,0.2769	-13.12
0.4179,0.5821	-13.36
0.2239,0.7761	-13.28
0.3216,0.6784	-13.27
0.1399,0.8601	-13.43
0.4027,0.5973	-13.34
0.6967,0.3033	-13.15
0.4439,0.5561	-13.40
0.2318,0.7682	-13.27
0.3133,0.6867	-13.27
0.1281,0.8719	-13.48
0.3925,0.6075	-13.33
0.7399,0.2601	-13.10
0.4325,0.5675	-13.65
0.2498,0.7502	-13.26
0.3183,0.6817	-14.03
0.1006,0.8994	-13.61
0.3101,0.6899	-13.27
0.7562,0.2438	-14.21
0.4675,0.5325	-13.56
0.2505,0.7495	-14.36
0.3793,0.6207	-13.32
0.1083,0.8917	-13.57
0.3355,0.6645	-13.28
0.7596,0.2404	-13.07
0.4449,0.5551	-13.40
0.2130,0.7870	-13.29
0.3117,0.6883	-14.06
0.0977,0.9023	-13.63
0.3330,0.6670	-13.28
0.7785,0.2215	-14.31
0.3974,0.6026	-13.75
0.2056,0.7944	-13.30
0.3032,0.6968	-14.10
0.0935,0.9065	-13.66
0.3863,0.6137	-13.32
0.7685,0.2315	-13.06
0.3983,0.6017	-13.34
0.2098,0.7902	-13.29
0.3065,0.6935	-13.27
0.0799,0.9201	-13.76
0.3453,0.6547	-13.29
0.7479,0.2521	-14.17
0.3866,0.6134	-13.33
0.1683,0.8317	-13.36
0.2730,0.7270	-13.26
0.0826,0.9174	-13.74
0.3210,0.6790	-14.02
0.7207,0.2793	-13.12
0.3694,0.6306	-13.31
0.1897,0.8103	-14.77
0.2720,0.7280	-13.26
0.1001,0.8999	-13.61
0.3236,0.6764	-13.27
0.7069,0.2931	-13.14
0.3427,0.6573	-13.94
0.2109,0.7891	-13.29
0.2476,0.7524	-14.38
0.0911,0.9089	-13.67
0.2616,0.7384	-13.26
0.6905,0.3095	-13.16
0.3290,0.6710	-13.99
0.1522,0.8478	-13.40
0.2590,0.7410	-13.26
0.1005,0.8995	-13.61
0.2630,0.7370	-13.26
0.6916,0.3084	-13.97
0.2973,0.7027	-13.26
0.1556,0.8444	-13.39
0.2396,0.7604	-13.27
0.0899,0.9101	-13.68
0.2449,0.7551	-13.27
0.6808,0.3192	-13.17
0.3330,0.6670	-13.28
0.1504,0.8496	-13.40
0.1944,0.8056	-13.31
0.1016,0.8984	-13.61
0.2137,0.7863	-13.29
0.6110,0.3890	-13.73
0.3553,0.6447	-13.30
0.1377,0.8623	-13.44
0.1777,0.8223	-13.34
0.1112,0.8888	-13.55
0.1981,0.8019	-14.70
0.6501,0.3499	-13.22
0.3346,0.6654	-13.28
0.1690,0.8310	-14.95
0.1537,0.8463	-13.39
0.1058,0.8942	-13.58
0.2301,0.7699	-13.27
0.6862,0.3138	-13.95
0.3312,0.6688	-13.28
0.1748,0.8252	-13.34
0.1504,0.8496	-13.40
0.1216,0.8784	-13.50
0.2695,0.7305	-14.26
0.6223,0.3777	-13.76
0.3569,0.6431	-13.30
0.2141,0.7859	-13.29
0.1489,0.8511	-15.15
0.1201,0.8799	-13.51
0.2894,0.7106	-14.16
0.6055,0.3945	-13.72
0.3638,0.6362	-13.86
0.1858,0.8142	-14.80
0.1764,0.8236	-13.34
0.1265,0.8735	-13.48
0.3068,0.6932	-14.08
0.5951,0.4049	-13.69
0.3647,0.6353	-13.30
0.1657,0.8343	-14.98
0.1853,0.8147	-13.32
0.1169,0.8831	-13.52
0.3513,0.6487	-13.29
0.6024,0.3976	-13.29
0.3982,0.6018	-13.34
0.1419,0.8581	-15.23
0.2312,0.7688	-13.27
0.1282,0.8718	-15.39
0.3175,0.6825	-14.04
0.5392,0.4608	-13.41
0.3535,0.6465	-13.29
0.1554,0.8446	-13.39
0.2021,0.7979	-13.30
0.1396,0.8604	-15.25
0.3059,0.6941	-13.27
0.5039,0.4961	-13.50
0.3952,0.6048	-13.76
0.2005,0.7995	-13.30
0.1973,0.8027	-13.31
0.1212,0.8788	-15.49
0.2804,0.7196	-13.26
0.4834,0.5166	-13.53
0.3686,0.6314	-13.31
0.1897,0.8103	-13.32
0.1989,0.8011	-13.30
0.1439,0.8561	-13.42
0.3029,0.6971	-13.27
0.4581,0.5419	-13.59
0.3707,0.6293	-13.31
0.2165,0.7835	-13.29
0.2080,0.7920	-13.29
0.1295,0.8705	-13.47
0.3462,0.6538	-13.29
0.4091,0.5909	-13.35
0.3504,0.6496	-13.91
0.2540,0.7460	-13.26
0.2073,0.7927	-13.29
0.1249,0.8751	-13.49
0.3428,0.6572	-13.29
0.3814,0.6186	-13.32
0.3103,0.6897	-13.27
0.3041,0.6959	-13.27
0.2013,0.7987	-13.30
0.1351,0.8649	-15.31
0.3375,0.6625	-13.28
0.3840,0.6160	-13.79
0.3072,0.6928	-13.27
0.3467,0.6533	-13.29
0.2039,0.7961	-13.30
0.1806,0.8194	-13.33
0.3554,0.6446	-13.30
0.4511,0.5489	-13.60
0.2646,0.7354	-13.26
0.3494,0.6506	-13.29
0.1994,0.8006	-13.30
0.1553,0.8447	-13.39
0.3309,0.6691	-13.28
0.4083,0.5917	-13.35
0.2547,0.7453	-13.26
0.3515,0.6485	-13.29
0.2025,0.7975	-13.30
0.1620,0.8380	-13.37
0.3142,0.6858	-13.27
0.4091,0.5909	-13.35
0.2993,0.7007	-13.26
0.3389,0.6611	-13.28
0.2236,0.7764	-14.52
0.1990,0.8010	-13.30
0.3440,0.6560	-13.29
0.4568,0.5432	-13.42
0.3233,0.6767	-13.27
0.3185,0.6815	-13.27
0.2532,0.7468	-13.26
0.2195,0.7805	-13.28
0.3167,0.6833	-13.27
0.4289,0.5711	-13.66
0.3222,0.6778	-13.27
0.3117,0.6883	-14.06
0.2000,0.8000	-13.30
0.2027,0.7973	-13.30
0.3877,0.6123	-13.78
0.4893,0.5107	-13.47
0.2944,0.7056	-14.14
0.2545,0.7455	-13.26
0.3012,0.6988	-13.26
0.2487,0.7513	-14.37
0.3736,0.6264	-13.31
0.4900,0.5100	-13.47
0.2713,0.7287	-13.26
0.2559,0.7441	-13.26
0.3161,0.6839	-13.27
0.2392,0.7608	-13.27
0.3567,0.6433	-13.30
0.4950,0.5050	-13.50
0.2498,0.7502	-13.26
0.2712,0.7288	-13.26
0.3016,0.6984	-13.26
0.2403,0.7597	-13.27
0.3445,0.6555	-13.29
0.3950,0.6050	-13.76
0.2766,0.7234	-13.26
0.2672,0.7328	-13.26
0.2762,0.7238	-13.26
0.2590,0.7410	-14.31
0.4050,0.5950	-13.35
0.3977,0.6023	-13.34
0.3069,0.6931	-14.08
0.2978,0.7022	-14.12
0.2560,0.7440	-13.26
0.3234,0.6766	-14.01
0.3926,0.6074	-13.33
0.4561,0.5439	-13.59
0.2979,0.7021	-14.12
0.2827,0.7173	-13.26
0.2891,0.7109	-14.16
0.3217,0.6783	-13.27
0.3005,0.6995	-13.26
0.4394,0.5606	-13.63
0.3037,0.6963	-14.10
0.2599,0.7401	-13.26
0.2631,0.7369	-13.26
0.3442,0.6558	-13.29
0.3294,0.6706	-13.28
0.5424,0.4576	-13.40
0.3147,0.6853	-13.27
0.2660,0.7340	-13.26
0.3256,0.6744	-13.28
0.3544,0.6456	-13.30
0.3191,0.6809	-13.27
0.5127,0.4873	-13.46
0.3686,0.6314	-13.31
0.2694,0.7306	-13.26
0.2952,0.7048	-13.26
0.3777,0.6223	-13.32
0.2969,0.7031	-13.26
0.4798,0.5202	-13.53
0.3571,0.6429	-13.89
0.2236,0.7764	-13.28
0.3145,0.6855	-13.27
0.4018,0.5982	-13.34
0.3405,0.6595	-13.28
0.4247,0.5753	-13.37
0.3127,0.6873	-13.27
0.2162,0.7838	-13.29
0.3886,0.6114	-13.33
0.4237,0.5763	-13.68
0.2826,0.7174	-13.26
0.4724,0.5276	-13.44
0.3333,0.6667	-13.28
0.1958,0.8042	-13.31
0.3913,0.6087	-13.77
0.3684,0.6316	-13.31
0.2923,0.7077	-13.26
0.5030,0.4970	-13.48
0.3166,0.6834	-13.27
0.2118,0.7882	-13.29
0.3697,0.6303	-13.84
0.3876,0.6124	-13.78
0.3496,0.6504	-13.91
0.5088,0.4912	-13.47
0.3730,0.6270	-13.83
0.2243,0.7757	-13.28
0.3738,0.6262	-13.31
0.3496,0.6504	-13.29
0.3132,0.6868	-13.27
0.4944,0.5056	-13.50
0.3940,0.6060	-13.33
0.2146,0.7854	-13.29
0.4112,0.5888	-13.35
0.3585,0.6415	-13.88
0.3455,0.6545	-13.29
0.4889,0.5111	-13.47
0.4072,0.5928	-13.35
0.2074,0.7926	-13.29
0.4505,0.5495	-13.41
0.3732,0.6268	-13.31
0.3716,0.6284	-13.31
0.5022,0.4978	-13.48
0.4118,0.5882	-13.35
0.1974,0.8026	-13.31
0.4410,0.5590	-13.39
0.4014,0.5986	-13.74
0.3683,0.6317	-13.31
0.4470,0.5530	-13.40
0.4040,0.5960	-13.34
0.1984,0.8016	-13.31
0.4963,0.5037	-13.50
0.4665,0.5335	-13.57
0.3587,0.6413	-13.88
0.3648,0.6352	-13.30
0.4029,0.5971	-13.34
0.2294,0.7706	-13.27
0.5749,0.4251	-13.34
0.4761,0.5239	-13.45
0.3841,0.6159	-13.32
0.3396,0.6604	-13.28
0.3791,0.6209	-13.32
0.2007,0.7993	-13.30
0.5240,0.4760	-13.53
0.4460,0.5540	-13.40
0.3860,0.6140	-13.79
0.3679,0.6321	-13.85
0.3133,0.6867	-13.27
0.1606,0.8394	-15.03
0.4997,0.5003	-13.49
0.3934,0.6066	-13.77
0.3683,0.6317	-13.31
0.3393,0.6607	-13.28
0.2933,0.7067	-13.26
0.1639,0.8361	-13.37
0.4672,0.5328	-13.56
0.4069,0.5931	-13.35
0.3241,0.6759	-13.27
0.3107,0.6893	-13.27
0.3423,0.6577	-13.29
0.1671,0.8329	-13.36
0.4133,0.5867	-13.36
0.3873,0.6127	-13.33
0.2845,0.7155	-13.26
0.3459,0.6541	-13.93
0.3728,0.6272	-13.31
0.1349,0.8651	-13.45
0.4266,0.5734	-13.37
0.3871,0.6129	-13.33
0.2523,0.7477	-13.26
0.3702,0.6298	-13.31
0.3896,0.6104	-13.78
0.1113,0.8887	-13.55
0.3879,0.6121	-13.78
0.3667,0.6333	-13.85
0.2757,0.7243	-14.23
0.4109,0.5891	-13.71
0.3856,0.6144	-13.32
0.0910,0.9090	-15.97
0.3387,0.6613	-13.28
0.3852,0.6148	-13.32
0.2840,0.7160	-13.26
0.4486,0.5514	-13.61
0.4071,0.5929	-13.35
0.0940,0.9060	-13.65
0.3529,0.6471	-13.90
0.3265,0.6735	-14.00
0.3212,0.6788	-13.27
0.4228,0.5772	-13.37
0.4381,0.5619	-13.64
0.0968,0.9032	-13.63
0.4526,0.5474	-13.41
0.2944,0.7056	-13.26
0.3080,0.6920	-14.08
0.3623,0.6377	-13.30
0.5030,0.4970	-13.49
0.1130,0.8870	-13.54
0.4534,0.5466	-13.60
0.2372,0.7628	-14.44
0.3559,0.6441	-13.30
0.3619,0.6381	-13.87
0.4896,0.5104	-13.51
0.0956,0.9044	-13.64
0.3945,0.6055	-13.33
0.2152,0.7848	-13.29
0.3685,0.6315	-13.85
0.3364,0.6636	-13.28
0.4978,0.5022	-13.49
0.0889,0.9111	-13.69
0.4476,0.5524	-13.40
0.1914,0.8086	-13.31
0.3745,0.6255	-13.31
0.3840,0.6160	-13.79
0.4384,0.5616	-13.39
0.0889,0.9111	-13.69
0.4324,0.5676	-13.65
0.1889,0.8111	-13.32
0.3979,0.6021	-13.34
0.3953,0.6047	-13.76
0.3938,0.6062	-13.76
0.0713,0.9287	-13.84
0.4298,0.5702	-13.66
0.1926,0.8074	-13.31
0.3855,0.6145	-13.79
0.3710,0.6290	-13.31
0.3722,0.6278	-13.31
0.0744,0.9256	-13.81
0.3840,0.6160	-13.32
0.2387,0.7613	-13.27
0.3829,0.6171	-13.80
0.3961,0.6039	-13.34
0.3426,0.6574	-13.29
0.0697,0.9303	-13.85
0.4651,0.5349	-13.57
0.2806,0.7194	-13.26
0.4394,0.5606	-13.39
0.3450,0.6550	-13.93
0.3519,0.6481	-13.90
0.0678,0.9322	-13.88
0.4227,0.5773	-13.68
0.3118,0.6882	-13.27
0.4299,0.5701	-13.38
0.3214,0.6786	-13.27
0.3521,0.6479	-13.90
0.0754,0.9246	-13.80
0.3632,0.6368	-13.86
0.3372,0.6628	-13.96
0.4411,0.5589	-13.39
0.3651,0.6349	-13.30
0.3260,0.6740	-13.28
0.0698,0.9302	-13.85
0.3087,0.6913	-14.07
0.3547,0.6453	-13.30
0.3731,0.6269	-13.31
0.4123,0.5877	-13.35
0.3493,0.6507	-13.91
0.0656,0.9344	-13.90
0.2946,0.7054	-14.14
0.3415,0.6585	-13.29
0.3581,0.6419	-13.30
0.4210,0.5790	-13.68
0.4024,0.5976	-13.34
0.0767,0.9233	-13.79
0.3090,0.6910	-13.27
0.3886,0.6114	-13.33
0.3615,0.6385	-13.30
0.3328,0.6672	-13.28
0.3789,0.6211	-13.32
0.0951,0.9049	-13.65
0.2972,0.7028	-13.26
0.3417,0.6583	-13.29
0.3501,0.6499	-13.91
0.2736,0.7264	-14.24
0.3475,0.6525	-13.92
0.0828,0.9172	-13.74
0.2998,0.7002	-14.11
0.3189,0.6811	-13.27
0.3747,0.6253	-13.31
0.2547,0.7453	-13.26
0.3448,0.6552	-13.29
0.1093,0.8907	-13.56
0.2850,0.7150	-13.26
0.4192,0.5808	-13.36
0.3390,0.6610	-13.28
0.2313,0.7687	-13.27
0.3603,0.6397	-13.30
0.1052,0.8948	-13.58
0.2686,0.7314	-13.26
0.3926,0.6074	-13.77
0.3480,0.6520	-13.92
0.2239,0.7761	-14.52
0.3724,0.6276	-13.31
0.1029,0.8971	-15.76
0.3276,0.6724	-14.00
0.4268,0.5732	-13.37
0.4062,0.5938	-13.35
0.2410,0.7590	-13.27
0.3918,0.6082	-13.77
0.1156,0.8844	-13.53
0.2830,0.7170	-13.26
0.4159,0.5841	-13.36
0.3558,0.6442	-13.89
0.2645,0.7355	-13.26
0.4152,0.5848	-13.36
0.1371,0.8629	-13.44
0.2546,0.7454	-13.26
0.4155,0.5845	-13.36
0.3496,0.6504	-13.29
0.2816,0.7184	-13.26
0.3383,0.6617	-13.95
0.1474,0.8526	-13.41
0.2945,0.7055	-13.26
0.4755,0.5245	-13.54
0.4234,0.5766	-13.68
0.3031,0.6969	-14.10
0.3187,0.6813	-13.27
0.1602,0.8398	-13.38
0.2679,0.7321	-13.26
0.5223,0.4777	-13.44
0.4662,0.5338	-13.43
0.2616,0.7384	-13.26
0.3452,0.6548	-13.93
0.1829,0.8171	-13.33
0.2704,0.7296	-13.26
0.5397,0.4603	-13.41
0.4444,0.5556	-13.62
0.2692,0.7308	-13.26
0.3769,0.6231	-13.82
0.1640,0.8360	-13.37
0.2477,0.7523	-13.27
0.5671,0.4329	-13.62
0.4872,0.5128	-13.47
0.3119,0.6881	-14.06
0.3841,0.6159	-13.32
0.1380,0.8620	-13.44
0.2462,0.7538	-13.27
0.5168,0.4832	-13.45
0.5165,0.4835	-13.52
0.3094,0.6906	-14.07
0.4265,0.5735	-13.37
0.1179,0.8821	-13.52
0.2406,0.7594	-14.42
0.4898,0.5102	-13.51
0.5152,0.4848	-13.46
0.3307,0.6693	-13.98
0.4377,0.5623	-13.64
0.1043,0.8957	-13.59
0.2305,0.7695	-13.27
0.4788,0.5212	-13.54
0.5134,0.4866	-13.51
0.3278,0.6722	-13.28
0.4689,0.5311	-13.56
0.1242,0.8758	-13.49
0.2632,0.7368	-13.26
0.5105,0.4895	-13.47
0.4631,0.5369	-13.57
0.3029,0.6971	-14.10
0.5028,0.4972	-13.48
0.1270,0.8730	-13.48
0.2832,0.7168	-14.19
0.5014,0.4986	-13.49
0.5056,0.4944	-13.48
0.3497,0.6503	-13.91
0.4895,0.5105	-13.47
0.1296,0.8704	-13.47
0.2869,0.7131	-13.26
0.4733,0.5267	-13.55
0.5229,0.4771	-13.44
0.3802,0.6198	-13.32
0.4650,0.5350	-13.43
0.1084,0.8916	-13.57
0.2795,0.7205	-13.26
0.5194,0.4806	-13.52
0.6375,0.3625	-13.24
0.4048,0.5952	-13.73
0.5104,0.4896	-13.47
0.1252,0.8748	-13.49
0.2764,0.7236	-13.26
0.5967,0.4033	-13.30
0.6472,0.3528	-13.83
0.4124,0.5876	-13.35
0.5162,0.4838	-13.52
0.1485,0.8515	-13.41
0.2806,0.7194	-14.20
0.5863,0.4137	-13.67
0.6336,0.3664	-13.24
0.4366,0.5634	-13.39
0.5351,0.4649	-13.41
0.1270,0.8730	-15.41
0.3065,0.6935	-14.08
0.5587,0.4413	-13.37
0.5993,0.4007	-13.70
0.4208,0.5792	-13.68
0.5429,0.4571	-13.57
0.1315,0.8685	-13.46
0.3449,0.6551	-13.29
0.5556,0.4444	-13.38
0.5646,0.4354	-13.36
0.4394,0.5606	-13.39
0.5297,0.4703	-13.54
0.1468,0.8532	-13.41
0.3433,0.6567	-13.94
0.5932,0.4068	-13.68
0.5425,0.4575	-13.57
0.4861,0.5139	-13.46
0.5499,0.4501	-13.39
0.1711,0.8289	-13.35
0.3269,0.6731	-13.28
0.5852,0.4148	-13.32
0.6019,0.3981	-13.29
0.4683,0.5317	-13.56
0.5957,0.4043	-13.69
0.1653,0.8347	-13.36
0.3717,0.6283	-13.31
0.5245,0.4755	-13.44
0.5983,0.4017	-13.30
0.4546,0.5454	-13.59
0.6226,0.3774	-13.26
0.1649,0.8351	-13.36
0.3513,0.6487	-13.91
0.4913,0.5087	-13.47
0.6373,0.3627	-13.24
0.4434,0.5566	-13.62
0.6229,0.3771	-13.26
0.1668,0.8332	-13.36
0.3218,0.6782	-14.02
0.4605,0.5395	-13.58
0.5901,0.4099	-13.68
0.4218,0.5782	-13.68
0.5711,0.4289	-13.63
0.1399,0.8601	-13.43
0.3391,0.6609	-13.95
0.4088,0.5912	-13.72
0.6246,0.3754	-13.77
0.4321,0.5679	-13.65
0.6114,0.3886	-13.28
0.1516,0.8484	-15.12
0.4042,0.5958	-13.34
0.3568,0.6432	-13.30
0.6489,0.3511	-13.22
0.4351,0.5649	-13.38
0.5669,0.4331	-13.62
0.1452,0.8548	-15.19
0.4319,0.5681	-13.65
0.4002,0.5998	-13.34
0.6888,0.3112	-13.96
0.4628,0.5372	-13.43
0.6062,0.3938	-13.29
0.1395,0.8605	-13.43
0.4761,0.5239	-13.45
0.3696,0.6304	-13.31
0.7214,0.2786	-13.12
0.4667,0.5333	-13.43
0.6007,0.3993	-13.30
0.1393,0.8607	-13.44
0.4141,0.5859	-13.70
0.3349,0.6651	-13.97
0.6970,0.3030	-13.15
0.4224,0.5776	-13.68
0.6031,0.3969	-13.29
0.1275,0.8725	-13.48
0.4501,0.5499	-13.41
0.3575,0.6425	-13.30
0.7094,0.2906	-13.13
0.3786,0.6214	-13.32
