#isoforms=['ENSG00000211445.SE.0.A.up_ENSG00000211445.SE.0.A.SE1_ENSG00000211445.SE.0.A.dn','ENSG00000211445.SE.0.B.up_ENSG00000211445.SE.0.B.dn']	exon_lens=('ENSG00000211445.SE.0.A.up',136),('ENSG00000211445.SE.0.A.SE1',426),('ENSG00000211445.SE.0.A.dn',154),('ENSG00000211445.SE.0.B.up',179),('ENSG00000211445.SE.0.B.dn',154)	iters=5000	burn_in=500	lag=10	percent_accept=95.33	proposal_type=drift	counts=(0,0):87,(0,1):47,(1,0):2,(1,1):116	assigned_counts=0:3,1:162	chrom=chr5	strand=+	mRNA_starts=151020606,151020563	mRNA_ends=151025493,151025493
sampled_psi	log_score
0.0174,0.9826	-958.66
0.0290,0.9710	-964.95
0.0211,0.9789	-959.47
0.0226,0.9774	-971.12
0.0242,0.9758	-960.21
0.0203,0.9797	-963.17
0.0216,0.9784	-974.83
0.0273,0.9727	-964.57
0.0202,0.9798	-970.91
0.0239,0.9761	-960.14
0.0246,0.9754	-971.34
0.0181,0.9819	-958.81
0.0254,0.9746	-964.15
0.0247,0.9753	-982.39
0.0222,0.9778	-955.93
0.0223,0.9777	-967.30
0.0261,0.9739	-975.17
0.0186,0.9814	-966.84
0.0255,0.9745	-960.53
0.0278,0.9722	-971.79
0.0183,0.9817	-970.80
0.0208,0.9792	-970.96
0.0195,0.9805	-963.03
0.0144,0.9856	-958.12
0.0282,0.9718	-975.39
0.0314,0.9686	-965.53
0.0148,0.9852	-958.18
0.0216,0.9784	-955.77
0.0263,0.9737	-964.36
0.0173,0.9827	-958.65
0.0249,0.9751	-960.39
0.0267,0.9733	-968.03
0.0165,0.9835	-954.41
0.0173,0.9827	-958.65
0.0238,0.9762	-963.82
0.0184,0.9816	-954.89
0.0272,0.9728	-968.13
0.0325,0.9675	-975.97
0.0166,0.9834	-962.59
0.0185,0.9815	-966.84
0.0190,0.9810	-955.07
0.0162,0.9838	-966.64
0.0270,0.9730	-968.09
0.0317,0.9683	-969.02
0.0189,0.9811	-958.97
0.0200,0.9800	-959.22
0.0151,0.9849	-962.41
0.0177,0.9823	-954.71
0.0270,0.9730	-968.08
0.0328,0.9672	-972.64
0.0175,0.9825	-970.77
0.0225,0.9775	-974.88
0.0141,0.9859	-962.32
0.0201,0.9799	-970.90
0.0223,0.9777	-971.09
0.0370,0.9630	-979.98
0.0151,0.9849	-970.77
0.0203,0.9797	-963.16
0.0120,0.9880	-953.36
0.0208,0.9792	-963.24
0.0172,0.9828	-958.64
0.0396,0.9604	-980.38
0.0108,0.9892	-962.16
0.0167,0.9833	-966.68
0.0118,0.9882	-962.17
0.0195,0.9805	-966.94
0.0161,0.9839	-966.64
0.0316,0.9684	-962.17
0.0113,0.9887	-966.63
0.0183,0.9817	-962.83
0.0104,0.9896	-953.05
0.0219,0.9781	-955.85
0.0146,0.9854	-962.37
0.0231,0.9769	-963.69
0.0121,0.9879	-957.78
0.0194,0.9806	-959.08
0.0112,0.9888	-957.67
0.0193,0.9807	-974.78
0.0109,0.9891	-966.66
0.0241,0.9759	-963.88
0.0133,0.9867	-975.17
0.0176,0.9824	-970.77
0.0142,0.9858	-966.57
0.0198,0.9802	-966.97
0.0111,0.9889	-957.67
0.0176,0.9824	-958.71
0.0121,0.9879	-957.78
0.0161,0.9839	-962.52
0.0146,0.9854	-958.15
0.0218,0.9782	-971.04
0.0084,0.9916	-952.73
0.0172,0.9828	-954.59
0.0105,0.9895	-957.61
0.0162,0.9838	-954.32
0.0129,0.9871	-962.22
0.0210,0.9790	-959.45
0.0073,0.9927	-957.51
0.0124,0.9876	-957.82
0.0099,0.9901	-962.17
0.0179,0.9821	-954.75
0.0108,0.9892	-962.16
0.0173,0.9827	-958.65
0.0069,0.9931	-957.53
0.0142,0.9858	-966.56
0.0085,0.9915	-952.75
0.0167,0.9833	-958.53
0.0099,0.9901	-957.56
0.0132,0.9868	-953.61
0.0072,0.9928	-952.59
0.0141,0.9859	-953.82
0.0080,0.9920	-971.95
0.0165,0.9835	-962.58
0.0095,0.9905	-952.89
0.0152,0.9848	-954.07
0.0079,0.9921	-962.33
0.0138,0.9862	-958.02
0.0077,0.9923	-967.21
0.0152,0.9848	-958.25
0.0071,0.9929	-952.58
0.0125,0.9875	-970.95
0.0099,0.9901	-962.17
0.0127,0.9873	-953.50
0.0064,0.9936	-957.57
0.0156,0.9844	-970.76
0.0079,0.9921	-952.66
0.0104,0.9896	-953.04
0.0089,0.9911	-962.22
0.0126,0.9874	-953.49
0.0066,0.9934	-952.54
0.0117,0.9883	-962.17
0.0074,0.9926	-957.50
0.0104,0.9896	-957.61
0.0075,0.9925	-957.50
0.0136,0.9864	-957.99
0.0057,0.9943	-962.80
0.0103,0.9897	-962.16
0.0062,0.9938	-952.51
0.0110,0.9890	-953.16
0.0058,0.9942	-957.64
0.0180,0.9820	-962.79
0.0039,0.9961	-952.58
0.0104,0.9896	-953.05
0.0069,0.9931	-962.49
0.0091,0.9909	-962.21
0.0047,0.9953	-963.22
0.0184,0.9816	-962.85
0.0043,0.9957	-952.53
0.0082,0.9918	-952.70
0.0067,0.9933	-952.54
0.0101,0.9899	-952.99
0.0034,0.9966	-952.65
0.0160,0.9840	-958.40
0.0053,0.9947	-952.49
0.0083,0.9917	-962.28
0.0075,0.9925	-967.27
0.0086,0.9914	-957.50
0.0026,0.9974	-952.89
0.0176,0.9824	-962.73
0.0057,0.9943	-962.81
0.0086,0.9914	-952.75
0.0082,0.9918	-957.50
0.0086,0.9914	-957.50
0.0025,0.9975	-952.96
0.0145,0.9855	-966.57
0.0050,0.9950	-957.79
0.0079,0.9921	-962.33
0.0072,0.9928	-952.59
0.0085,0.9915	-957.50
0.0033,0.9967	-952.69
0.0097,0.9903	-957.55
0.0049,0.9951	-957.80
0.0068,0.9932	-952.55
0.0058,0.9942	-957.64
0.0092,0.9908	-952.84
0.0034,0.9966	-952.66
0.0109,0.9891	-971.17
0.0053,0.9947	-952.49
0.0069,0.9931	-952.56
0.0082,0.9918	-952.70
0.0089,0.9911	-957.51
0.0044,0.9956	-957.93
0.0120,0.9880	-957.77
0.0046,0.9954	-957.87
0.0057,0.9943	-957.66
0.0075,0.9925	-952.62
0.0095,0.9905	-962.18
0.0058,0.9942	-957.64
0.0102,0.9898	-962.16
0.0041,0.9959	-952.55
0.0055,0.9945	-957.68
0.0078,0.9922	-957.50
0.0076,0.9924	-952.63
0.0046,0.9954	-952.51
0.0108,0.9892	-953.13
0.0051,0.9949	-968.28
0.0059,0.9941	-952.50
0.0070,0.9930	-952.56
0.0105,0.9895	-953.06
0.0042,0.9958	-952.54
0.0105,0.9895	-953.07
0.0052,0.9948	-952.49
0.0076,0.9924	-952.62
0.0060,0.9940	-952.50
0.0103,0.9897	-953.02
0.0043,0.9957	-952.53
0.0101,0.9899	-957.58
0.0063,0.9937	-962.64
0.0072,0.9928	-952.58
0.0058,0.9942	-952.50
0.0106,0.9894	-966.69
0.0046,0.9954	-952.51
0.0083,0.9917	-952.71
0.0057,0.9943	-952.49
0.0077,0.9923	-952.63
0.0056,0.9944	-952.49
0.0131,0.9869	-962.24
0.0042,0.9958	-958.02
0.0098,0.9902	-957.55
0.0052,0.9948	-952.49
0.0063,0.9937	-952.51
0.0056,0.9944	-952.49
0.0131,0.9869	-953.59
0.0037,0.9963	-952.61
0.0093,0.9907	-957.53
0.0053,0.9947	-952.49
0.0049,0.9951	-952.49
0.0048,0.9952	-952.50
0.0117,0.9883	-962.17
0.0031,0.9969	-958.52
0.0126,0.9874	-957.84
0.0053,0.9947	-952.49
0.0045,0.9955	-952.52
0.0056,0.9944	-957.67
0.0113,0.9887	-962.16
0.0026,0.9974	-958.82
0.0131,0.9869	-966.56
0.0050,0.9950	-957.78
0.0054,0.9946	-957.70
0.0061,0.9939	-952.50
0.0121,0.9879	-957.78
0.0033,0.9967	-952.68
0.0119,0.9881	-962.18
0.0055,0.9945	-957.68
0.0065,0.9935	-957.56
0.0077,0.9923	-957.50
0.0107,0.9893	-953.11
0.0027,0.9973	-964.69
0.0125,0.9875	-966.57
0.0064,0.9936	-952.52
0.0065,0.9935	-957.56
0.0074,0.9926	-952.60
0.0120,0.9880	-957.77
0.0038,0.9962	-952.58
0.0109,0.9891	-957.65
0.0046,0.9954	-957.89
0.0054,0.9946	-952.49
0.0080,0.9920	-957.49
0.0135,0.9865	-962.27
0.0047,0.9953	-957.86
0.0091,0.9909	-952.83
0.0041,0.9959	-952.55
0.0059,0.9941	-952.50
0.0063,0.9937	-957.57
0.0124,0.9876	-953.43
0.0048,0.9952	-963.18
0.0103,0.9897	-953.03
0.0053,0.9947	-962.95
0.0051,0.9949	-952.49
0.0066,0.9934	-962.56
0.0164,0.9836	-966.66
0.0063,0.9937	-952.52
0.0121,0.9879	-966.59
0.0062,0.9938	-952.51
0.0054,0.9946	-952.49
0.0059,0.9941	-952.50
0.0158,0.9842	-954.24
0.0057,0.9943	-957.66
0.0111,0.9889	-966.64
0.0056,0.9944	-962.84
0.0058,0.9942	-957.64
0.0064,0.9936	-952.52
0.0163,0.9837	-966.65
0.0043,0.9957	-957.99
0.0156,0.9844	-962.47
0.0063,0.9937	-962.63
0.0062,0.9938	-957.59
0.0063,0.9937	-957.58
0.0168,0.9832	-958.55
0.0039,0.9961	-952.58
0.0118,0.9882	-962.18
0.0078,0.9922	-952.65
0.0075,0.9925	-952.61
0.0078,0.9922	-962.34
0.0187,0.9813	-962.89
0.0050,0.9950	-973.69
0.0112,0.9888	-957.68
0.0067,0.9933	-962.55
0.0084,0.9916	-967.04
0.0078,0.9922	-952.64
0.0141,0.9859	-966.56
0.0051,0.9949	-957.75
0.0143,0.9857	-966.57
0.0073,0.9927	-952.60
0.0078,0.9922	-952.65
0.0080,0.9920	-957.49
0.0148,0.9852	-953.98
0.0057,0.9943	-952.49
0.0161,0.9839	-962.53
0.0074,0.9926	-967.31
0.0085,0.9915	-962.26
0.0092,0.9908	-957.52
0.0150,0.9850	-966.59
0.0068,0.9932	-952.55
0.0126,0.9874	-957.85
0.0081,0.9919	-971.91
0.0110,0.9890	-966.66
0.0084,0.9916	-962.27
0.0176,0.9824	-958.71
0.0087,0.9913	-952.77
0.0122,0.9878	-966.58
0.0073,0.9927	-962.41
0.0104,0.9896	-962.16
0.0080,0.9920	-962.31
0.0168,0.9832	-962.62
0.0084,0.9916	-952.73
0.0110,0.9890	-966.65
0.0084,0.9916	-957.50
0.0123,0.9877	-966.58
0.0063,0.9937	-957.57
0.0172,0.9828	-970.76
0.0078,0.9922	-952.65
0.0102,0.9898	-953.01
0.0070,0.9930	-962.48
0.0125,0.9875	-953.47
0.0068,0.9932	-952.55
0.0167,0.9833	-958.53
0.0070,0.9930	-952.57
0.0088,0.9912	-962.23
0.0072,0.9928	-952.59
0.0132,0.9868	-953.63
0.0076,0.9924	-952.63
0.0176,0.9824	-954.69
0.0067,0.9933	-952.54
0.0104,0.9896	-953.04
0.0060,0.9940	-952.50
0.0196,0.9804	-970.87
0.0078,0.9922	-952.65
0.0185,0.9815	-954.92
0.0058,0.9942	-952.49
0.0113,0.9887	-953.22
0.0044,0.9956	-968.78
0.0185,0.9815	-966.84
0.0098,0.9902	-962.17
0.0203,0.9797	-963.15
0.0055,0.9945	-962.89
0.0128,0.9872	-953.53
0.0039,0.9961	-952.58
0.0167,0.9833	-974.83
0.0081,0.9919	-952.69
0.0209,0.9791	-963.26
0.0065,0.9935	-952.53
0.0111,0.9889	-966.65
0.0048,0.9952	-952.50
0.0190,0.9810	-962.94
0.0059,0.9941	-952.50
0.0183,0.9817	-962.83
0.0062,0.9938	-952.51
0.0100,0.9900	-966.77
0.0051,0.9949	-963.02
0.0160,0.9840	-962.52
0.0051,0.9949	-952.49
0.0172,0.9828	-970.76
0.0064,0.9936	-952.52
0.0100,0.9900	-952.97
0.0050,0.9950	-963.06
0.0129,0.9871	-962.23
0.0049,0.9951	-963.13
0.0190,0.9810	-966.89
0.0064,0.9936	-952.52
0.0085,0.9915	-952.75
0.0050,0.9950	-952.49
0.0111,0.9889	-957.67
0.0036,0.9964	-952.63
0.0152,0.9848	-958.26
0.0071,0.9929	-952.58
0.0086,0.9914	-962.25
0.0050,0.9950	-957.78
0.0122,0.9878	-957.79
0.0043,0.9957	-952.53
0.0107,0.9893	-975.73
0.0078,0.9922	-952.65
0.0078,0.9922	-952.65
0.0051,0.9949	-957.76
0.0133,0.9867	-966.56
0.0048,0.9952	-957.82
0.0105,0.9895	-966.70
0.0099,0.9901	-962.17
0.0061,0.9939	-957.59
0.0059,0.9941	-952.50
0.0129,0.9871	-953.56
0.0053,0.9947	-962.95
0.0089,0.9911	-966.94
0.0083,0.9917	-957.50
0.0069,0.9931	-957.53
0.0055,0.9945	-957.68
0.0137,0.9863	-966.56
0.0054,0.9946	-952.49
0.0112,0.9888	-971.12
0.0139,0.9861	-966.56
0.0087,0.9913	-957.51
0.0059,0.9941	-957.63
0.0125,0.9875	-953.46
0.0060,0.9940	-952.50
0.0100,0.9900	-966.76
0.0165,0.9835	-962.58
0.0065,0.9935	-957.56
0.0051,0.9949	-957.76
0.0109,0.9891	-953.15
0.0052,0.9948	-963.00
0.0095,0.9905	-957.54
0.0165,0.9835	-958.49
0.0058,0.9942	-957.64
0.0042,0.9958	-952.54
0.0129,0.9871	-966.56
0.0049,0.9951	-957.80
0.0111,0.9889	-953.17
0.0216,0.9784	-971.02
0.0058,0.9942	-952.49
0.0032,0.9968	-958.46
0.0125,0.9875	-966.57
0.0057,0.9943	-952.49
0.0094,0.9906	-962.19
0.0208,0.9792	-955.55
0.0087,0.9913	-952.77
0.0028,0.9972	-952.82
0.0151,0.9849	-958.24
0.0054,0.9946	-952.49
0.0106,0.9894	-957.62
0.0242,0.9758	-975.00
0.0086,0.9914	-962.24
0.0034,0.9966	-952.67
0.0141,0.9859	-970.81
0.0065,0.9935	-957.56
0.0085,0.9915	-957.50
0.0218,0.9782	-959.64
0.0097,0.9903	-952.93
0.0030,0.9970	-964.41
0.0185,0.9815	-966.84
0.0063,0.9937	-952.52
0.0078,0.9922	-952.65
0.0189,0.9811	-955.03
0.0073,0.9927	-957.51
0.0025,0.9975	-952.95
0.0125,0.9875	-957.83
0.0068,0.9932	-957.53
0.0074,0.9926	-952.60
0.0176,0.9824	-958.71
0.0097,0.9903	-957.55
0.0024,0.9976	-952.98
0.0105,0.9895	-957.61
0.0054,0.9946	-952.49
0.0060,0.9940	-962.72
0.0192,0.9808	-959.04
0.0127,0.9873	-962.21
0.0024,0.9976	-952.99
0.0117,0.9883	-953.31
0.0038,0.9962	-952.59
0.0062,0.9938	-952.51
0.0179,0.9821	-966.78
0.0121,0.9879	-957.79
0.0025,0.9975	-952.96
0.0132,0.9868	-953.62
0.0044,0.9956	-952.52
0.0064,0.9936	-957.56
0.0166,0.9834	-966.67
0.0120,0.9880	-975.41
0.0023,0.9977	-953.05
0.0163,0.9837	-954.35
0.0034,0.9966	-952.67
0.0065,0.9935	-952.53
0.0138,0.9862	-962.29
0.0135,0.9865	-953.68
0.0021,0.9979	-953.12
0.0161,0.9839	-962.53
0.0032,0.9968	-952.72
0.0066,0.9934	-952.54
0.0120,0.9880	-957.77
0.0145,0.9855	-953.92
0.0030,0.9970	-952.76
0.0127,0.9873	-957.86
0.0035,0.9965	-952.63
0.0066,0.9934	-957.55
0.0093,0.9907	-952.86
0.0130,0.9870	-953.57
0.0032,0.9968	-952.71
0.0133,0.9867	-966.56
0.0037,0.9963	-958.19
0.0041,0.9959	-958.03
0.0094,0.9906	-952.88
0.0128,0.9872	-957.88
0.0038,0.9962	-952.59
0.0124,0.9876	-962.20
0.0040,0.9960	-958.07
0.0038,0.9962	-958.15
0.0121,0.9879	-966.59
0.0124,0.9876	-962.20
0.0043,0.9957	-952.53
0.0159,0.9841	-966.63
0.0035,0.9965	-952.65
0.0033,0.9967	-958.41
0.0120,0.9880	-962.18
0.0095,0.9905	-962.19
0.0049,0.9951	-952.49
0.0166,0.9834	-954.42
0.0046,0.9954	-952.51
0.0024,0.9976	-953.00
0.0128,0.9872	-957.87
0.0095,0.9905	-957.54
0.0047,0.9953	-952.50
0.0188,0.9812	-970.82
0.0044,0.9956	-952.52
0.0022,0.9978	-953.09
0.0132,0.9868	-957.93
0.0106,0.9894	-962.16
0.0043,0.9957	-952.53
0.0151,0.9849	-974.95
0.0035,0.9965	-952.64
0.0017,0.9983	-953.42
0.0105,0.9895	-962.16
0.0125,0.9875	-953.46
0.0043,0.9957	-952.53
0.0195,0.9805	-959.11
0.0030,0.9970	-958.59
0.0020,0.9980	-953.18
0.0108,0.9892	-957.64
0.0140,0.9860	-958.06
0.0037,0.9963	-952.61
0.0171,0.9829	-958.60
0.0031,0.9969	-952.75
0.0020,0.9980	-953.18
0.0132,0.9868	-979.51
0.0103,0.9897	-953.02
0.0040,0.9960	-952.56
0.0145,0.9855	-966.57
0.0035,0.9965	-958.30
0.0022,0.9978	-953.07
0.0134,0.9866	-962.26
0.0093,0.9907	-952.86
0.0047,0.9953	-952.50
0.0136,0.9864	-962.28
0.0033,0.9967	-958.41
0.0022,0.9978	-953.09
0.0150,0.9850	-962.41
0.0077,0.9923	-957.50
0.0047,0.9953	-952.50
0.0132,0.9868	-953.61
0.0034,0.9966	-952.66
0.0020,0.9980	-953.20
0.0143,0.9857	-962.33
0.0061,0.9939	-952.50
0.0049,0.9951	-952.49
0.0145,0.9855	-953.92
0.0040,0.9960	-952.56
0.0025,0.9975	-952.92
0.0145,0.9855	-966.57
0.0083,0.9917	-957.50
0.0045,0.9955	-952.51
0.0117,0.9883	-957.74
0.0042,0.9958	-958.02
0.0030,0.9970	-952.77
0.0155,0.9845	-962.45
0.0107,0.9893	-957.63
0.0064,0.9936	-967.64
0.0075,0.9925	-952.61
0.0053,0.9947	-962.94
0.0023,0.9977	-953.04
0.0147,0.9853	-958.16
0.0129,0.9871	-957.88
0.0063,0.9937	-962.64
0.0066,0.9934	-962.56
0.0058,0.9942	-952.49
0.0027,0.9973	-952.87
0.0113,0.9887	-962.16
0.0149,0.9851	-962.40
0.0053,0.9947	-952.49
0.0103,0.9897	-953.03
0.0067,0.9933	-952.54
0.0035,0.9965	-952.64
0.0112,0.9888	-957.68
0.0138,0.9862	-962.29
0.0062,0.9938	-952.51
0.0075,0.9925	-957.50
0.0059,0.9941	-952.50
0.0033,0.9967	-952.68
0.0112,0.9888	-962.16
0.0142,0.9858	-958.08
0.0054,0.9946	-957.71
0.0083,0.9917	-957.50
0.0057,0.9943	-957.65
0.0038,0.9962	-958.18
0.0110,0.9890	-953.15
0.0132,0.9868	-962.25
0.0051,0.9949	-952.49
0.0108,0.9892	-953.13
0.0055,0.9945	-962.89
0.0038,0.9962	-952.59
0.0077,0.9923	-952.64
0.0160,0.9840	-966.63
0.0058,0.9942	-952.49
0.0124,0.9876	-953.44
0.0063,0.9937	-952.51
0.0036,0.9964	-952.62
0.0074,0.9926	-957.50
0.0165,0.9835	-962.58
0.0053,0.9947	-957.73
0.0108,0.9892	-957.64
0.0060,0.9940	-957.61
0.0051,0.9949	-952.49
0.0081,0.9919	-952.69
0.0166,0.9834	-958.50
0.0061,0.9939	-952.50
0.0098,0.9902	-952.94
0.0067,0.9933	-957.54
0.0059,0.9941	-957.62
0.0100,0.9900	-962.17
0.0157,0.9843	-954.20
0.0069,0.9931	-962.50
0.0075,0.9925	-962.38
0.0068,0.9932	-962.52
0.0067,0.9933	-962.54
0.0090,0.9910	-962.21
0.0166,0.9834	-966.67
0.0081,0.9919	-962.31
0.0070,0.9930	-957.52
0.0063,0.9937	-952.51
0.0089,0.9911	-957.51
0.0102,0.9898	-953.02
0.0160,0.9840	-974.87
0.0070,0.9930	-952.57
0.0085,0.9915	-962.25
0.0074,0.9926	-952.61
0.0083,0.9917	-957.50
0.0106,0.9894	-962.16
0.0177,0.9823	-958.74
0.0067,0.9933	-952.54
0.0077,0.9923	-957.50
0.0068,0.9932	-952.55
0.0099,0.9901	-962.17
0.0100,0.9900	-966.76
0.0145,0.9855	-953.92
0.0068,0.9932	-952.55
0.0066,0.9934	-957.55
0.0067,0.9933	-957.54
0.0089,0.9911	-957.51
0.0093,0.9907	-957.53
0.0150,0.9850	-962.40
0.0071,0.9929	-962.45
0.0096,0.9904	-966.82
0.0059,0.9941	-962.75
0.0134,0.9866	-957.96
0.0092,0.9908	-957.52
0.0186,0.9814	-966.84
0.0096,0.9904	-952.90
0.0089,0.9911	-957.51
0.0058,0.9942	-957.64
0.0123,0.9877	-957.81
0.0118,0.9882	-962.17
0.0173,0.9827	-954.62
0.0113,0.9887	-957.69
0.0100,0.9900	-952.97
0.0067,0.9933	-962.54
0.0150,0.9850	-966.59
0.0138,0.9862	-958.03
0.0161,0.9839	-970.75
0.0129,0.9871	-962.23
0.0090,0.9910	-957.52
0.0059,0.9941	-952.50
0.0123,0.9877	-957.81
0.0137,0.9863	-962.28
0.0155,0.9845	-970.76
0.0134,0.9866	-962.26
0.0101,0.9899	-952.98
0.0059,0.9941	-957.62
0.0105,0.9895	-962.16
0.0141,0.9859	-962.32
0.0153,0.9847	-954.10
0.0125,0.9875	-962.20
0.0083,0.9917	-957.50
0.0076,0.9924	-952.62
0.0101,0.9899	-966.75
0.0129,0.9871	-962.23
0.0140,0.9860	-958.05
0.0117,0.9883	-953.29
0.0081,0.9919	-957.49
0.0069,0.9931	-952.56
0.0129,0.9871	-962.22
0.0154,0.9846	-958.29
0.0138,0.9862	-962.29
0.0120,0.9880	-957.77
0.0071,0.9929	-952.57
0.0057,0.9943	-952.49
0.0143,0.9857	-958.10
0.0190,0.9810	-958.99
0.0119,0.9881	-953.34
0.0120,0.9880	-957.77
0.0072,0.9928	-952.58
0.0051,0.9949	-957.76
0.0108,0.9892	-953.12
0.0261,0.9739	-960.68
0.0126,0.9874	-953.49
0.0124,0.9876	-966.58
0.0088,0.9912	-952.79
0.0043,0.9957	-952.53
0.0083,0.9917	-952.72
0.0268,0.9732	-975.23
0.0165,0.9835	-962.58
0.0114,0.9886	-962.16
0.0107,0.9893	-962.16
0.0054,0.9946	-962.91
0.0100,0.9900	-957.57
0.0267,0.9733	-960.84
0.0145,0.9855	-966.57
0.0113,0.9887	-957.69
0.0110,0.9890	-957.66
0.0054,0.9946	-952.49
0.0110,0.9890	-957.66
0.0185,0.9815	-974.78
0.0158,0.9842	-962.49
0.0127,0.9873	-953.51
0.0108,0.9892	-953.11
0.0062,0.9938	-952.51
0.0123,0.9877	-966.58
0.0240,0.9760	-967.56
0.0133,0.9867	-962.25
0.0160,0.9840	-954.28
0.0108,0.9892	-971.19
0.0062,0.9938	-957.59
0.0116,0.9884	-975.51
0.0266,0.9734	-968.02
0.0114,0.9886	-957.70
0.0158,0.9842	-954.24
0.0101,0.9899	-957.58
0.0058,0.9942	-952.49
0.0117,0.9883	-962.17
0.0222,0.9778	-967.30
0.0093,0.9907	-952.85
0.0163,0.9837	-970.75
0.0111,0.9889	-962.16
0.0055,0.9945	-952.49
0.0107,0.9893	-957.63
0.0230,0.9770	-959.91
0.0086,0.9914	-957.50
0.0158,0.9842	-962.49
0.0110,0.9890	-953.17
0.0067,0.9933	-967.56
0.0099,0.9901	-952.96
0.0218,0.9782	-963.43
0.0094,0.9906	-962.19
0.0179,0.9821	-978.79
0.0107,0.9893	-957.63
0.0073,0.9927	-952.60
0.0085,0.9915	-957.50
0.0233,0.9767	-967.46
0.0085,0.9915	-962.26
0.0127,0.9873	-957.86
0.0098,0.9902	-957.56
0.0082,0.9918	-957.49
0.0064,0.9936	-952.52
0.0238,0.9762	-956.41
0.0079,0.9921	-957.49
0.0113,0.9887	-957.69
0.0112,0.9888	-953.21
0.0075,0.9925	-957.50
0.0056,0.9944	-957.67
0.0220,0.9780	-963.46
0.0094,0.9906	-957.54
0.0123,0.9877	-970.97
0.0134,0.9866	-970.86
0.0059,0.9941	-952.50
0.0058,0.9942	-957.64
0.0212,0.9788	-963.31
0.0098,0.9902	-957.56
0.0101,0.9899	-957.58
0.0123,0.9877	-953.43
0.0055,0.9945	-952.49
0.0059,0.9941	-962.75
0.0241,0.9759	-963.88
0.0099,0.9901	-952.95
0.0107,0.9893	-962.16
0.0100,0.9900	-957.57
0.0054,0.9946	-962.92
0.0057,0.9943	-952.49
0.0215,0.9785	-967.19
0.0113,0.9887	-966.63
0.0091,0.9909	-952.83
0.0076,0.9924	-952.62
0.0051,0.9949	-957.76
0.0060,0.9940	-952.50
0.0253,0.9747	-967.79
0.0118,0.9882	-953.32
0.0105,0.9895	-957.61
0.0063,0.9937	-952.51
0.0069,0.9931	-952.56
0.0065,0.9935	-957.56
0.0263,0.9737	-964.35
0.0094,0.9906	-952.88
0.0095,0.9905	-952.90
0.0065,0.9935	-962.58
0.0074,0.9926	-952.61
0.0100,0.9900	-957.57
0.0293,0.9707	-972.03
0.0091,0.9909	-966.90
0.0083,0.9917	-962.28
0.0055,0.9945	-957.68
0.0077,0.9923	-952.64
0.0123,0.9877	-953.42
0.0270,0.9730	-964.50
0.0092,0.9908	-962.20
0.0075,0.9925	-952.62
0.0063,0.9937	-957.57
0.0065,0.9935	-952.53
0.0128,0.9872	-962.22
0.0295,0.9705	-972.07
0.0074,0.9926	-957.50
0.0088,0.9912	-952.78
0.0058,0.9942	-952.49
0.0069,0.9931	-957.53
0.0129,0.9871	-962.23
0.0250,0.9750	-967.73
0.0072,0.9928	-952.58
0.0111,0.9889	-962.16
0.0073,0.9927	-952.59
0.0048,0.9952	-952.50
0.0131,0.9869	-957.92
0.0227,0.9773	-959.85
0.0074,0.9926	-952.60
0.0121,0.9879	-953.38
0.0110,0.9890	-953.15
0.0045,0.9955	-957.93
0.0151,0.9849	-962.41
0.0209,0.9791	-959.43
0.0091,0.9909	-966.90
0.0134,0.9866	-970.86
0.0103,0.9897	-957.60
0.0054,0.9946	-952.49
0.0119,0.9881	-953.34
0.0222,0.9778	-963.51
0.0102,0.9898	-962.16
0.0118,0.9882	-957.74
0.0128,0.9872	-962.22
0.0053,0.9947	-952.49
0.0149,0.9851	-962.39
0.0205,0.9795	-970.93
0.0110,0.9890	-971.15
0.0134,0.9866	-957.96
0.0148,0.9852	-962.38
0.0054,0.9946	-957.71
0.0138,0.9862	-962.29
0.0228,0.9772	-971.14
0.0098,0.9902	-952.95
0.0159,0.9841	-970.76
0.0145,0.9855	-962.36
0.0075,0.9925	-952.62
0.0149,0.9851	-954.01
0.0166,0.9834	-958.51
0.0087,0.9913	-957.50
0.0176,0.9824	-958.70
0.0175,0.9825	-966.74
0.0073,0.9927	-957.51
0.0160,0.9840	-958.40
0.0202,0.9798	-963.15
0.0096,0.9904	-957.55
0.0173,0.9827	-974.81
0.0170,0.9830	-958.58
0.0085,0.9915	-962.26
0.0139,0.9861	-966.56
0.0187,0.9813	-958.92
0.0088,0.9912	-952.79
0.0168,0.9832	-966.69
0.0146,0.9854	-958.14
0.0105,0.9895	-953.06
0.0114,0.9886	-962.16
0.0169,0.9831	-966.70
0.0088,0.9912	-957.51
0.0189,0.9811	-970.83
0.0132,0.9868	-970.88
0.0085,0.9915	-957.50
0.0106,0.9894	-953.08
0.0172,0.9828	-974.81
0.0087,0.9913	-952.77
0.0163,0.9837	-962.55
0.0133,0.9867	-953.64
0.0075,0.9925	-952.62
0.0102,0.9898	-957.59
0.0169,0.9831	-974.82
0.0083,0.9917	-952.71
0.0176,0.9824	-954.69
0.0125,0.9875	-957.83
0.0063,0.9937	-957.58
0.0094,0.9906	-962.19
0.0170,0.9830	-962.65
0.0092,0.9908	-952.85
0.0169,0.9831	-962.64
0.0139,0.9861	-953.77
0.0057,0.9943	-952.49
0.0080,0.9920	-957.49
0.0157,0.9843	-962.48
0.0118,0.9882	-953.33
0.0164,0.9836	-958.46
0.0151,0.9849	-962.41
0.0048,0.9952	-957.84
0.0056,0.9944	-962.85
0.0161,0.9839	-958.41
0.0121,0.9879	-957.78
0.0200,0.9800	-978.68
0.0187,0.9813	-962.89
0.0062,0.9938	-957.59
0.0052,0.9948	-952.49
0.0170,0.9830	-958.59
0.0111,0.9889	-971.14
0.0204,0.9796	-970.92
0.0142,0.9858	-953.85
0.0075,0.9925	-962.38
0.0064,0.9936	-957.56
0.0186,0.9814	-958.91
0.0123,0.9877	-953.43
0.0186,0.9814	-966.85
0.0119,0.9881	-957.75
0.0066,0.9934	-952.53
0.0074,0.9926	-952.61
0.0145,0.9855	-962.35
0.0114,0.9886	-953.23
0.0186,0.9814	-954.94
0.0169,0.9831	-958.56
0.0078,0.9922	-962.34
0.0059,0.9941	-952.50
0.0196,0.9804	-963.05
0.0104,0.9896	-962.16
0.0207,0.9793	-955.51
0.0154,0.9846	-970.76
0.0080,0.9920	-952.68
0.0041,0.9959	-958.04
0.0259,0.9741	-967.89
0.0112,0.9888	-971.12
0.0162,0.9838	-966.65
0.0161,0.9839	-958.41
0.0064,0.9936	-957.56
0.0040,0.9960	-952.56
0.0283,0.9717	-957.71
0.0109,0.9891	-957.65
0.0123,0.9877	-953.42
0.0150,0.9850	-954.03
0.0068,0.9932	-957.53
0.0045,0.9955	-952.52
0.0330,0.9670	-976.06
0.0090,0.9910	-952.81
0.0104,0.9896	-953.04
0.0172,0.9828	-958.63
0.0074,0.9926	-952.61
0.0047,0.9953	-952.50
0.0376,0.9624	-983.31
0.0094,0.9906	-952.87
0.0130,0.9870	-962.23
0.0188,0.9812	-962.92
0.0067,0.9933	-957.54
0.0039,0.9961	-963.64
0.0306,0.9694	-961.89
0.0080,0.9920	-952.68
0.0130,0.9870	-962.23
0.0161,0.9839	-966.64
0.0046,0.9954	-957.87
0.0036,0.9964	-958.26
0.0285,0.9715	-978.95
0.0090,0.9910	-962.22
0.0140,0.9860	-958.06
0.0161,0.9839	-962.53
0.0041,0.9959	-952.55
0.0038,0.9962	-952.58
0.0214,0.9786	-967.18
0.0096,0.9904	-952.91
0.0111,0.9889	-966.64
0.0145,0.9855	-953.92
0.0045,0.9955	-957.92
0.0036,0.9964	-952.62
0.0208,0.9792	-963.25
0.0103,0.9897	-957.59
0.0108,0.9892	-971.19
0.0136,0.9864	-957.99
0.0044,0.9956	-957.93
0.0030,0.9970	-952.77
0.0237,0.9763	-967.53
0.0091,0.9909	-952.83
0.0115,0.9885	-962.17
0.0129,0.9871	-953.54
0.0052,0.9948	-957.73
0.0025,0.9975	-952.93
0.0200,0.9800	-963.11
0.0101,0.9899	-957.58
0.0092,0.9908	-962.20
0.0120,0.9880	-962.18
0.0049,0.9951	-957.82
0.0026,0.9974	-952.89
0.0175,0.9825	-962.72
0.0087,0.9913	-971.71
0.0085,0.9915	-957.50
0.0134,0.9866	-966.56
0.0049,0.9951	-957.81
0.0029,0.9971	-952.79
0.0187,0.9813	-958.94
0.0090,0.9910	-957.51
0.0067,0.9933	-957.54
0.0172,0.9828	-962.67
0.0048,0.9952	-957.84
0.0027,0.9973	-952.88
0.0172,0.9828	-954.58
0.0087,0.9913	-952.76
0.0048,0.9952	-952.50
0.0131,0.9869	-957.91
0.0052,0.9948	-952.49
0.0034,0.9966	-964.01
0.0185,0.9815	-962.86
0.0087,0.9913	-957.50
0.0047,0.9953	-952.50
0.0176,0.9824	-962.72
0.0074,0.9926	-962.40
0.0038,0.9962	-952.59
0.0147,0.9853	-953.97
0.0095,0.9905	-952.90
0.0039,0.9961	-952.58
0.0170,0.9830	-958.60
0.0080,0.9920	-952.68
0.0036,0.9964	-958.23
0.0145,0.9855	-962.36
0.0077,0.9923	-952.63
0.0040,0.9960	-952.56
0.0172,0.9828	-966.72
0.0067,0.9933	-957.54
0.0035,0.9965	-952.64
0.0118,0.9882	-966.60
0.0082,0.9918	-952.70
0.0043,0.9957	-952.53
0.0170,0.9830	-962.64
0.0085,0.9915	-962.26
0.0041,0.9959	-952.55
0.0102,0.9898	-953.01
0.0064,0.9936	-957.57
0.0030,0.9970	-952.77
0.0189,0.9811	-962.93
0.0064,0.9936	-952.52
0.0039,0.9961	-952.58
0.0089,0.9911	-962.22
0.0064,0.9936	-952.52
0.0028,0.9972	-952.84
0.0164,0.9836	-978.94
0.0059,0.9941	-952.50
0.0038,0.9962	-952.59
0.0078,0.9922	-957.50
0.0059,0.9941	-957.63
0.0028,0.9972	-958.71
0.0141,0.9859	-958.06
0.0040,0.9960	-958.08
0.0041,0.9959	-952.55
0.0089,0.9911	-962.22
0.0074,0.9926	-957.50
0.0027,0.9973	-964.71
0.0159,0.9841	-958.37
0.0034,0.9966	-952.65
0.0037,0.9963	-952.61
0.0081,0.9919	-952.69
0.0076,0.9924	-962.37
0.0031,0.9969	-964.32
0.0152,0.9848	-962.43
0.0042,0.9958	-952.54
0.0038,0.9962	-952.59
0.0076,0.9924	-952.63
0.0056,0.9944	-952.49
0.0032,0.9968	-964.23
0.0120,0.9880	-957.77
0.0047,0.9953	-952.50
0.0046,0.9954	-952.51
0.0073,0.9927	-952.59
0.0065,0.9935	-952.53
0.0036,0.9964	-958.24
0.0117,0.9883	-966.61
0.0048,0.9952	-957.84
0.0050,0.9950	-952.49
0.0079,0.9921	-952.66
0.0083,0.9917	-957.50
0.0038,0.9962	-952.58
0.0118,0.9882	-957.74
0.0062,0.9938	-957.59
0.0054,0.9946	-957.71
0.0080,0.9920	-957.49
0.0099,0.9901	-957.56
0.0037,0.9963	-952.60
0.0125,0.9875	-957.83
0.0052,0.9948	-952.49
0.0050,0.9950	-957.79
0.0064,0.9936	-952.52
0.0112,0.9888	-953.20
0.0040,0.9960	-952.56
0.0160,0.9840	-958.40
0.0046,0.9954	-952.51
0.0046,0.9954	-952.51
0.0062,0.9938	-952.51
0.0111,0.9889	-953.18
0.0039,0.9961	-958.12
0.0209,0.9791	-963.27
0.0044,0.9956	-952.52
0.0058,0.9942	-962.79
0.0064,0.9936	-952.52
0.0131,0.9869	-962.24
0.0037,0.9963	-952.60
0.0203,0.9797	-959.27
0.0034,0.9966	-964.06
0.0060,0.9940	-952.50
0.0061,0.9939	-952.51
0.0116,0.9884	-953.27
0.0037,0.9963	-952.60
0.0220,0.9780	-978.65
0.0033,0.9967	-952.69
0.0056,0.9944	-952.49
0.0060,0.9940	-952.50
0.0091,0.9909	-957.52
0.0027,0.9973	-952.84
0.0213,0.9787	-967.16
0.0033,0.9967	-952.69
0.0044,0.9956	-952.52
0.0060,0.9940	-952.50
0.0125,0.9875	-957.83
0.0022,0.9978	-953.09
0.0230,0.9770	-963.67
0.0027,0.9973	-952.88
0.0052,0.9948	-957.74
0.0064,0.9936	-952.52
0.0130,0.9870	-957.90
0.0016,0.9984	-953.53
0.0190,0.9810	-962.95
0.0035,0.9965	-952.65
0.0048,0.9952	-957.83
0.0072,0.9928	-952.58
0.0111,0.9889	-962.16
0.0017,0.9983	-953.45
0.0175,0.9825	-966.74
0.0042,0.9958	-958.02
0.0044,0.9956	-952.52
0.0080,0.9920	-967.14
0.0115,0.9885	-966.62
0.0017,0.9983	-953.39
0.0137,0.9863	-958.01
0.0047,0.9953	-963.23
0.0051,0.9949	-957.75
0.0086,0.9914	-957.50
0.0121,0.9879	-962.18
0.0016,0.9984	-953.49
0.0161,0.9839	-954.31
0.0045,0.9955	-957.93
0.0048,0.9952	-952.50
0.0093,0.9907	-962.20
0.0134,0.9866	-966.56
0.0015,0.9985	-953.59
0.0159,0.9841	-958.39
0.0038,0.9962	-958.15
0.0061,0.9939	-952.51
0.0086,0.9914	-957.50
0.0175,0.9825	-966.74
0.0012,0.9988	-953.90
0.0156,0.9844	-958.32
0.0035,0.9965	-958.29
0.0067,0.9933	-952.54
0.0097,0.9903	-966.81
0.0149,0.9851	-954.00
0.0012,0.9988	-953.88
0.0236,0.9764	-963.79
0.0034,0.9966	-952.66
0.0071,0.9929	-952.58
0.0112,0.9888	-971.12
0.0145,0.9855	-958.14
0.0012,0.9988	-953.97
0.0218,0.9782	-959.64
0.0043,0.9957	-957.98
0.0082,0.9918	-957.49
0.0082,0.9918	-957.49
0.0148,0.9852	-966.58
0.0016,0.9984	-953.52
0.0186,0.9814	-954.95
0.0045,0.9955	-957.91
0.0081,0.9919	-962.30
0.0090,0.9910	-952.81
0.0162,0.9838	-958.44
0.0017,0.9983	-953.44
0.0198,0.9802	-966.98
0.0045,0.9955	-963.31
0.0094,0.9906	-966.86
0.0086,0.9914	-957.50
0.0155,0.9845	-962.46
0.0019,0.9981	-953.26
0.0222,0.9778	-963.51
0.0036,0.9964	-952.62
0.0092,0.9908	-962.20
0.0083,0.9917	-952.71
0.0149,0.9851	-970.77
0.0017,0.9983	-953.39
0.0267,0.9733	-957.24
0.0043,0.9957	-957.98
0.0098,0.9902	-957.56
0.0087,0.9913	-957.50
0.0156,0.9844	-966.61
0.0016,0.9984	-953.51
0.0271,0.9729	-960.94
0.0044,0.9956	-952.52
0.0121,0.9879	-953.38
0.0063,0.9937	-952.51
0.0170,0.9830	-962.64
0.0014,0.9986	-953.68
0.0261,0.9739	-971.55
0.0040,0.9960	-952.56
0.0126,0.9874	-957.84
0.0060,0.9940	-952.50
0.0172,0.9828	-970.76
0.0017,0.9983	-959.84
0.0272,0.9728	-964.55
0.0039,0.9961	-952.57
0.0126,0.9874	-970.93
0.0070,0.9930	-952.57
0.0192,0.9808	-962.97
0.0020,0.9980	-953.20
0.0222,0.9778	-959.71
0.0037,0.9963	-952.61
0.0130,0.9870	-970.89
0.0078,0.9922	-952.65
0.0188,0.9812	-966.86
0.0017,0.9983	-953.39
0.0190,0.9810	-970.83
0.0034,0.9966	-952.66
0.0114,0.9886	-953.24
0.0062,0.9938	-952.51
0.0204,0.9796	-955.42
0.0017,0.9983	-959.78
0.0159,0.9841	-970.76
0.0029,0.9971	-952.80
0.0106,0.9894	-957.62
0.0063,0.9937	-957.58
0.0189,0.9811	-958.98
0.0020,0.9980	-953.17
0.0172,0.9828	-962.68
0.0039,0.9961	-958.11
0.0096,0.9904	-952.90
0.0065,0.9935	-957.56
0.0198,0.9802	-955.26
0.0022,0.9978	-953.08
0.0189,0.9811	-962.92
0.0036,0.9964	-952.63
0.0085,0.9915	-952.74
0.0058,0.9942	-957.63
0.0218,0.9782	-959.64
0.0020,0.9980	-953.23
0.0235,0.9765	-956.30
0.0035,0.9965	-952.63
0.0098,0.9902	-957.56
0.0056,0.9944	-952.49
0.0207,0.9793	-963.24
0.0018,0.9982	-953.31
0.0175,0.9825	-958.70
0.0042,0.9958	-952.54
0.0086,0.9914	-952.75
0.0064,0.9936	-952.52
0.0210,0.9790	-967.13
0.0015,0.9985	-953.59
0.0154,0.9846	-954.12
0.0048,0.9952	-957.84
0.0088,0.9912	-952.78
0.0064,0.9936	-957.56
0.0183,0.9817	-958.86
0.0016,0.9984	-959.97
0.0133,0.9867	-957.94
0.0051,0.9949	-952.49
0.0101,0.9899	-957.58
0.0071,0.9929	-957.52
0.0206,0.9794	-959.35
0.0016,0.9984	-953.51
0.0157,0.9843	-958.34
0.0070,0.9930	-952.56
0.0102,0.9898	-953.01
0.0079,0.9921	-962.33
0.0179,0.9821	-962.77
0.0015,0.9985	-953.57
0.0135,0.9865	-953.69
0.0052,0.9948	-957.75
0.0115,0.9885	-953.26
0.0094,0.9906	-971.51
0.0158,0.9842	-962.49
0.0017,0.9983	-959.83
0.0127,0.9873	-962.22
0.0056,0.9944	-957.67
0.0102,0.9898	-953.01
0.0083,0.9917	-952.72
0.0157,0.9843	-954.22
0.0018,0.9982	-953.31
0.0118,0.9882	-957.74
0.0057,0.9943	-957.66
0.0094,0.9906	-962.19
0.0069,0.9931	-952.56
0.0148,0.9852	-962.38
0.0021,0.9979	-953.15
0.0139,0.9861	-966.56
0.0059,0.9941	-957.62
0.0122,0.9878	-966.59
0.0060,0.9940	-952.50
0.0122,0.9878	-957.79
0.0023,0.9977	-953.05
0.0136,0.9864	-962.28
0.0069,0.9931	-957.53
0.0125,0.9875	-957.83
0.0058,0.9942	-952.49
0.0132,0.9868	-953.61
0.0019,0.9981	-953.29
0.0134,0.9866	-962.26
0.0059,0.9941	-957.62
0.0116,0.9884	-957.73
0.0064,0.9936	-952.52
0.0159,0.9841	-966.63
0.0023,0.9977	-953.04
0.0132,0.9868	-957.94
0.0046,0.9954	-957.87
0.0107,0.9893	-957.63
0.0058,0.9942	-957.64
0.0165,0.9835	-954.40
0.0029,0.9971	-952.79
0.0105,0.9895	-957.61
0.0061,0.9939	-962.69
0.0125,0.9875	-957.83
0.0057,0.9943	-952.49
0.0128,0.9872	-957.88
0.0035,0.9965	-958.29
0.0096,0.9904	-952.90
0.0062,0.9938	-952.51
0.0100,0.9900	-962.17
0.0049,0.9951	-952.49
0.0116,0.9884	-966.61
0.0034,0.9966	-952.67
0.0107,0.9893	-957.63
0.0062,0.9938	-957.59
0.0088,0.9912	-952.78
0.0060,0.9940	-952.50
0.0119,0.9881	-953.33
0.0032,0.9968	-952.72
0.0133,0.9867	-966.56
0.0060,0.9940	-962.72
0.0088,0.9912	-952.78
0.0056,0.9944	-952.49
0.0104,0.9896	-957.60
0.0026,0.9974	-952.91
0.0115,0.9885	-953.26
0.0056,0.9944	-962.85
0.0109,0.9891	-957.65
0.0061,0.9939	-957.60
0.0117,0.9883	-953.29
0.0026,0.9974	-952.90
0.0101,0.9899	-952.99
0.0052,0.9948	-952.49
0.0107,0.9893	-953.11
0.0047,0.9953	-963.23
0.0121,0.9879	-957.79
0.0022,0.9978	-953.10
0.0124,0.9876	-957.83
0.0042,0.9958	-952.54
0.0101,0.9899	-962.16
0.0047,0.9953	-952.50
0.0128,0.9872	-957.87
0.0018,0.9982	-953.31
0.0142,0.9858	-958.09
0.0035,0.9965	-952.65
0.0098,0.9902	-957.56
0.0046,0.9954	-957.87
0.0105,0.9895	-962.16
0.0018,0.9982	-953.34
0.0130,0.9870	-957.90
0.0036,0.9964	-963.87
0.0120,0.9880	-962.18
0.0049,0.9951	-952.49
0.0099,0.9901	-952.95
0.0021,0.9979	-953.13
0.0113,0.9887	-962.16
0.0049,0.9951	-957.81
0.0118,0.9882	-957.75
0.0057,0.9943	-952.49
0.0135,0.9865	-957.98
0.0022,0.9978	-953.07
0.0143,0.9857	-958.10
0.0049,0.9951	-957.80
0.0126,0.9874	-966.57
0.0082,0.9918	-952.70
0.0149,0.9851	-962.39
0.0025,0.9975	-958.93
0.0127,0.9873	-970.93
0.0051,0.9949	-952.49
0.0105,0.9895	-953.07
0.0084,0.9916	-952.73
0.0160,0.9840	-966.63
0.0022,0.9978	-953.11
0.0126,0.9874	-962.21
0.0049,0.9951	-952.49
0.0138,0.9862	-962.29
0.0066,0.9934	-967.59
0.0168,0.9832	-978.90
0.0023,0.9977	-953.05
0.0094,0.9906	-966.84
0.0056,0.9944	-952.49
0.0186,0.9814	-966.84
0.0057,0.9943	-952.49
0.0181,0.9819	-958.82
0.0017,0.9983	-953.38
0.0098,0.9902	-957.55
0.0065,0.9935	-957.56
0.0201,0.9799	-967.01
0.0053,0.9947	-952.49
0.0174,0.9826	-962.70
0.0019,0.9981	-959.53
0.0098,0.9902	-957.56
0.0106,0.9894	-966.69
0.0193,0.9807	-963.00
0.0051,0.9949	-963.03
0.0148,0.9852	-966.58
0.0016,0.9984	-953.51
0.0112,0.9888	-957.68
0.0093,0.9907	-952.85
0.0147,0.9853	-958.17
0.0056,0.9944	-952.49
0.0170,0.9830	-958.59
0.0013,0.9987	-960.52
0.0135,0.9865	-962.27
0.0105,0.9895	-966.70
0.0126,0.9874	-962.21
0.0062,0.9938	-957.59
0.0176,0.9824	-962.73
0.0011,0.9989	-960.81
0.0166,0.9834	-966.67
0.0104,0.9896	-957.60
0.0135,0.9865	-957.98
0.0073,0.9927	-957.51
0.0183,0.9817	-962.83
0.0013,0.9987	-953.75
0.0156,0.9844	-958.33
0.0107,0.9893	-957.63
0.0131,0.9869	-957.92
0.0079,0.9921	-952.66
0.0160,0.9840	-958.41
0.0015,0.9985	-953.61
0.0146,0.9854	-958.15
0.0097,0.9903	-971.42
0.0151,0.9849	-962.42
0.0091,0.9909	-957.52
0.0170,0.9830	-966.70
0.0012,0.9988	-953.89
0.0153,0.9847	-954.10
0.0124,0.9876	-957.83
0.0159,0.9841	-970.76
0.0078,0.9922	-962.34
0.0150,0.9850	-958.21
0.0014,0.9986	-953.69
0.0219,0.9781	-967.24
0.0120,0.9880	-953.36
0.0168,0.9832	-962.61
0.0096,0.9904	-966.82
0.0144,0.9856	-962.35
0.0015,0.9985	-953.61
0.0207,0.9793	-970.95
0.0124,0.9876	-953.44
0.0158,0.9842	-962.49
0.0105,0.9895	-957.61
0.0122,0.9878	-953.40
0.0013,0.9987	-960.54
0.0207,0.9793	-970.94
0.0096,0.9904	-952.91
0.0159,0.9841	-962.51
0.0093,0.9907	-957.53
0.0141,0.9859	-979.30
0.0011,0.9989	-954.06
0.0246,0.9754	-978.71
0.0114,0.9886	-957.70
0.0164,0.9836	-954.37
0.0121,0.9879	-962.18
0.0125,0.9875	-957.83
0.0009,0.9991	-954.38
0.0276,0.9724	-964.64
0.0128,0.9872	-953.52
0.0156,0.9844	-970.76
0.0116,0.9884	-953.27
0.0114,0.9886	-957.70
0.0008,0.9992	-954.53
0.0270,0.9730	-968.08
0.0133,0.9867	-953.63
0.0140,0.9860	-962.31
0.0145,0.9855	-970.79
0.0159,0.9841	-958.38
0.0009,0.9991	-954.43
0.0276,0.9724	-978.88
0.0142,0.9858	-958.08
0.0128,0.9872	-957.88
0.0143,0.9857	-958.10
0.0163,0.9837	-966.65
0.0008,0.9992	-961.66
0.0292,0.9708	-965.00
0.0197,0.9803	-963.06
0.0124,0.9876	-957.82
0.0108,0.9892	-962.16
0.0134,0.9866	-957.95
0.0009,0.9991	-954.36
0.0345,0.9655	-962.97
0.0225,0.9775	-963.56
0.0115,0.9885	-957.71
0.0108,0.9892	-975.70
0.0148,0.9852	-970.78
0.0008,0.9992	-954.50
0.0317,0.9683	-962.19
0.0211,0.9789	-959.47
0.0112,0.9888	-957.68
0.0120,0.9880	-953.36
0.0204,0.9796	-959.31
0.0010,0.9990	-954.27
0.0246,0.9754	-967.67
0.0199,0.9801	-966.99
0.0131,0.9869	-966.56
0.0136,0.9864	-953.71
0.0175,0.9825	-954.67
0.0009,0.9991	-954.38
0.0293,0.9707	-965.03
0.0222,0.9778	-963.51
0.0152,0.9848	-958.25
0.0144,0.9856	-962.35
0.0168,0.9832	-962.62
0.0008,0.9992	-954.61
0.0281,0.9719	-978.92
0.0218,0.9782	-974.84
0.0198,0.9802	-959.18
0.0123,0.9877	-957.81
0.0163,0.9837	-962.55
0.0007,0.9993	-962.22
0.0277,0.9723	-964.66
0.0198,0.9802	-970.88
0.0200,0.9800	-963.11
0.0109,0.9891	-953.15
0.0171,0.9829	-962.66
0.0007,0.9993	-954.69
0.0219,0.9781	-963.45
0.0193,0.9807	-962.99
0.0189,0.9811	-966.87
0.0115,0.9885	-962.16
0.0162,0.9838	-966.65
0.0007,0.9993	-954.76
0.0184,0.9816	-962.85
0.0186,0.9814	-962.88
0.0151,0.9849	-958.23
0.0098,0.9902	-957.56
0.0186,0.9814	-958.91
0.0008,0.9992	-954.60
0.0167,0.9833	-970.76
0.0163,0.9837	-974.85
0.0122,0.9878	-957.80
0.0084,0.9916	-952.73
0.0190,0.9810	-958.99
0.0006,0.9994	-954.95
0.0162,0.9838	-962.54
0.0150,0.9850	-962.40
0.0119,0.9881	-962.18
0.0092,0.9908	-957.52
0.0187,0.9813	-962.89
0.0006,0.9994	-955.22
0.0159,0.9841	-962.50
0.0121,0.9879	-970.99
0.0146,0.9854	-958.15
0.0108,0.9892	-957.64
0.0166,0.9834	-954.43
0.0005,0.9995	-955.29
0.0159,0.9841	-954.26
0.0165,0.9835	-954.41
0.0141,0.9859	-953.83
0.0126,0.9874	-957.85
0.0164,0.9836	-958.47
0.0006,0.9994	-955.22
0.0161,0.9839	-954.30
0.0153,0.9847	-954.11
0.0145,0.9855	-962.35
0.0109,0.9891	-957.65
0.0150,0.9850	-970.77
0.0006,0.9994	-955.16
0.0149,0.9851	-962.39
0.0140,0.9860	-966.56
0.0131,0.9869	-953.60
0.0118,0.9882	-953.33
0.0163,0.9837	-958.45
0.0006,0.9994	-955.17
0.0148,0.9852	-966.58
0.0115,0.9885	-957.71
0.0123,0.9877	-957.80
0.0141,0.9859	-962.32
0.0134,0.9866	-962.26
0.0006,0.9994	-955.22
0.0135,0.9865	-962.27
0.0094,0.9906	-952.88
0.0121,0.9879	-953.37
0.0136,0.9864	-962.28
0.0118,0.9882	-962.18
0.0006,0.9994	-954.99
0.0212,0.9788	-959.50
0.0076,0.9924	-952.63
0.0125,0.9875	-953.46
0.0125,0.9875	-966.57
0.0160,0.9840	-966.64
0.0006,0.9994	-955.11
0.0208,0.9792	-963.26
0.0067,0.9933	-952.54
0.0109,0.9891	-957.64
0.0130,0.9870	-957.90
0.0127,0.9873	-970.92
0.0005,0.9995	-955.25
0.0180,0.9820	-954.79
0.0073,0.9927	-952.60
0.0129,0.9871	-957.88
0.0150,0.9850	-958.22
0.0159,0.9841	-970.76
0.0005,0.9995	-955.53
0.0159,0.9841	-966.63
0.0077,0.9923	-957.50
0.0149,0.9851	-958.20
0.0145,0.9855	-970.79
0.0145,0.9855	-953.92
0.0005,0.9995	-955.57
0.0125,0.9875	-953.46
0.0081,0.9919	-952.69
0.0158,0.9842	-962.49
0.0141,0.9859	-966.56
0.0140,0.9860	-962.31
0.0005,0.9995	-963.22
0.0123,0.9877	-953.43
0.0090,0.9910	-962.21
0.0157,0.9843	-954.20
0.0121,0.9879	-957.79
0.0196,0.9804	-963.04
0.0004,0.9996	-955.70
0.0146,0.9854	-958.15
0.0096,0.9904	-957.54
0.0117,0.9883	-962.17
0.0118,0.9882	-957.75
0.0153,0.9847	-954.10
0.0004,0.9996	-955.87
0.0124,0.9876	-962.20
0.0086,0.9914	-957.50
0.0154,0.9846	-954.12
0.0089,0.9911	-962.22
0.0184,0.9816	-966.82
0.0004,0.9996	-955.76
0.0129,0.9871	-953.54
0.0071,0.9929	-962.46
0.0169,0.9831	-958.57
0.0092,0.9908	-957.52
0.0200,0.9800	-967.00
0.0005,0.9995	-955.60
0.0128,0.9872	-957.87
0.0080,0.9920	-957.49
0.0146,0.9854	-962.37
0.0082,0.9918	-957.50
0.0273,0.9727	-964.57
0.0004,0.9996	-956.01
0.0097,0.9903	-957.55
0.0094,0.9906	-957.53
0.0138,0.9862	-962.29
0.0082,0.9918	-952.70
0.0225,0.9775	-963.56
0.0003,0.9997	-964.14
0.0078,0.9922	-962.34
0.0085,0.9915	-962.25
0.0209,0.9791	-959.41
0.0068,0.9932	-952.55
0.0173,0.9827	-958.64
0.0003,0.9997	-956.50
0.0080,0.9920	-957.49
0.0106,0.9894	-962.16
0.0259,0.9741	-967.88
0.0075,0.9925	-962.39
0.0222,0.9778	-978.65
0.0003,0.9997	-956.52
0.0094,0.9906	-962.19
0.0089,0.9911	-957.51
0.0275,0.9725	-964.61
0.0075,0.9925	-952.62
0.0210,0.9790	-967.13
0.0003,0.9997	-956.55
0.0099,0.9901	-952.96
0.0096,0.9904	-957.54
0.0253,0.9747	-960.48
0.0074,0.9926	-952.61
0.0227,0.9773	-963.60
0.0003,0.9997	-956.54
0.0080,0.9920	-952.67
0.0099,0.9901	-952.96
0.0293,0.9707	-961.53
0.0065,0.9935	-967.63
0.0227,0.9773	-963.61
0.0003,0.9997	-956.45
0.0089,0.9911	-962.23
0.0090,0.9910	-962.21
0.0312,0.9688	-975.78
0.0068,0.9932	-952.55
0.0180,0.9820	-958.79
0.0003,0.9997	-956.29
0.0106,0.9894	-957.62
0.0081,0.9919	-952.68
0.0238,0.9762	-963.82
0.0079,0.9921	-957.49
0.0160,0.9840	-970.75
0.0004,0.9996	-955.99
0.0088,0.9912	-962.23
0.0070,0.9930	-957.52
0.0209,0.9791	-970.96
0.0123,0.9877	-970.96
0.0192,0.9808	-970.84
0.0003,0.9997	-956.12
0.0085,0.9915	-952.75
0.0054,0.9946	-952.49
0.0215,0.9785	-963.37
0.0130,0.9870	-953.58
0.0198,0.9802	-966.98
0.0004,0.9996	-955.85
0.0100,0.9900	-957.57
0.0063,0.9937	-952.51
0.0201,0.9799	-967.01
0.0102,0.9898	-962.16
0.0199,0.9801	-959.20
0.0004,0.9996	-955.68
0.0079,0.9921	-952.66
0.0075,0.9925	-952.62
0.0243,0.9757	-967.62
0.0096,0.9904	-952.91
0.0220,0.9780	-963.47
0.0004,0.9996	-955.73
0.0081,0.9919	-957.49
0.0073,0.9927	-952.60
0.0173,0.9827	-954.61
0.0100,0.9900	-952.98
0.0223,0.9777	-967.30
0.0004,0.9996	-955.72
0.0100,0.9900	-957.57
0.0075,0.9925	-952.62
0.0169,0.9831	-954.49
0.0116,0.9884	-957.73
0.0198,0.9802	-970.88
0.0005,0.9995	-955.56
0.0107,0.9893	-953.10
0.0081,0.9919	-962.30
0.0172,0.9828	-966.72
0.0136,0.9864	-953.71
0.0179,0.9821	-958.78
0.0003,0.9997	-956.08
0.0112,0.9888	-957.68
0.0075,0.9925	-967.27
0.0190,0.9810	-955.05
0.0117,0.9883	-957.73
0.0200,0.9800	-967.00
0.0003,0.9997	-956.43
0.0114,0.9886	-966.63
0.0073,0.9927	-957.51
0.0287,0.9713	-971.94
0.0141,0.9859	-966.56
0.0184,0.9816	-966.83
0.0004,0.9996	-955.97
0.0119,0.9881	-966.60
0.0087,0.9913	-952.76
0.0275,0.9725	-964.62
0.0106,0.9894	-962.16
0.0208,0.9792	-982.51
0.0005,0.9995	-955.37
0.0164,0.9836	-958.47
0.0092,0.9908	-966.87
0.0234,0.9766	-967.47
0.0094,0.9906	-952.88
0.0154,0.9846	-962.44
0.0005,0.9995	-955.33
0.0155,0.9845	-962.46
0.0091,0.9909	-962.21
0.0234,0.9766	-982.40
0.0113,0.9887	-966.64
0.0167,0.9833	-958.52
0.0005,0.9995	-955.40
0.0146,0.9854	-953.94
0.0094,0.9906	-952.88
0.0228,0.9772	-956.12
0.0109,0.9891	-962.16
0.0145,0.9855	-953.92
0.0005,0.9995	-955.53
0.0150,0.9850	-966.59
0.0106,0.9894	-962.16
0.0190,0.9810	-962.94
0.0112,0.9888	-957.68
0.0119,0.9881	-953.35
0.0005,0.9995	-955.27
0.0193,0.9807	-959.07
0.0106,0.9894	-953.08
0.0178,0.9822	-962.76
0.0109,0.9891	-953.14
0.0141,0.9859	-958.06
0.0007,0.9993	-954.93
0.0143,0.9857	-966.57
0.0113,0.9887	-957.69
0.0177,0.9823	-958.72
0.0107,0.9893	-962.16
0.0119,0.9881	-957.76
0.0006,0.9994	-954.99
0.0157,0.9843	-962.48
0.0124,0.9876	-962.20
0.0186,0.9814	-958.92
0.0121,0.9879	-957.78
0.0140,0.9860	-975.08
0.0006,0.9994	-955.14
0.0130,0.9870	-962.23
0.0165,0.9835	-958.50
0.0177,0.9823	-962.74
0.0144,0.9856	-966.57
0.0125,0.9875	-957.83
0.0007,0.9993	-954.93
0.0135,0.9865	-957.98
0.0161,0.9839	-958.42
0.0162,0.9838	-962.54
0.0119,0.9881	-953.34
0.0116,0.9884	-957.73
0.0007,0.9993	-954.84
0.0146,0.9854	-962.36
0.0164,0.9836	-958.47
0.0159,0.9841	-954.26
0.0128,0.9872	-966.56
0.0126,0.9874	-966.57
0.0008,0.9992	-954.66
0.0107,0.9893	-957.63
0.0175,0.9825	-962.71
0.0159,0.9841	-966.63
0.0105,0.9895	-957.61
0.0126,0.9874	-957.85
0.0008,0.9992	-954.63
0.0109,0.9891	-962.16
0.0158,0.9842	-966.63
0.0163,0.9837	-958.46
0.0127,0.9873	-957.86
0.0145,0.9855	-953.91
0.0007,0.9993	-954.83
0.0111,0.9889	-957.67
0.0151,0.9849	-958.23
0.0188,0.9812	-958.96
0.0093,0.9907	-962.19
0.0178,0.9822	-954.73
0.0006,0.9994	-955.00
0.0102,0.9898	-953.01
0.0164,0.9836	-954.38
0.0158,0.9842	-958.36
0.0102,0.9898	-953.01
0.0187,0.9813	-958.94
0.0006,0.9994	-955.15
0.0096,0.9904	-957.54
0.0181,0.9819	-970.79
0.0139,0.9861	-962.30
0.0101,0.9899	-957.58
0.0186,0.9814	-974.78
0.0006,0.9994	-954.99
0.0125,0.9875	-966.57
0.0167,0.9833	-966.68
0.0152,0.9848	-966.59
0.0117,0.9883	-966.61
0.0190,0.9810	-962.94
0.0006,0.9994	-955.09
0.0094,0.9906	-952.88
0.0146,0.9854	-953.93
0.0155,0.9845	-954.16
0.0091,0.9909	-952.82
0.0180,0.9820	-966.79
0.0007,0.9993	-954.94
0.0072,0.9928	-957.51
0.0108,0.9892	-957.64
0.0165,0.9835	-962.58
0.0097,0.9903	-966.80
0.0161,0.9839	-974.87
0.0009,0.9991	-954.35
0.0081,0.9919	-952.68
0.0116,0.9884	-962.17
0.0167,0.9833	-962.61
0.0092,0.9908	-952.84
0.0162,0.9838	-958.43
0.0009,0.9991	-954.43
0.0085,0.9915	-957.50
0.0101,0.9899	-957.58
0.0181,0.9819	-970.79
0.0089,0.9911	-952.79
0.0145,0.9855	-958.13
0.0006,0.9994	-955.02
0.0074,0.9926	-962.40
0.0102,0.9898	-953.01
0.0165,0.9835	-966.67
0.0092,0.9908	-962.20
0.0112,0.9888	-957.68
0.0008,0.9992	-954.64
0.0076,0.9924	-952.63
0.0097,0.9903	-962.18
0.0205,0.9795	-963.19
0.0099,0.9901	-962.17
0.0104,0.9896	-957.60
0.0007,0.9993	-954.74
0.0070,0.9930	-952.57
0.0114,0.9886	-975.56
0.0211,0.9789	-959.47
0.0098,0.9902	-957.56
0.0103,0.9897	-957.60
0.0008,0.9992	-961.84
0.0075,0.9925	-962.39
0.0121,0.9879	-966.59
0.0198,0.9802	-966.98
0.0110,0.9890	-962.16
0.0099,0.9901	-962.17
0.0009,0.9991	-954.41
0.0069,0.9931	-952.56
0.0107,0.9893	-953.11
0.0209,0.9791	-967.12
0.0130,0.9870	-962.23
0.0111,0.9889	-957.67
0.0010,0.9990	-954.24
0.0062,0.9938	-962.65
0.0110,0.9890	-957.66
0.0206,0.9794	-959.36
0.0108,0.9892	-975.70
0.0108,0.9892	-957.64
0.0008,0.9992	-954.57
0.0067,0.9933	-952.54
0.0106,0.9894	-953.08
0.0178,0.9822	-962.75
0.0120,0.9880	-957.77
0.0093,0.9907	-957.53
0.0010,0.9990	-954.26
0.0053,0.9947	-957.73
0.0120,0.9880	-962.18
0.0191,0.9809	-955.09
0.0148,0.9852	-958.19
0.0097,0.9903	-957.55
0.0009,0.9991	-954.33
0.0048,0.9952	-952.50
0.0110,0.9890	-957.66
0.0210,0.9790	-967.12
0.0152,0.9848	-958.25
0.0093,0.9907	-957.53
0.0010,0.9990	-954.29
0.0053,0.9947	-957.72
0.0144,0.9856	-958.12
0.0200,0.9800	-970.90
0.0124,0.9876	-957.82
0.0128,0.9872	-966.56
0.0010,0.9990	-961.00
0.0049,0.9951	-952.49
0.0105,0.9895	-962.16
0.0191,0.9809	-962.95
0.0129,0.9871	-962.22
0.0163,0.9837	-962.56
0.0010,0.9990	-954.15
0.0059,0.9941	-957.62
0.0093,0.9907	-957.53
0.0180,0.9820	-954.78
0.0147,0.9853	-953.96
0.0197,0.9803	-959.14
0.0011,0.9989	-954.07
0.0051,0.9949	-952.49
0.0112,0.9888	-953.20
0.0158,0.9842	-958.36
0.0157,0.9843	-970.76
0.0170,0.9830	-966.70
0.0010,0.9990	-954.25
0.0063,0.9937	-957.58
0.0113,0.9887	-957.69
0.0194,0.9806	-970.86
0.0210,0.9790	-974.81
0.0155,0.9845	-962.46
0.0011,0.9989	-954.02
0.0068,0.9932	-952.55
0.0115,0.9885	-953.27
0.0148,0.9852	-958.19
0.0192,0.9808	-966.91
0.0186,0.9814	-970.81
0.0011,0.9989	-960.85
0.0054,0.9946	-952.49
0.0092,0.9908	-966.88
0.0164,0.9836	-962.57
0.0215,0.9785	-963.38
0.0214,0.9786	-963.35
0.0015,0.9985	-953.58
0.0058,0.9942	-962.79
0.0080,0.9920	-952.67
0.0156,0.9844	-958.32
0.0266,0.9734	-968.01
0.0255,0.9745	-967.81
0.0018,0.9982	-959.64
0.0058,0.9942	-952.49
0.0093,0.9907	-952.86
0.0160,0.9840	-958.41
0.0344,0.9656	-962.93
0.0243,0.9757	-960.23
0.0022,0.9978	-953.09
0.0056,0.9944	-957.67
0.0089,0.9911	-957.51
0.0145,0.9855	-953.92
0.0305,0.9695	-979.15
0.0312,0.9688	-965.49
0.0023,0.9977	-953.04
0.0068,0.9932	-957.54
0.0127,0.9873	-957.85
0.0144,0.9856	-962.34
0.0303,0.9697	-982.59
0.0211,0.9789	-967.15
0.0025,0.9975	-958.91
0.0066,0.9934	-957.55
0.0127,0.9873	-962.21
0.0140,0.9860	-966.56
0.0366,0.9634	-979.92
0.0204,0.9796	-959.30
0.0023,0.9977	-959.14
0.0066,0.9934	-957.55
0.0125,0.9875	-953.46
0.0118,0.9882	-966.60
0.0341,0.9659	-972.88
0.0146,0.9854	-962.36
0.0024,0.9976	-952.97
0.0061,0.9939	-957.60
0.0125,0.9875	-966.57
0.0103,0.9897	-962.16
0.0331,0.9669	-972.69
0.0133,0.9867	-966.56
0.0028,0.9972	-958.67
0.0056,0.9944	-957.67
0.0114,0.9886	-957.70
0.0111,0.9889	-953.19
0.0283,0.9717	-968.34
0.0125,0.9875	-953.46
0.0031,0.9969	-952.75
0.0049,0.9951	-963.11
0.0135,0.9865	-957.97
0.0104,0.9896	-962.16
0.0297,0.9703	-972.10
0.0103,0.9897	-957.59
0.0030,0.9970	-952.76
0.0046,0.9954	-952.51
0.0153,0.9847	-962.43
0.0106,0.9894	-957.62
0.0258,0.9742	-971.51
0.0116,0.9884	-962.17
0.0037,0.9963	-952.60
0.0047,0.9953	-963.19
0.0164,0.9836	-962.57
0.0118,0.9882	-953.33
0.0294,0.9706	-972.05
0.0110,0.9890	-953.16
0.0046,0.9954	-957.88
0.0052,0.9948	-957.75
0.0176,0.9824	-962.73
0.0132,0.9868	-966.56
0.0291,0.9709	-975.51
0.0147,0.9853	-966.58
0.0062,0.9938	-952.51
0.0050,0.9950	-952.49
0.0162,0.9838	-966.65
0.0131,0.9869	-962.24
0.0372,0.9628	-970.26
0.0155,0.9845	-962.46
0.0074,0.9926	-957.50
0.0048,0.9952	-957.83
0.0123,0.9877	-962.20
0.0129,0.9871	-953.55
0.0347,0.9653	-963.03
0.0142,0.9858	-958.08
0.0081,0.9919	-952.68
0.0057,0.9943	-962.81
0.0132,0.9868	-957.93
0.0106,0.9894	-962.16
0.0298,0.9702	-965.15
0.0156,0.9844	-962.47
0.0070,0.9930	-962.48
0.0055,0.9945	-962.89
0.0079,0.9921	-962.33
0.0123,0.9877	-957.80
0.0318,0.9682	-969.04
0.0182,0.9818	-970.80
0.0074,0.9926	-957.50
0.0051,0.9949	-952.49
0.0128,0.9872	-966.57
0.0132,0.9868	-962.25
0.0319,0.9681	-965.64
0.0182,0.9818	-954.83
0.0086,0.9914	-962.25
0.0065,0.9935	-952.53
0.0120,0.9880	-953.35
0.0113,0.9887	-962.16
0.0253,0.9747	-956.82
0.0135,0.9865	-957.98
0.0070,0.9930	-957.52
0.0062,0.9938	-952.51
0.0130,0.9870	-957.91
0.0118,0.9882	-953.32
0.0272,0.9728	-971.71
0.0139,0.9861	-958.05
0.0091,0.9909	-957.52
0.0069,0.9931	-952.56
0.0126,0.9874	-966.57
0.0094,0.9906	-957.53
0.0228,0.9772	-963.62
0.0171,0.9829	-962.66
0.0091,0.9909	-966.90
0.0082,0.9918	-952.69
0.0128,0.9872	-957.87
0.0097,0.9903	-966.81
0.0278,0.9722	-986.01
0.0185,0.9815	-958.89
0.0119,0.9881	-953.33
0.0094,0.9906	-952.88
0.0126,0.9874	-962.21
0.0091,0.9909	-952.82
0.0260,0.9740	-967.90
0.0240,0.9760	-960.15
0.0101,0.9899	-957.58
0.0126,0.9874	-975.29
0.0152,0.9848	-958.25
0.0127,0.9873	-953.50
0.0257,0.9743	-978.76
0.0265,0.9735	-971.60
0.0093,0.9907	-957.53
0.0115,0.9885	-962.16
0.0185,0.9815	-966.84
0.0172,0.9828	-954.57
0.0231,0.9769	-967.43
0.0216,0.9784	-955.77
0.0093,0.9907	-957.53
0.0187,0.9813	-966.86
0.0151,0.9849	-966.59
0.0168,0.9832	-970.76
0.0193,0.9807	-963.00
0.0186,0.9814	-962.88
0.0087,0.9913	-957.50
0.0188,0.9812	-958.95
0.0148,0.9852	-953.98
0.0147,0.9853	-962.37
0.0188,0.9812	-966.87
0.0187,0.9813	-962.89
0.0100,0.9900	-957.57
0.0183,0.9817	-958.85
0.0138,0.9862	-953.76
0.0125,0.9875	-970.94
0.0160,0.9840	-970.75
0.0172,0.9828	-958.63
0.0112,0.9888	-957.68
0.0229,0.9771	-967.39
0.0118,0.9882	-953.33
0.0114,0.9886	-962.16
0.0188,0.9812	-955.01
0.0202,0.9798	-970.91
0.0095,0.9905	-957.54
0.0238,0.9762	-960.10
0.0114,0.9886	-957.70
0.0150,0.9850	-958.21
0.0194,0.9806	-959.09
0.0204,0.9796	-959.32
0.0116,0.9884	-957.72
0.0251,0.9749	-971.40
0.0139,0.9861	-970.82
0.0149,0.9851	-958.20
0.0203,0.9797	-959.29
0.0257,0.9743	-967.85
0.0157,0.9843	-958.34
0.0187,0.9813	-966.86
0.0114,0.9886	-962.16
0.0167,0.9833	-954.44
0.0144,0.9856	-970.80
0.0194,0.9806	-959.08
0.0145,0.9855	-966.57
0.0180,0.9820	-974.79
0.0139,0.9861	-970.82
0.0152,0.9848	-970.77
0.0171,0.9829	-962.66
0.0213,0.9787	-963.34
0.0150,0.9850	-970.77
0.0184,0.9816	-970.80
0.0133,0.9867	-953.64
0.0177,0.9823	-962.74
0.0168,0.9832	-954.48
0.0159,0.9841	-970.76
0.0127,0.9873	-962.21
0.0195,0.9805	-963.03
0.0169,0.9831	-958.57
0.0191,0.9809	-955.07
0.0166,0.9834	-966.67
0.0212,0.9788	-963.32
0.0129,0.9871	-962.23
0.0205,0.9795	-955.46
0.0135,0.9865	-953.68
0.0138,0.9862	-958.01
0.0142,0.9858	-979.30
0.0233,0.9767	-956.25
0.0164,0.9836	-962.56
0.0254,0.9746	-971.45
0.0138,0.9862	-966.56
0.0112,0.9888	-953.20
0.0153,0.9847	-966.60
0.0215,0.9785	-959.55
0.0143,0.9857	-958.11
0.0251,0.9749	-964.09
0.0120,0.9880	-953.36
0.0127,0.9873	-962.22
0.0156,0.9844	-954.18
0.0209,0.9791	-974.81
0.0141,0.9859	-962.31
0.0219,0.9781	-963.46
0.0150,0.9850	-954.04
0.0118,0.9882	-957.74
0.0188,0.9812	-958.96
0.0170,0.9830	-962.64
0.0132,0.9868	-962.24
0.0230,0.9770	-967.41
0.0113,0.9887	-953.21
0.0105,0.9895	-957.61
0.0203,0.9797	-970.91
0.0174,0.9826	-962.71
0.0139,0.9861	-970.82
0.0211,0.9789	-959.46
0.0109,0.9891	-953.14
0.0111,0.9889	-962.16
0.0147,0.9853	-958.16
0.0153,0.9847	-966.60
0.0155,0.9845	-962.46
0.0184,0.9816	-962.85
0.0135,0.9865	-962.26
0.0086,0.9914	-957.50
0.0150,0.9850	-962.41
0.0142,0.9858	-962.33
0.0168,0.9832	-958.54
0.0187,0.9813	-958.93
0.0117,0.9883	-962.17
0.0089,0.9911	-966.94
0.0143,0.9857	-958.10
0.0100,0.9900	-957.57
0.0147,0.9853	-953.97
0.0194,0.9806	-970.86
0.0078,0.9922	-976.86
0.0077,0.9923	-952.63
0.0146,0.9854	-962.36
0.0098,0.9902	-966.78
0.0132,0.9868	-957.93
0.0194,0.9806	-955.17
0.0057,0.9943	-952.49
0.0081,0.9919	-952.68
0.0139,0.9861	-966.56
0.0106,0.9894	-957.62
0.0149,0.9851	-962.39
0.0179,0.9821	-958.77
0.0064,0.9936	-962.61
0.0081,0.9919	-952.69
0.0151,0.9849	-962.42
0.0127,0.9873	-953.50
0.0173,0.9827	-966.72
0.0169,0.9831	-954.52
0.0066,0.9934	-962.57
0.0070,0.9930	-952.56
0.0167,0.9833	-966.68
0.0137,0.9863	-975.11
0.0147,0.9853	-953.96
0.0130,0.9870	-966.56
0.0080,0.9920	-957.49
0.0068,0.9932	-952.55
0.0184,0.9816	-954.90
0.0120,0.9880	-962.18
0.0158,0.9842	-958.37
0.0132,0.9868	-966.56
0.0098,0.9902	-952.94
0.0078,0.9922	-962.34
0.0166,0.9834	-958.50
0.0148,0.9852	-953.99
0.0154,0.9846	-954.13
0.0112,0.9888	-975.60
0.0140,0.9860	-953.79
0.0069,0.9931	-952.56
0.0204,0.9796	-967.05
0.0156,0.9844	-983.19
0.0146,0.9854	-958.15
0.0111,0.9889	-957.67
0.0155,0.9845	-958.31
0.0077,0.9923	-952.64
0.0161,0.9839	-962.53
0.0154,0.9846	-954.13
0.0150,0.9850	-966.59
0.0116,0.9884	-957.72
0.0138,0.9862	-958.02
0.0070,0.9930	-967.43
0.0163,0.9837	-978.95
0.0141,0.9859	-953.82
0.0140,0.9860	-966.56
0.0106,0.9894	-966.69
0.0129,0.9871	-966.56
0.0070,0.9930	-957.52
0.0154,0.9846	-962.45
0.0138,0.9862	-953.75
0.0134,0.9866	-966.56
0.0123,0.9877	-957.81
0.0143,0.9857	-958.10
0.0065,0.9935	-952.53
0.0159,0.9841	-958.38
0.0131,0.9869	-953.60
0.0127,0.9873	-966.57
0.0148,0.9852	-966.58
0.0154,0.9846	-962.45
0.0064,0.9936	-952.52
0.0178,0.9822	-958.76
0.0108,0.9892	-962.16
0.0127,0.9873	-957.87
0.0132,0.9868	-966.56
0.0202,0.9798	-963.14
0.0050,0.9950	-952.49
0.0170,0.9830	-962.64
0.0101,0.9899	-966.75
0.0112,0.9888	-957.68
0.0122,0.9878	-953.40
0.0155,0.9845	-966.61
0.0041,0.9959	-952.55
0.0144,0.9856	-966.57
0.0107,0.9893	-957.63
0.0133,0.9867	-962.25
0.0147,0.9853	-958.17
0.0160,0.9840	-962.52
0.0039,0.9961	-952.57
0.0126,0.9874	-962.21
0.0108,0.9892	-957.64
0.0134,0.9866	-966.56
0.0186,0.9814	-958.91
0.0190,0.9810	-962.95
0.0040,0.9960	-952.56
0.0145,0.9855	-958.13
0.0107,0.9893	-966.69
0.0151,0.9849	-958.23
0.0175,0.9825	-962.71
0.0210,0.9790	-963.29
0.0042,0.9958	-952.54
0.0124,0.9876	-957.82
0.0114,0.9886	-953.23
0.0155,0.9845	-958.31
0.0174,0.9826	-954.62
0.0178,0.9822	-962.76
0.0052,0.9948	-957.74
0.0090,0.9910	-952.82
0.0114,0.9886	-962.16
0.0182,0.9818	-966.81
0.0190,0.9810	-966.88
0.0223,0.9777	-959.75
0.0048,0.9952	-968.48
0.0092,0.9908	-952.85
0.0127,0.9873	-966.57
0.0199,0.9801	-970.89
0.0146,0.9854	-966.57
0.0236,0.9764	-967.51
0.0054,0.9946	-952.49
0.0138,0.9862	-958.03
0.0126,0.9874	-962.21
0.0233,0.9767	-959.99
0.0127,0.9873	-957.87
0.0247,0.9753	-960.33
0.0042,0.9958	-952.54
0.0177,0.9823	-966.76
0.0125,0.9875	-962.20
0.0225,0.9775	-959.80
0.0121,0.9879	-957.78
0.0197,0.9803	-963.06
0.0048,0.9952	-952.50
0.0144,0.9856	-958.12
0.0138,0.9862	-958.01
0.0213,0.9787	-974.82
0.0140,0.9860	-962.31
0.0213,0.9787	-967.16
0.0046,0.9954	-957.89
0.0137,0.9863	-958.01
0.0128,0.9872	-957.87
0.0163,0.9837	-958.46
0.0110,0.9890	-957.66
0.0273,0.9727	-978.87
0.0044,0.9956	-952.52
0.0124,0.9876	-957.82
0.0119,0.9881	-957.76
0.0138,0.9862	-962.29
0.0115,0.9885	-957.71
0.0252,0.9748	-975.08
0.0047,0.9953	-963.21
0.0129,0.9871	-970.90
0.0101,0.9899	-962.16
0.0121,0.9879	-966.59
0.0126,0.9874	-966.57
0.0208,0.9792	-967.10
0.0051,0.9949	-957.76
0.0155,0.9845	-958.31
0.0124,0.9876	-957.82
0.0147,0.9853	-953.97
0.0101,0.9899	-962.16
0.0183,0.9817	-954.87
0.0044,0.9956	-957.94
0.0180,0.9820	-962.79
0.0112,0.9888	-957.68
0.0153,0.9847	-958.27
0.0106,0.9894	-957.62
0.0154,0.9846	-962.45
0.0037,0.9963	-952.60
0.0173,0.9827	-958.65
0.0148,0.9852	-962.38
0.0137,0.9863	-962.28
0.0110,0.9890	-966.66
0.0140,0.9860	-958.05
0.0032,0.9968	-952.70
0.0178,0.9822	-962.76
0.0115,0.9885	-953.27
0.0136,0.9864	-983.68
0.0094,0.9906	-957.53
0.0167,0.9833	-966.68
0.0029,0.9971	-958.64
0.0203,0.9797	-959.28
0.0116,0.9884	-962.17
0.0126,0.9874	-962.21
0.0084,0.9916	-952.73
0.0138,0.9862	-962.29
0.0024,0.9976	-952.98
0.0203,0.9797	-967.04
0.0115,0.9885	-962.17
0.0151,0.9849	-954.05
0.0071,0.9929	-952.58
0.0130,0.9870	-957.91
0.0018,0.9982	-953.33
0.0225,0.9775	-967.33
0.0129,0.9871	-957.89
0.0139,0.9861	-975.08
0.0080,0.9920	-957.49
0.0136,0.9864	-957.99
0.0016,0.9984	-953.54
0.0216,0.9784	-974.84
0.0127,0.9873	-957.86
0.0136,0.9864	-957.99
0.0069,0.9931	-957.53
0.0129,0.9871	-979.58
0.0023,0.9977	-953.04
0.0211,0.9789	-974.81
0.0127,0.9873	-957.87
0.0113,0.9887	-957.69
0.0054,0.9946	-957.71
0.0132,0.9868	-962.24
0.0028,0.9972	-952.84
0.0172,0.9828	-966.72
0.0118,0.9882	-962.17
0.0122,0.9878	-962.19
0.0053,0.9947	-962.97
0.0146,0.9854	-966.57
0.0025,0.9975	-958.96
0.0179,0.9821	-962.77
0.0115,0.9885	-966.62
0.0114,0.9886	-953.24
0.0063,0.9937	-957.58
0.0128,0.9872	-953.53
0.0025,0.9975	-958.92
0.0167,0.9833	-966.68
0.0110,0.9890	-953.15
0.0112,0.9888	-962.16
0.0056,0.9944	-952.49
0.0166,0.9834	-962.59
0.0025,0.9975	-952.92
0.0186,0.9814	-954.96
0.0110,0.9890	-980.15
0.0146,0.9854	-962.37
0.0056,0.9944	-952.49
0.0174,0.9826	-966.73
0.0016,0.9984	-959.91
0.0163,0.9837	-970.75
0.0111,0.9889	-962.16
0.0139,0.9861	-953.77
0.0068,0.9932	-957.54
0.0192,0.9808	-959.03
0.0015,0.9985	-953.56
0.0153,0.9847	-958.28
0.0114,0.9886	-953.24
0.0143,0.9857	-966.57
0.0078,0.9922	-957.50
0.0200,0.9800	-959.21
0.0020,0.9980	-959.44
0.0143,0.9857	-958.10
0.0116,0.9884	-957.72
0.0135,0.9865	-957.98
0.0098,0.9902	-952.94
0.0243,0.9757	-967.62
0.0020,0.9980	-959.44
0.0114,0.9886	-957.71
0.0120,0.9880	-966.59
0.0136,0.9864	-970.85
0.0097,0.9903	-952.92
0.0279,0.9721	-975.36
0.0023,0.9977	-953.05
0.0116,0.9884	-957.72
0.0143,0.9857	-953.87
0.0180,0.9820	-970.79
0.0117,0.9883	-953.30
0.0208,0.9792	-970.95
0.0021,0.9979	-953.17
0.0093,0.9907	-952.86
0.0131,0.9869	-975.21
0.0198,0.9802	-963.08
0.0156,0.9844	-954.17
0.0186,0.9814	-962.89
0.0016,0.9984	-953.46
0.0095,0.9905	-962.19
0.0118,0.9882	-957.75
0.0148,0.9852	-958.19
0.0115,0.9885	-971.07
0.0205,0.9795	-970.93
0.0016,0.9984	-959.91
0.0103,0.9897	-962.16
0.0103,0.9897	-953.02
0.0129,0.9871	-957.88
0.0100,0.9900	-957.57
0.0164,0.9836	-966.66
0.0015,0.9985	-953.55
0.0118,0.9882	-966.60
0.0117,0.9883	-957.74
0.0108,0.9892	-962.16
0.0098,0.9902	-952.93
0.0147,0.9853	-958.17
0.0014,0.9986	-953.66
0.0118,0.9882	-957.75
0.0166,0.9834	-954.42
0.0068,0.9932	-957.54
0.0113,0.9887	-953.22
0.0115,0.9885	-953.25
0.0010,0.9990	-954.16
0.0113,0.9887	-971.10
0.0191,0.9809	-962.96
0.0070,0.9930	-952.57
0.0102,0.9898	-953.01
0.0097,0.9903	-952.92
0.0013,0.9987	-953.78
0.0116,0.9884	-962.17
0.0214,0.9786	-959.53
0.0071,0.9929	-952.57
0.0102,0.9898	-957.59
0.0090,0.9910	-952.82
0.0013,0.9987	-960.52
0.0145,0.9855	-970.79
0.0202,0.9798	-967.02
0.0071,0.9929	-957.52
0.0101,0.9899	-953.00
0.0081,0.9919	-952.68
0.0013,0.9987	-953.82
0.0122,0.9878	-957.80
0.0228,0.9772	-956.10
0.0065,0.9935	-957.56
0.0111,0.9889	-962.16
0.0089,0.9911	-952.79
0.0012,0.9988	-953.91
0.0157,0.9843	-958.34
0.0235,0.9765	-971.21
0.0069,0.9931	-957.53
0.0090,0.9910	-962.22
0.0089,0.9911	-966.94
0.0011,0.9989	-954.11
0.0200,0.9800	-978.68
0.0240,0.9760	-971.27
0.0072,0.9928	-957.51
0.0106,0.9894	-966.69
0.0094,0.9906	-971.51
0.0009,0.9991	-954.39
0.0183,0.9817	-954.86
0.0220,0.9780	-963.46
0.0095,0.9905	-957.54
0.0102,0.9898	-953.00
0.0092,0.9908	-952.85
0.0011,0.9989	-954.05
0.0207,0.9793	-963.23
0.0208,0.9792	-967.11
0.0100,0.9900	-952.98
0.0120,0.9880	-957.77
0.0097,0.9903	-952.92
0.0012,0.9988	-953.93
0.0217,0.9783	-967.22
0.0275,0.9725	-989.58
0.0101,0.9899	-952.99
0.0091,0.9909	-957.52
0.0085,0.9915	-952.75
0.0015,0.9985	-953.59
0.0188,0.9812	-958.96
0.0280,0.9720	-964.73
0.0087,0.9913	-952.76
0.0085,0.9915	-967.02
0.0107,0.9893	-957.63
0.0019,0.9981	-959.58
0.0208,0.9792	-959.40
0.0250,0.9750	-971.40
0.0076,0.9924	-957.50
0.0094,0.9906	-957.53
0.0091,0.9909	-957.52
0.0017,0.9983	-953.41
0.0224,0.9776	-971.10
0.0222,0.9778	-967.29
0.0100,0.9900	-952.97
0.0122,0.9878	-966.58
0.0081,0.9919	-957.49
0.0025,0.9975	-952.96
0.0152,0.9848	-958.25
0.0182,0.9818	-962.82
0.0078,0.9922	-952.65
0.0121,0.9879	-957.78
0.0096,0.9904	-952.90
0.0025,0.9975	-952.93
0.0137,0.9863	-962.28
0.0174,0.9826	-974.80
0.0070,0.9930	-957.52
0.0123,0.9877	-962.20
0.0080,0.9920	-962.32
0.0018,0.9982	-959.66
0.0123,0.9877	-957.81
0.0151,0.9849	-962.41
0.0051,0.9949	-963.04
0.0136,0.9864	-958.00
0.0072,0.9928	-952.58
0.0018,0.9982	-953.33
0.0104,0.9896	-957.60
0.0113,0.9887	-966.63
0.0039,0.9961	-952.57
0.0113,0.9887	-966.63
0.0080,0.9920	-957.49
0.0024,0.9976	-959.04
0.0103,0.9897	-957.59
0.0116,0.9884	-957.73
0.0041,0.9959	-958.04
0.0104,0.9896	-957.60
0.0074,0.9926	-957.50
0.0023,0.9977	-959.15
0.0088,0.9912	-962.23
0.0118,0.9882	-953.32
0.0042,0.9958	-963.50
0.0112,0.9888	-966.64
0.0085,0.9915	-957.50
0.0020,0.9980	-953.18
0.0109,0.9891	-962.16
0.0087,0.9913	-962.24
0.0053,0.9947	-957.71
0.0125,0.9875	-962.20
0.0120,0.9880	-962.18
0.0023,0.9977	-953.03
0.0115,0.9885	-957.71
0.0093,0.9907	-957.53
0.0054,0.9946	-952.49
0.0144,0.9856	-966.57
0.0114,0.9886	-962.16
0.0025,0.9975	-952.94
0.0120,0.9880	-979.83
0.0092,0.9908	-957.52
0.0055,0.9945	-952.49
0.0142,0.9858	-962.33
0.0105,0.9895	-962.16
0.0022,0.9978	-953.06
0.0111,0.9889	-957.67
0.0110,0.9890	-962.16
0.0063,0.9937	-952.51
0.0158,0.9842	-962.49
0.0112,0.9888	-957.68
0.0024,0.9976	-953.00
0.0093,0.9907	-957.53
0.0104,0.9896	-957.61
0.0063,0.9937	-952.52
0.0202,0.9798	-963.14
0.0104,0.9896	-962.16
0.0027,0.9973	-952.86
0.0112,0.9888	-953.21
0.0091,0.9909	-952.83
0.0060,0.9940	-952.50
0.0172,0.9828	-962.67
0.0103,0.9897	-962.16
0.0028,0.9972	-952.82
0.0122,0.9878	-962.19
0.0072,0.9928	-952.59
0.0052,0.9948	-952.49
0.0175,0.9825	-958.68
0.0106,0.9894	-957.62
0.0029,0.9971	-952.78
0.0097,0.9903	-957.55
0.0128,0.9872	-953.53
0.0049,0.9951	-952.49
0.0161,0.9839	-954.31
0.0080,0.9920	-952.67
0.0034,0.9966	-958.35
0.0103,0.9897	-957.59
0.0119,0.9881	-957.75
0.0050,0.9950	-952.49
0.0233,0.9767	-963.71
0.0081,0.9919	-967.11
0.0026,0.9974	-952.91
0.0139,0.9861	-958.04
0.0091,0.9909	-957.52
0.0043,0.9957	-957.97
0.0232,0.9768	-967.44
0.0078,0.9922	-957.50
0.0028,0.9972	-958.69
