#isoforms=['ENSG00000101294.SE.1.A.up_ENSG00000101294.SE.1.A.SE1_ENSG00000101294.SE.1.A.dn','ENSG00000101294.SE.1.B.up_ENSG00000101294.SE.1.B.dn']	exon_lens=('ENSG00000101294.SE.1.A.up',99),('ENSG00000101294.SE.1.A.SE1',376),('ENSG00000101294.SE.1.A.dn',89),('ENSG00000101294.SE.1.B.up',99),('ENSG00000101294.SE.1.B.dn',89)	iters=5000	burn_in=500	lag=10	percent_accept=91.76	proposal_type=drift	counts=(0,0):154,(1,0):80,(1,1):69	assigned_counts=0:109,1:40	chrom=chr20	strand=+	mRNA_starts=31527484,31527484	mRNA_ends=31545035,31545035
sampled_psi	log_score
0.4260,0.5740	-974.22
0.5411,0.4589	-973.50
0.5014,0.4986	-973.12
0.3874,0.6126	-969.95
0.5361,0.4639	-973.85
0.5246,0.4754	-973.55
0.4654,0.5346	-972.76
0.5051,0.4949	-973.13
0.5130,0.4870	-973.21
0.4008,0.5992	-970.00
0.5129,0.4871	-973.20
0.4707,0.5293	-972.89
0.4377,0.5623	-972.37
0.5746,0.4254	-974.31
0.5119,0.4881	-973.19
0.4099,0.5901	-974.09
0.5214,0.4786	-973.22
0.5049,0.4951	-973.13
0.4079,0.5921	-971.55
0.6172,0.3828	-971.67
0.4948,0.5052	-972.99
0.3743,0.6257	-970.52
0.5188,0.4812	-973.50
0.4159,0.5841	-971.53
0.4323,0.5677	-972.66
0.5965,0.4035	-975.47
0.5024,0.4976	-973.11
0.3931,0.6069	-975.60
0.5116,0.4884	-972.87
0.4044,0.5956	-972.35
0.4682,0.5318	-972.51
0.6212,0.3788	-971.22
0.5048,0.4952	-972.96
0.4433,0.5567	-971.22
0.4872,0.5128	-973.12
0.3917,0.6083	-973.48
0.4711,0.5289	-973.01
0.6234,0.3766	-972.75
0.5010,0.4990	-973.11
0.4080,0.5920	-971.18
0.5063,0.4937	-972.91
0.4154,0.5846	-971.53
0.4697,0.5303	-972.53
0.6079,0.3921	-971.61
0.5128,0.4872	-973.36
0.4326,0.5674	-972.66
0.4760,0.5240	-973.67
0.4282,0.5718	-970.68
0.4783,0.5217	-973.26
0.6001,0.3999	-971.57
0.4840,0.5160	-972.81
0.3960,0.6040	-972.08
0.4710,0.5290	-973.01
0.4149,0.5851	-972.56
0.4577,0.5423	-972.92
0.5837,0.4163	-971.23
0.4523,0.5477	-973.72
0.3475,0.6525	-972.97
0.4590,0.5410	-972.59
0.4076,0.5924	-970.43
0.4902,0.5098	-972.87
0.5592,0.4408	-971.98
0.4316,0.5684	-973.22
0.3761,0.6239	-972.52
0.4699,0.5301	-972.77
0.3737,0.6263	-973.62
0.4951,0.5049	-973.12
0.5147,0.4853	-972.87
0.4070,0.5930	-974.94
0.3485,0.6515	-972.30
0.5011,0.4989	-973.12
0.3914,0.6086	-970.84
0.4373,0.5627	-973.63
0.4729,0.5271	-972.46
0.4133,0.5867	-971.53
0.3334,0.6666	-973.65
0.5011,0.4989	-973.12
0.3890,0.6110	-971.31
0.4533,0.5467	-972.95
0.3872,0.6128	-974.08
0.4235,0.5765	-973.69
0.4099,0.5901	-972.27
0.5402,0.4598	-973.00
0.3867,0.6133	-974.10
0.4814,0.5186	-972.85
0.3662,0.6338	-973.93
0.4525,0.5475	-973.34
0.4088,0.5912	-973.76
0.5466,0.4534	-973.04
0.3476,0.6524	-974.22
0.4014,0.5986	-970.80
0.3516,0.6484	-971.57
0.4928,0.5072	-973.07
0.3984,0.6016	-969.98
0.4884,0.5116	-973.11
0.3836,0.6164	-970.43
0.3897,0.6103	-973.99
0.3414,0.6586	-971.27
0.4904,0.5096	-972.88
0.4405,0.5595	-972.12
0.5167,0.4833	-973.31
0.4429,0.5571	-972.13
0.4094,0.5906	-973.38
0.4121,0.5879	-971.89
0.4641,0.5359	-972.75
0.5171,0.4829	-973.59
0.5308,0.4692	-972.97
0.4036,0.5964	-970.80
0.4527,0.5473	-972.57
0.4154,0.5846	-973.23
0.4225,0.5775	-975.28
0.4772,0.5228	-973.36
0.5167,0.4833	-973.51
0.4391,0.5609	-972.37
0.4425,0.5575	-972.59
0.4335,0.5665	-974.26
0.4176,0.5824	-972.85
0.3998,0.6002	-973.24
0.5497,0.4503	-973.87
0.4485,0.5515	-972.37
0.4451,0.5549	-973.91
0.4320,0.5680	-972.67
0.4187,0.5813	-971.85
0.3851,0.6149	-971.36
0.5811,0.4189	-973.87
0.4754,0.5246	-972.80
0.4938,0.5062	-972.93
0.4461,0.5539	-972.58
0.4150,0.5850	-973.59
0.4272,0.5728	-971.25
0.5920,0.4080	-972.67
0.4355,0.5645	-971.86
0.4816,0.5184	-973.00
0.4546,0.5454	-972.94
0.4598,0.5402	-973.40
0.4859,0.5141	-972.90
0.5148,0.4852	-973.11
0.4234,0.5766	-972.46
0.4815,0.5185	-972.93
0.4543,0.5457	-973.31
0.4775,0.5225	-973.18
0.5285,0.4715	-972.85
0.5067,0.4933	-973.09
0.4262,0.5738	-972.43
0.5061,0.4939	-972.87
0.4494,0.5506	-973.18
0.4543,0.5457	-972.21
0.5025,0.4975	-973.08
0.5530,0.4470	-973.10
0.3967,0.6033	-975.00
0.5247,0.4753	-972.47
0.4398,0.5602	-975.03
0.4383,0.5617	-971.13
0.4603,0.5397	-973.07
0.5120,0.4880	-973.15
0.4061,0.5939	-973.84
0.4914,0.5086	-973.24
0.3913,0.6087	-972.61
0.3628,0.6372	-973.52
0.3757,0.6243	-970.50
0.5719,0.4281	-973.36
0.4067,0.5933	-973.07
0.4849,0.5151	-972.83
0.3642,0.6358	-973.46
0.4055,0.5945	-970.42
0.3758,0.6242	-973.04
0.5216,0.4784	-972.88
0.4166,0.5834	-972.20
0.4905,0.5095	-972.99
0.4091,0.5909	-971.55
0.3978,0.6022	-971.64
0.3818,0.6182	-975.26
0.5704,0.4296	-972.77
0.4037,0.5963	-973.53
0.4839,0.5161	-972.75
0.4240,0.5760	-969.39
0.4382,0.5618	-973.36
0.3728,0.6272	-970.02
0.5934,0.4066	-974.21
0.3799,0.6201	-973.40
0.5371,0.4629	-971.94
0.4416,0.5584	-972.83
0.4850,0.5150	-973.31
0.3998,0.6002	-973.65
0.5908,0.4092	-968.99
0.3864,0.6136	-971.34
0.5231,0.4769	-973.06
0.4278,0.5722	-973.29
0.5015,0.4985	-973.13
0.3668,0.6332	-974.99
0.6016,0.3984	-973.64
0.4463,0.5537	-971.50
0.5184,0.4816	-972.97
0.4074,0.5926	-973.05
0.5043,0.4957	-973.15
0.3714,0.6286	-968.98
0.5466,0.4534	-972.67
0.5433,0.4567	-973.54
0.5612,0.4388	-971.97
0.3559,0.6441	-971.44
0.4921,0.5079	-972.98
0.3835,0.6165	-973.28
0.5265,0.4735	-973.28
0.5677,0.4323	-977.11
0.5214,0.4786	-972.37
0.3678,0.6322	-972.78
0.4242,0.5758	-972.76
0.4559,0.5441	-972.22
0.5121,0.4879	-972.95
0.6174,0.3826	-973.11
0.4619,0.5381	-973.51
0.4308,0.5692	-974.07
0.4025,0.5975	-973.57
0.4232,0.5768	-973.70
0.5285,0.4715	-972.39
0.6352,0.3648	-970.79
0.5146,0.4854	-973.22
0.4204,0.5796	-974.41
0.4950,0.5050	-973.02
0.4389,0.5611	-972.86
0.5042,0.4958	-972.94
0.6719,0.3281	-964.11
0.5450,0.4550	-973.75
0.3839,0.6161	-971.37
0.5271,0.4729	-973.29
0.4717,0.5283	-972.78
0.4822,0.5178	-973.14
0.6280,0.3720	-968.13
0.5768,0.4232	-973.45
0.4150,0.5850	-972.21
0.5121,0.4879	-973.20
0.4584,0.5416	-973.42
0.4704,0.5296	-973.72
0.6745,0.3255	-972.06
0.5968,0.4032	-969.21
0.3795,0.6205	-970.46
0.5204,0.4796	-973.29
0.5002,0.4998	-973.10
0.4649,0.5351	-973.04
0.6675,0.3325	-972.59
0.5584,0.4416	-972.93
0.4208,0.5792	-972.16
0.5017,0.4983	-973.15
0.4833,0.5167	-973.07
0.4950,0.5050	-973.16
0.6462,0.3538	-969.08
0.5180,0.4820	-973.41
0.4510,0.5490	-972.18
0.4378,0.5622	-973.12
0.4580,0.5420	-972.58
0.5033,0.4967	-973.19
0.6541,0.3459	-974.80
0.5328,0.4672	-972.97
0.4771,0.5229	-973.46
0.3891,0.6109	-970.40
0.4573,0.5427	-971.55
0.5143,0.4857	-973.33
0.6834,0.3166	-970.00
0.5112,0.4888	-972.87
0.5007,0.4993	-973.12
0.4122,0.5878	-971.53
0.4210,0.5790	-971.84
0.5308,0.4692	-973.34
0.6516,0.3484	-974.08
0.5341,0.4659	-972.84
0.4834,0.5166	-973.07
0.4454,0.5546	-973.68
0.4553,0.5447	-973.11
0.4887,0.5113	-973.07
0.6584,0.3416	-972.36
0.5570,0.4430	-973.60
0.5588,0.4412	-971.51
0.4327,0.5673	-972.39
0.4807,0.5193	-973.15
0.5128,0.4872	-973.25
0.6385,0.3615	-978.21
0.5604,0.4396	-972.70
0.5125,0.4875	-973.30
0.4318,0.5682	-972.67
0.4820,0.5180	-973.43
0.5460,0.4540	-973.04
0.6419,0.3581	-972.01
0.5561,0.4439	-975.16
0.4876,0.5124	-973.02
0.4519,0.5481	-973.54
0.4919,0.5081	-973.14
0.5938,0.4062	-971.94
0.5676,0.4324	-969.76
0.5598,0.4402	-972.46
0.4809,0.5191	-973.08
0.4265,0.5735	-973.02
0.5519,0.4481	-972.88
0.5760,0.4240	-974.97
0.5942,0.4058	-974.61
0.5921,0.4079	-974.17
0.4815,0.5185	-972.78
0.3735,0.6265	-970.53
0.6434,0.3566	-968.50
0.5768,0.4232	-973.45
0.6369,0.3631	-975.30
0.5730,0.4270	-971.32
0.5196,0.4804	-973.05
0.3674,0.6326	-974.42
0.6113,0.3887	-972.08
0.5682,0.4318	-971.93
0.6394,0.3606	-971.97
0.5684,0.4316	-974.68
0.5285,0.4715	-972.96
0.3889,0.6111	-973.57
0.6054,0.3946	-973.73
0.5327,0.4673	-972.97
0.6421,0.3579	-972.60
0.5580,0.4420	-974.09
0.5120,0.4880	-972.95
0.4066,0.5934	-972.32
0.6547,0.3453	-976.75
0.5406,0.4594	-974.14
0.5567,0.4433	-973.83
0.5380,0.4620	-973.75
0.4848,0.5152	-973.07
0.4142,0.5858	-971.88
0.5783,0.4217	-975.69
0.4976,0.5024	-973.09
0.5750,0.4250	-973.12
0.5610,0.4390	-972.70
0.4665,0.5335	-973.03
0.4147,0.5853	-971.87
0.5528,0.4472	-972.89
0.5121,0.4879	-973.39
0.5970,0.4030	-971.17
0.5426,0.4574	-972.84
0.4560,0.5440	-972.75
0.4928,0.5072	-973.04
0.5584,0.4416	-971.75
0.4714,0.5286	-973.70
0.6527,0.3473	-971.59
0.5709,0.4291	-973.92
0.4597,0.5403	-973.40
0.5177,0.4823	-973.12
0.5138,0.4862	-973.60
0.4734,0.5266	-973.11
0.6176,0.3824	-975.04
0.5237,0.4763	-973.06
0.4995,0.5005	-973.10
0.4805,0.5195	-973.00
0.5281,0.4719	-972.85
0.4837,0.5163	-972.87
0.5825,0.4175	-974.24
0.5093,0.4907	-973.13
0.5144,0.4856	-973.16
0.4951,0.5049	-972.96
0.4955,0.5045	-973.01
0.4898,0.5102	-973.23
0.6128,0.3872	-973.01
0.4911,0.5089	-973.07
0.5112,0.4888	-973.10
0.5138,0.4862	-972.83
0.5262,0.4738	-972.86
0.4824,0.5176	-973.49
0.6188,0.3812	-974.60
0.5447,0.4553	-973.03
0.5350,0.4650	-973.68
0.4437,0.5563	-971.23
0.5499,0.4501	-971.87
0.4978,0.5022	-973.17
0.5615,0.4385	-972.46
0.5431,0.4569	-972.50
0.5128,0.4872	-973.56
0.4407,0.5593	-975.46
0.5732,0.4268	-973.09
0.5153,0.4847	-973.17
0.5625,0.4375	-972.71
0.4773,0.5227	-973.45
0.5293,0.4707	-973.78
0.4312,0.5688	-972.12
0.5988,0.4012	-974.77
0.5359,0.4641	-973.41
0.5426,0.4574	-973.18
0.4979,0.5021	-973.09
0.4861,0.5139	-973.18
0.4276,0.5724	-971.55
0.6108,0.3892	-974.78
0.4695,0.5305	-973.38
0.5021,0.4979	-973.08
0.4536,0.5464	-973.69
0.5309,0.4691	-973.09
0.4423,0.5577	-972.59
0.6167,0.3833	-971.20
0.4499,0.5501	-972.57
0.5759,0.4241	-974.05
0.4926,0.5074	-973.04
0.4503,0.5497	-972.37
0.5069,0.4931	-973.06
0.6415,0.3585	-972.59
0.4851,0.5149	-972.95
0.6017,0.3983	-973.23
0.5036,0.4964	-973.12
0.4313,0.5687	-971.01
0.5430,0.4570	-973.19
0.6379,0.3621	-971.94
0.5194,0.4806	-972.51
0.5566,0.4434	-972.91
0.5069,0.4931	-973.15
0.4535,0.5465	-973.69
0.5477,0.4523	-973.24
0.6003,0.3997	-973.61
0.4786,0.5214	-972.83
0.5640,0.4360	-972.98
0.5070,0.4930	-973.06
0.5427,0.4573	-973.87
0.5763,0.4237	-973.75
0.5799,0.4201	-973.19
0.4707,0.5293	-973.01
0.5117,0.4883	-973.19
0.5564,0.4436	-972.91
0.5068,0.4932	-973.17
0.5260,0.4740	-973.59
0.6293,0.3707	-976.04
0.4135,0.5865	-973.28
0.4979,0.5021	-973.04
0.5762,0.4238	-971.60
0.5173,0.4827	-973.05
0.4234,0.5766	-971.22
0.6437,0.3563	-970.86
0.4337,0.5663	-972.65
0.5028,0.4972	-973.03
0.5614,0.4386	-972.46
0.4653,0.5347	-973.17
0.4257,0.5743	-971.24
0.5582,0.4418	-971.05
0.4183,0.5817	-971.85
0.4684,0.5316	-972.39
0.5220,0.4780	-973.58
0.4971,0.5029	-973.09
0.4206,0.5794	-972.17
0.5384,0.4616	-973.14
0.4743,0.5257	-973.52
0.4272,0.5728	-973.89
0.5145,0.4855	-972.87
0.5262,0.4738	-973.70
0.3836,0.6164	-975.65
0.5271,0.4729	-973.51
0.4803,0.5197	-973.24
0.4321,0.5679	-973.48
0.5017,0.4983	-973.12
0.4763,0.5237	-972.71
0.4341,0.5659	-973.18
0.5594,0.4406	-974.13
0.4601,0.5399	-972.59
0.4257,0.5743	-971.84
0.4574,0.5426	-971.90
0.5528,0.4472	-975.22
0.4553,0.5447	-972.58
0.5259,0.4741	-973.48
0.4394,0.5606	-973.58
0.4116,0.5884	-971.54
0.4549,0.5451	-973.12
0.5021,0.4979	-973.05
0.4641,0.5359	-972.18
0.5057,0.4943	-973.14
0.3961,0.6039	-973.77
0.4631,0.5369	-973.64
0.4620,0.5380	-972.45
0.4771,0.5229	-972.91
0.4433,0.5567	-974.64
0.5106,0.4894	-972.97
0.3639,0.6361	-971.80
0.4704,0.5296	-972.06
0.5051,0.4949	-972.93
0.3542,0.6458	-972.69
0.5217,0.4783	-972.79
0.4282,0.5718	-972.42
0.3670,0.6330	-973.89
0.5054,0.4946	-973.37
0.5048,0.4952	-973.25
0.3498,0.6502	-971.63
0.5664,0.4336	-971.14
0.4386,0.5614	-971.13
0.4440,0.5560	-971.91
0.4728,0.5272	-973.44
0.4898,0.5102	-972.86
0.3202,0.6798	-973.67
0.5531,0.4469	-972.68
0.4446,0.5554	-973.03
0.3975,0.6025	-969.56
0.4597,0.5403	-972.10
0.4951,0.5049	-973.14
0.3664,0.6336	-970.63
0.5901,0.4099	-973.38
0.4361,0.5639	-972.37
0.3862,0.6138	-970.88
0.4318,0.5682	-970.75
0.5323,0.4677	-973.49
0.3731,0.6269	-974.69
0.5617,0.4383	-973.70
0.4004,0.5996	-971.61
0.3474,0.6526	-969.82
0.3857,0.6143	-974.14
0.5593,0.4407	-972.22
0.4052,0.5948	-971.95
0.5129,0.4871	-973.05
0.3905,0.6095	-972.18
0.3930,0.6070	-970.39
0.3806,0.6194	-971.91
0.5425,0.4575	-973.52
0.4516,0.5484	-971.99
0.5107,0.4893	-972.88
0.3965,0.6035	-973.33
0.4104,0.5896	-974.08
0.3649,0.6351	-970.11
0.5809,0.4191	-971.25
0.4709,0.5291	-972.78
0.5433,0.4567	-973.54
0.3901,0.6099	-975.31
0.3670,0.6330	-972.26
0.3966,0.6034	-968.29
0.5592,0.4408	-973.65
0.4285,0.5715	-972.70
0.5522,0.4478	-973.30
0.4207,0.5793	-973.77
0.4497,0.5503	-972.57
0.4341,0.5659	-972.91
0.5098,0.4902	-973.13
0.4101,0.5899	-974.09
0.6060,0.3940	-973.75
0.4006,0.5994	-972.41
0.4179,0.5821	-974.84
0.4672,0.5328	-972.50
0.5278,0.4722	-973.30
0.3799,0.6201	-972.91
0.6516,0.3484	-977.84
0.4448,0.5552	-972.58
0.4933,0.5067	-973.26
0.4651,0.5349	-972.76
0.5457,0.4543	-972.12
0.3753,0.6247	-972.54
0.6516,0.3484	-972.20
0.4411,0.5589	-973.31
0.5156,0.4844	-972.80
0.5483,0.4517	-972.47
0.5374,0.4626	-974.03
0.3885,0.6115	-970.86
0.6095,0.3905	-974.29
0.4503,0.5497	-972.77
0.5762,0.4238	-971.60
0.5768,0.4232	-972.83
0.4659,0.5341	-973.44
0.4453,0.5547	-974.78
0.6482,0.3518	-972.74
0.4380,0.5620	-972.62
0.5558,0.4442	-974.03
0.5549,0.4451	-972.46
0.4460,0.5540	-973.23
0.4760,0.5240	-972.81
0.6517,0.3483	-970.32
0.4209,0.5791	-973.12
0.5388,0.4612	-973.46
0.5674,0.4326	-972.20
0.4455,0.5545	-971.93
0.4975,0.5025	-973.11
0.5930,0.4070	-972.31
0.4404,0.5596	-971.65
0.5644,0.4356	-972.98
0.5046,0.4954	-973.07
0.4680,0.5320	-973.02
0.5216,0.4784	-972.71
0.5983,0.4017	-969.97
0.4265,0.5735	-971.54
0.5064,0.4936	-973.09
0.4722,0.5278	-972.89
0.4751,0.5249	-973.00
0.5372,0.4628	-973.43
0.5938,0.4062	-971.56
0.4499,0.5501	-972.37
0.5375,0.4625	-972.69
0.5143,0.4857	-973.28
0.4348,0.5652	-973.69
0.5483,0.4517	-974.61
0.5259,0.4741	-973.07
0.4966,0.5034	-973.03
0.4631,0.5369	-972.16
0.4531,0.5469	-972.76
0.4423,0.5577	-973.75
0.5610,0.4390	-972.95
0.4959,0.5041	-973.15
0.5049,0.4951	-973.17
0.4450,0.5550	-973.03
0.4168,0.5832	-972.53
0.3795,0.6205	-973.90
0.5922,0.4078	-974.17
0.5198,0.4802	-973.05
0.5289,0.4711	-974.00
0.4241,0.5759	-971.53
0.3914,0.6086	-969.95
0.3747,0.6253	-972.05
0.5853,0.4147	-972.94
0.4901,0.5099	-973.19
0.5223,0.4777	-972.52
0.3833,0.6167	-968.53
0.4320,0.5680	-971.02
0.3567,0.6433	-970.24
0.6033,0.3967	-975.77
0.5263,0.4737	-972.86
0.5713,0.4287	-974.79
0.4167,0.5833	-972.20
0.4568,0.5432	-973.62
0.3071,0.6929	-972.09
0.5704,0.4296	-974.47
0.5104,0.4896	-973.26
0.6097,0.3903	-971.62
0.3953,0.6047	-971.24
0.4947,0.5053	-973.10
0.3794,0.6206	-969.48
0.5892,0.4108	-973.36
0.5015,0.4985	-973.12
0.5570,0.4430	-972.92
0.3731,0.6269	-974.69
0.4680,0.5320	-973.28
0.4357,0.5643	-971.08
0.6164,0.3836	-968.35
0.5135,0.4865	-973.21
0.5247,0.4753	-973.06
0.3870,0.6130	-970.87
0.4886,0.5114	-973.16
0.3810,0.6190	-974.33
0.6070,0.3930	-969.86
0.4261,0.5739	-972.43
0.5743,0.4257	-971.91
0.3674,0.6326	-968.44
0.5150,0.4850	-972.93
0.4509,0.5491	-971.98
0.5392,0.4608	-973.47
0.4525,0.5475	-972.38
0.5101,0.4899	-972.97
0.4512,0.5488	-972.38
0.5206,0.4794	-973.38
0.4168,0.5832	-973.88
0.4757,0.5243	-973.19
0.4459,0.5541	-972.58
0.5370,0.4630	-974.62
0.4803,0.5197	-973.00
0.4974,0.5026	-973.09
0.3866,0.6134	-973.64
0.4721,0.5279	-972.22
0.4695,0.5305	-972.40
0.4810,0.5190	-973.08
0.4741,0.5259	-973.42
0.5092,0.4908	-973.17
0.3718,0.6282	-971.08
0.4900,0.5100	-973.27
0.4541,0.5459	-972.76
0.4860,0.5140	-972.84
0.4864,0.5136	-972.58
0.5073,0.4927	-973.30
0.4029,0.5971	-969.62
0.5252,0.4748	-973.67
0.4709,0.5291	-972.31
0.5377,0.4623	-972.99
0.4657,0.5343	-972.21
0.5297,0.4703	-972.96
0.3907,0.6093	-971.73
0.4661,0.5339	-972.49
0.4357,0.5643	-970.82
0.5247,0.4753	-973.26
0.4603,0.5397	-972.43
0.5353,0.4647	-972.13
0.4220,0.5780	-971.21
0.4165,0.5835	-970.51
0.4260,0.5740	-969.45
0.4970,0.5030	-972.99
0.5029,0.4971	-972.99
0.5321,0.4679	-972.97
0.3831,0.6169	-969.96
0.4269,0.5731	-970.36
0.3667,0.6333	-971.72
0.5150,0.4850	-973.17
0.5262,0.4738	-973.59
0.5616,0.4384	-972.71
0.4277,0.5723	-972.71
0.4457,0.5543	-972.36
0.3889,0.6111	-973.57
0.4751,0.5249	-972.60
0.5457,0.4543	-973.59
0.5714,0.4286	-973.07
0.4763,0.5237	-972.52
0.4935,0.5065	-973.18
0.3604,0.6396	-977.06
0.5059,0.4941	-973.09
0.5655,0.4345	-973.26
0.5247,0.4753	-972.47
0.5308,0.4692	-972.23
0.5321,0.4679	-973.10
0.3523,0.6477	-971.55
0.5401,0.4599	-974.12
0.5449,0.4551	-972.31
0.5262,0.4738	-973.07
0.5561,0.4439	-971.78
0.5525,0.4475	-974.15
0.3816,0.6184	-972.38
0.5243,0.4757	-972.67
0.5323,0.4677	-974.13
0.4988,0.5012	-973.09
0.5249,0.4751	-972.76
0.5252,0.4748	-972.66
0.3935,0.6065	-968.66
0.4808,0.5192	-973.08
0.5189,0.4811	-973.28
0.4881,0.5119	-972.83
0.5641,0.4359	-973.50
0.5317,0.4683	-973.73
0.4116,0.5884	-971.54
0.5197,0.4803	-973.44
0.4469,0.5531	-973.22
0.5076,0.4924	-973.06
0.6077,0.3923	-971.60
0.4514,0.5486	-970.62
0.4645,0.5355	-973.32
0.5261,0.4739	-973.48
0.4256,0.5744	-973.34
0.5459,0.4541	-973.59
0.6319,0.3681	-970.77
0.4640,0.5360	-973.19
0.5258,0.4742	-973.48
0.5405,0.4595	-972.84
0.4156,0.5844	-973.23
0.5809,0.4191	-971.90
0.6123,0.3877	-969.81
0.4893,0.5107	-973.32
0.5024,0.4976	-973.08
0.4707,0.5293	-973.13
0.4728,0.5272	-972.24
0.5782,0.4218	-971.90
0.5578,0.4422	-971.76
0.4433,0.5567	-972.13
0.4448,0.5552	-973.69
0.5005,0.4995	-973.08
0.4564,0.5436	-972.40
0.5789,0.4211	-972.22
0.5957,0.4043	-971.56
0.4728,0.5272	-973.33
0.4673,0.5327	-973.15
0.5546,0.4454	-973.34
0.5083,0.4917	-973.19
0.5994,0.4006	-971.57
0.6197,0.3803	-972.19
0.3948,0.6052	-970.82
0.4723,0.5277	-972.56
0.5060,0.4940	-973.21
0.5321,0.4679	-972.33
0.5418,0.4582	-973.18
0.6312,0.3688	-972.91
0.3582,0.6418	-971.38
0.4465,0.5535	-974.08
0.4787,0.5213	-973.25
0.5600,0.4400	-974.63
0.5527,0.4473	-972.46
0.6611,0.3389	-968.41
0.4333,0.5667	-972.92
0.4111,0.5889	-971.54
0.5317,0.4683	-972.59
0.5381,0.4619	-973.29
0.5878,0.4122	-975.11
0.6424,0.3576	-974.36
0.3906,0.6094	-972.62
0.4147,0.5853	-971.53
0.5657,0.4343	-971.94
0.5752,0.4248	-973.12
0.6330,0.3670	-972.41
0.6479,0.3521	-971.51
0.4203,0.5797	-973.45
0.4378,0.5622	-971.12
0.5130,0.4870	-972.94
0.5723,0.4277	-973.95
0.6736,0.3264	-972.04
0.6018,0.3982	-973.23
0.3928,0.6072	-974.31
0.4124,0.5876	-970.83
0.5201,0.4799	-973.05
0.5708,0.4292	-972.77
0.6519,0.3481	-973.46
0.5927,0.4073	-973.06
0.3905,0.6095	-973.07
0.3965,0.6035	-974.59
0.5327,0.4673	-972.58
0.5398,0.4602	-973.48
0.5275,0.4725	-973.62
0.5807,0.4193	-970.60
0.3873,0.6127	-972.24
0.4304,0.5696	-970.72
0.5725,0.4275	-973.08
0.5099,0.4901	-973.17
0.5393,0.4607	-973.94
0.5264,0.4736	-973.38
0.3492,0.6508	-975.38
0.4735,0.5265	-973.21
0.6016,0.3984	-976.11
0.5804,0.4196	-974.50
0.5307,0.4693	-972.35
0.4968,0.5032	-973.07
0.3104,0.6896	-968.71
0.5136,0.4864	-973.48
0.6474,0.3526	-972.11
0.5729,0.4271	-973.09
0.5626,0.4374	-973.22
0.4813,0.5187	-973.23
0.3321,0.6679	-971.62
0.4249,0.5751	-972.14
0.6573,0.3427	-968.42
0.5768,0.4232	-972.22
0.5836,0.4164	-970.56
0.4796,0.5204	-972.51
0.3567,0.6433	-971.42
0.3841,0.6159	-974.68
0.7039,0.2961	-973.84
0.6182,0.3818	-973.13
0.5259,0.4741	-973.38
0.5073,0.4927	-972.86
0.3649,0.6351	-972.32
0.3864,0.6136	-970.41
0.6656,0.3344	-969.10
0.6211,0.3789	-971.71
0.4870,0.5130	-973.69
0.4953,0.5047	-973.17
0.3866,0.6134	-970.87
0.3636,0.6364	-970.12
0.7140,0.2860	-963.31
0.5879,0.4121	-971.91
0.4967,0.5033	-973.16
0.5757,0.4243	-972.21
0.4382,0.5618	-971.62
0.3892,0.6108	-967.25
0.6601,0.3399	-968.41
0.6241,0.3759	-974.79
0.4749,0.5251	-972.70
0.5327,0.4673	-973.23
0.4567,0.5433	-973.10
0.3726,0.6274	-974.71
0.6234,0.3766	-972.24
0.6678,0.3322	-969.11
0.4864,0.5136	-973.07
0.5195,0.4805	-972.97
0.4323,0.5677	-971.30
0.3763,0.6237	-975.04
0.6223,0.3777	-974.72
0.6230,0.3770	-972.74
0.4799,0.5201	-973.16
0.4547,0.5453	-972.03
0.4432,0.5568	-972.13
0.3461,0.6539	-967.94
0.6301,0.3699	-970.76
0.5801,0.4199	-974.81
0.4638,0.5362	-972.46
0.4803,0.5197	-973.24
0.5181,0.4819	-973.26
0.3763,0.6237	-971.50
0.6193,0.3807	-971.21
0.6157,0.3843	-972.13
0.5143,0.4857	-973.16
0.4648,0.5352	-973.18
0.5127,0.4873	-973.00
0.4304,0.5696	-974.92
0.5819,0.4181	-971.90
0.6860,0.3140	-971.60
0.5140,0.4860	-972.82
0.4450,0.5550	-973.91
0.4781,0.5219	-973.44
0.3769,0.6231	-969.99
0.6024,0.3976	-974.07
0.7075,0.2925	-973.12
0.5001,0.4999	-973.10
0.4512,0.5488	-971.99
0.4393,0.5607	-971.88
0.4551,0.5449	-971.50
0.5739,0.4261	-972.51
0.6870,0.3130	-972.41
0.5356,0.4644	-972.12
0.4492,0.5508	-974.21
0.4078,0.5922	-971.55
0.4529,0.5471	-972.95
0.5533,0.4467	-972.89
0.6589,0.3411	-975.00
0.4633,0.5367	-973.49
0.4496,0.5504	-970.96
0.3964,0.6036	-972.49
0.4093,0.5907	-974.48
0.5385,0.4615	-971.29
0.6020,0.3980	-971.99
0.4936,0.5064	-973.05
0.4494,0.5506	-973.59
0.4180,0.5820	-972.52
0.4531,0.5469	-973.14
0.5032,0.4968	-973.07
0.5410,0.4590	-973.66
0.4401,0.5599	-972.85
0.4646,0.5354	-972.61
0.4697,0.5303	-972.89
0.5240,0.4760	-973.54
0.4643,0.5357	-973.47
0.5682,0.4318	-973.03
0.3884,0.6116	-975.40
0.4422,0.5578	-972.59
0.4626,0.5374	-973.35
0.5240,0.4760	-972.67
0.4859,0.5141	-973.07
0.5947,0.4053	-970.41
0.3846,0.6154	-971.83
0.4789,0.5211	-973.34
0.4677,0.5323	-973.15
0.4922,0.5078	-973.13
0.4034,0.5966	-971.19
0.5769,0.4231	-972.84
0.3816,0.6184	-972.86
0.4663,0.5337	-971.54
0.4544,0.5456	-973.12
0.4704,0.5296	-972.89
0.4022,0.5978	-970.80
0.5981,0.4019	-970.37
0.3823,0.6177	-973.80
0.4007,0.5993	-975.23
0.4173,0.5827	-971.52
0.4695,0.5305	-973.14
0.3491,0.6509	-969.78
0.5735,0.4265	-973.69
0.3385,0.6615	-974.72
0.3963,0.6037	-972.08
0.4063,0.5937	-970.80
0.4834,0.5166	-972.80
0.3774,0.6226	-969.98
0.5780,0.4220	-972.53
0.3791,0.6209	-974.41
0.3695,0.6305	-970.58
0.4160,0.5840	-972.20
0.4717,0.5283	-972.67
0.4152,0.5848	-971.18
0.5767,0.4233	-973.76
0.3860,0.6140	-972.74
0.3578,0.6422	-968.46
0.4318,0.5682	-972.39
0.5180,0.4820	-972.76
0.3498,0.6502	-973.49
0.6201,0.3799	-972.68
0.3515,0.6485	-970.96
0.4077,0.5923	-976.41
0.4738,0.5262	-972.27
0.4955,0.5045	-973.14
0.3719,0.6281	-971.07
0.5781,0.4219	-973.16
0.3650,0.6350	-969.55
0.4280,0.5720	-973.29
0.4470,0.5530	-971.30
0.5196,0.4804	-973.60
0.3437,0.6563	-973.14
0.5976,0.4024	-971.56
0.3684,0.6316	-971.68
0.4857,0.5143	-972.78
0.5015,0.4985	-973.13
0.5103,0.4897	-973.47
0.3220,0.6780	-972.07
0.5932,0.4068	-972.69
0.3611,0.6389	-972.44
0.4706,0.5294	-973.13
0.5283,0.4717	-973.53
0.5829,0.4171	-972.57
0.3234,0.6766	-971.27
0.6133,0.3867	-972.10
0.3656,0.6344	-972.85
0.4799,0.5201	-973.32
0.5278,0.4722	-973.07
0.5545,0.4455	-971.37
0.3311,0.6689	-970.25
0.5977,0.4023	-971.96
0.3926,0.6074	-970.39
0.4970,0.5030	-973.02
0.5265,0.4735	-973.49
0.4979,0.5021	-973.12
0.3375,0.6625	-969.38
0.5836,0.4164	-972.58
0.3913,0.6087	-972.61
0.4755,0.5245	-972.90
0.5028,0.4972	-973.14
0.5206,0.4794	-973.05
0.3313,0.6687	-968.84
0.5825,0.4175	-970.24
0.3984,0.6016	-972.87
0.4861,0.5139	-973.01
0.5213,0.4787	-973.39
0.5539,0.4461	-972.89
0.3276,0.6724	-971.81
0.5631,0.4369	-974.24
0.3801,0.6199	-970.95
0.4861,0.5139	-972.84
0.5122,0.4878	-972.90
0.5508,0.4492	-972.06
0.3207,0.6793	-970.64
0.5365,0.4635	-973.71
0.3776,0.6224	-971.98
0.4850,0.5150	-972.77
0.4607,0.5393	-973.38
0.5607,0.4393	-972.46
0.3669,0.6331	-970.62
0.5402,0.4598	-972.03
0.4217,0.5783	-973.11
0.4298,0.5702	-971.84
0.4059,0.5941	-971.57
0.5034,0.4966	-973.14
0.3478,0.6522	-974.84
0.5179,0.4821	-972.90
0.3854,0.6146	-970.89
0.3755,0.6245	-973.05
0.4342,0.5658	-973.70
0.4789,0.5211	-972.57
0.3955,0.6045	-971.66
0.5391,0.4609	-973.78
0.4450,0.5550	-972.80
0.3873,0.6127	-972.24
0.4563,0.5437	-973.28
0.4672,0.5328	-972.76
0.4449,0.5551	-973.03
0.5638,0.4362	-972.98
0.4570,0.5430	-971.20
0.4100,0.5900	-969.72
0.4608,0.5392	-972.12
0.4362,0.5638	-970.06
0.4443,0.5557	-973.26
0.5756,0.4244	-972.52
0.3941,0.6059	-976.41
0.4325,0.5675	-971.85
0.4921,0.5079	-972.85
0.4219,0.5781	-972.79
0.4647,0.5353	-973.46
0.5898,0.4102	-973.74
0.3739,0.6261	-971.55
0.3970,0.6030	-973.74
0.5036,0.4964	-973.15
0.4556,0.5444	-972.93
0.4359,0.5641	-971.86
0.6512,0.3488	-969.07
0.3919,0.6081	-970.83
0.4367,0.5633	-974.15
0.4569,0.5431	-973.62
0.4818,0.5182	-972.71
0.4288,0.5712	-972.98
0.5854,0.4146	-972.94
0.3956,0.6044	-971.24
0.4470,0.5530	-972.37
0.4133,0.5867	-971.53
0.5581,0.4419	-973.86
0.4343,0.5657	-971.59
0.5368,0.4632	-973.43
0.4181,0.5819	-973.84
0.4524,0.5476	-972.19
0.3977,0.6023	-971.64
0.5393,0.4607	-973.31
0.4102,0.5898	-973.72
0.5828,0.4172	-973.24
0.3980,0.6020	-971.22
0.4622,0.5378	-971.99
0.3866,0.6134	-973.18
0.5665,0.4335	-972.74
0.4068,0.5932	-969.30
0.6075,0.3925	-974.22
0.4283,0.5717	-972.99
0.4183,0.5817	-972.18
0.4177,0.5823	-973.52
0.5489,0.4511	-971.49
0.4130,0.5870	-972.94
0.6113,0.3887	-972.08
0.4536,0.5464	-971.64
0.4397,0.5603	-973.33
0.4187,0.5813	-972.51
0.5016,0.4984	-973.08
0.4755,0.5245	-972.61
0.6275,0.3725	-972.83
0.4563,0.5437	-971.53
0.4374,0.5626	-971.61
0.4263,0.5737	-972.43
0.4055,0.5945	-973.86
0.4902,0.5098	-973.11
0.6391,0.3609	-968.53
0.4620,0.5380	-972.29
0.4413,0.5587	-972.13
0.4151,0.5849	-970.84
0.3887,0.6113	-971.76
0.5234,0.4766	-973.52
0.6765,0.3235	-975.07
0.4935,0.5065	-973.15
0.4297,0.5703	-970.99
0.4120,0.5880	-971.89
0.4237,0.5763	-971.84
0.5824,0.4176	-971.24
0.6611,0.3389	-969.08
0.5267,0.4733	-972.32
0.4157,0.5843	-971.87
0.4768,0.5232	-972.72
0.4178,0.5822	-972.85
0.5663,0.4337	-973.00
0.6779,0.3221	-971.41
0.5407,0.4593	-973.33
0.3685,0.6315	-973.29
0.5281,0.4719	-974.31
0.4202,0.5798	-972.81
0.6328,0.3672	-973.49
0.6691,0.3309	-968.41
0.5681,0.4319	-971.93
0.3485,0.6515	-970.42
0.4887,0.5113	-972.98
0.4182,0.5818	-971.19
0.6478,0.3522	-967.25
0.6330,0.3670	-974.05
0.5908,0.4092	-973.03
0.3683,0.6317	-970.06
0.4859,0.5141	-973.41
0.4169,0.5831	-971.86
0.6684,0.3316	-967.01
0.6171,0.3829	-971.67
0.6532,0.3468	-970.97
0.3920,0.6080	-971.27
0.4623,0.5377	-972.60
0.4568,0.5432	-973.45
0.6518,0.3482	-970.32
0.5359,0.4641	-973.12
0.6686,0.3314	-973.32
0.3766,0.6234	-972.00
0.4641,0.5359	-973.47
0.3377,0.6623	-971.40
0.6686,0.3314	-969.81
0.5651,0.4349	-973.25
0.6734,0.3266	-970.59
0.3792,0.6208	-973.91
0.4864,0.5136	-973.01
0.3554,0.6446	-969.67
0.7159,0.2841	-966.06
0.6021,0.3979	-973.23
0.7158,0.2842	-969.75
0.3955,0.6045	-971.66
0.4888,0.5112	-973.47
0.3930,0.6070	-969.96
0.7002,0.2998	-971.15
0.6023,0.3977	-973.65
0.6788,0.3212	-970.68
0.4217,0.5783	-971.21
0.4932,0.5068	-973.07
0.3719,0.6281	-972.12
0.7046,0.2954	-969.53
0.6513,0.3487	-969.07
0.6409,0.3591	-970.25
0.4622,0.5378	-973.66
0.4859,0.5141	-972.56
0.3836,0.6164	-973.28
0.6908,0.3092	-967.71
0.5976,0.4024	-974.33
0.5949,0.4051	-971.94
0.4663,0.5337	-973.57
0.5203,0.4797	-972.97
0.3902,0.6098	-970.40
0.6942,0.3058	-976.74
0.5996,0.4004	-971.57
0.5897,0.4103	-972.65
0.4832,0.5168	-972.67
0.5404,0.4596	-973.00
0.3936,0.6064	-972.55
0.6444,0.3556	-969.08
0.5910,0.4090	-971.93
0.5811,0.4189	-972.23
0.4614,0.5386	-973.99
0.5205,0.4795	-972.89
0.3825,0.6175	-975.23
0.6021,0.3979	-971.58
0.6104,0.3896	-969.38
0.6105,0.3895	-971.62
0.5124,0.4876	-973.25
0.5189,0.4811	-973.05
0.4051,0.5949	-972.72
0.5517,0.4483	-973.71
0.6192,0.3808	-972.67
0.5449,0.4551	-972.67
0.4790,0.5210	-972.66
0.5234,0.4766	-972.49
0.4240,0.5760	-973.06
0.5599,0.4401	-973.90
0.5910,0.4090	-975.24
0.5547,0.4453	-974.00
0.4925,0.5075	-973.25
0.5575,0.4425	-973.15
0.4471,0.5529	-970.24
0.5923,0.4077	-971.93
0.5646,0.4354	-973.25
0.6114,0.3886	-969.82
0.5364,0.4636	-974.15
0.6250,0.3750	-970.74
0.4954,0.5046	-973.15
0.5515,0.4485	-973.50
0.6024,0.3976	-970.33
0.5394,0.4606	-972.36
0.5309,0.4691	-974.20
0.6662,0.3338	-967.72
0.4916,0.5084	-973.07
0.5262,0.4738	-973.28
0.6232,0.3768	-973.25
0.5657,0.4343	-973.26
0.5129,0.4871	-972.84
0.6729,0.3271	-969.86
0.4729,0.5271	-973.44
0.5688,0.4312	-970.26
0.5975,0.4025	-977.88
0.4872,0.5128	-972.91
0.4954,0.5046	-973.01
0.7281,0.2719	-971.04
0.5078,0.4922	-973.00
0.5502,0.4498	-973.48
0.5752,0.4248	-971.60
0.5018,0.4982	-973.11
0.5120,0.4880	-973.68
0.7120,0.2880	-972.39
0.5461,0.4539	-974.15
0.6031,0.3969	-972.84
0.5612,0.4388	-972.46
0.4894,0.5106	-973.03
0.5326,0.4674	-973.88
0.6947,0.3053	-970.19
0.5327,0.4673	-972.71
0.5793,0.4207	-973.50
0.6020,0.3980	-971.99
0.5237,0.4763	-972.68
0.5478,0.4522	-973.43
0.6871,0.3129	-969.27
0.4883,0.5117	-972.69
0.5863,0.4137	-971.56
0.6083,0.3917	-974.69
0.5694,0.4306	-972.76
0.5357,0.4643	-972.84
0.6936,0.3064	-970.17
0.4854,0.5146	-972.89
0.5502,0.4498	-972.47
0.5998,0.4002	-973.19
0.6005,0.3995	-972.39
0.4985,0.5015	-973.10
0.7284,0.2716	-968.09
0.4658,0.5342	-972.89
0.5928,0.4072	-971.18
0.5229,0.4771	-972.87
0.5849,0.4151	-974.99
0.5347,0.4653	-972.70
0.6713,0.3287	-972.70
0.5045,0.4955	-973.13
0.5684,0.4316	-973.03
0.4933,0.5067	-973.10
0.5555,0.4445	-972.46
0.5350,0.4650	-972.28
0.6334,0.3666	-968.59
0.5555,0.4445	-971.57
0.5834,0.4166	-971.57
0.4774,0.5226	-972.64
0.5507,0.4493	-971.86
0.4971,0.5029	-973.15
0.6226,0.3774	-973.23
0.5277,0.4723	-972.85
0.5491,0.4509	-973.26
0.4566,0.5434	-972.58
0.5697,0.4303	-973.04
0.5262,0.4738	-972.23
0.6307,0.3693	-970.23
0.5055,0.4945	-973.11
0.5015,0.4985	-973.09
0.3958,0.6042	-973.35
0.5957,0.4043	-970.79
0.5225,0.4775	-972.78
0.5881,0.4119	-973.34
0.4605,0.5395	-973.07
0.5754,0.4246	-971.60
0.4050,0.5950	-971.19
0.6181,0.3819	-970.72
0.4793,0.5207	-973.08
0.5616,0.4384	-974.69
0.5054,0.4946	-973.07
0.6070,0.3930	-969.86
0.4282,0.5718	-975.02
0.6053,0.3947	-975.01
0.4469,0.5531	-972.79
0.5237,0.4763	-972.96
0.4355,0.5645	-973.15
0.5202,0.4798	-972.89
0.4850,0.5150	-973.55
0.6650,0.3350	-974.58
0.4582,0.5418	-973.09
0.5191,0.4809	-973.51
0.4819,0.5181	-972.86
0.4924,0.5076	-973.10
0.5363,0.4637	-973.71
0.7155,0.2845	-971.59
0.5120,0.4880	-972.91
0.4925,0.5075	-973.40
0.4024,0.5976	-971.59
0.4947,0.5053	-972.97
0.5495,0.4505	-971.87
0.7420,0.2580	-967.30
0.5573,0.4427	-972.46
0.5669,0.4331	-972.47
0.3360,0.6640	-972.15
0.4435,0.5565	-972.59
0.5786,0.4214	-972.85
0.7017,0.2983	-966.91
0.5176,0.4824	-973.26
0.5928,0.4072	-972.68
0.3123,0.6877	-970.22
0.4376,0.5624	-971.87
0.5747,0.4253	-972.81
0.7603,0.2397	-965.37
0.4798,0.5202	-973.56
0.5487,0.4513	-972.47
0.2927,0.7073	-970.36
0.4793,0.5207	-973.25
0.5539,0.4461	-973.98
0.6916,0.3084	-971.75
0.5096,0.4904	-973.36
0.5380,0.4620	-972.38
0.3084,0.6916	-968.78
0.4841,0.5159	-973.26
0.4887,0.5113	-973.02
0.7120,0.2880	-975.10
0.5061,0.4939	-973.14
0.5337,0.4663	-972.97
0.2969,0.7031	-983.07
0.4908,0.5092	-973.03
0.4728,0.5272	-972.46
0.6647,0.3353	-975.25
0.4678,0.5322	-972.38
0.5881,0.4119	-975.48
0.2899,0.7101	-969.62
0.5116,0.4884	-973.19
0.4560,0.5440	-971.52
0.7262,0.2738	-969.03
0.5141,0.4859	-973.39
0.5953,0.4047	-972.72
0.3174,0.6826	-966.95
0.5218,0.4782	-972.79
0.4836,0.5164	-972.81
0.7063,0.2937	-969.56
0.5260,0.4740	-972.65
0.5498,0.4502	-974.87
0.3646,0.6354	-971.78
0.4760,0.5240	-973.10
0.4747,0.5253	-973.00
0.7091,0.2909	-972.29
0.4962,0.5038	-973.08
0.5395,0.4605	-972.84
0.3977,0.6023	-970.81
0.4865,0.5135	-972.90
0.4247,0.5753	-973.35
0.6714,0.3286	-972.70
0.4800,0.5200	-972.84
0.5010,0.4990	-973.13
0.4090,0.5910	-973.39
0.5059,0.4941	-973.12
0.5028,0.4972	-973.05
0.6266,0.3734	-974.36
0.5016,0.4984	-973.12
0.5111,0.4889	-973.23
0.3967,0.6033	-972.49
0.4949,0.5051	-972.96
0.4946,0.5054	-973.10
0.5557,0.4443	-971.79
0.5539,0.4461	-972.68
0.4858,0.5142	-973.29
0.4298,0.5702	-973.25
0.5015,0.4985	-973.09
0.4737,0.5263	-972.79
0.4930,0.5070	-973.21
0.4858,0.5142	-972.78
0.4827,0.5173	-973.21
0.4467,0.5533	-972.58
0.4817,0.5183	-972.78
0.4418,0.5582	-973.30
0.4637,0.5363	-972.90
0.4696,0.5304	-973.38
0.5496,0.4504	-974.06
0.4398,0.5602	-972.61
0.5007,0.4993	-973.09
0.4396,0.5604	-973.09
0.4531,0.5469	-973.14
0.4763,0.5237	-973.00
0.5647,0.4353	-972.73
0.4463,0.5537	-971.93
0.5122,0.4878	-973.34
0.4312,0.5688	-972.95
0.4615,0.5385	-973.37
0.5528,0.4472	-974.16
0.5406,0.4594	-972.68
0.4954,0.5046	-973.17
0.4765,0.5235	-973.00
0.5293,0.4707	-972.96
0.4781,0.5219	-973.79
0.5821,0.4179	-973.23
0.5658,0.4342	-972.73
0.5415,0.4585	-974.34
0.4702,0.5298	-972.42
0.5343,0.4657	-973.93
0.4695,0.5305	-972.77
0.6079,0.3921	-969.85
0.5803,0.4197	-970.61
0.5393,0.4607	-971.89
0.4864,0.5136	-973.39
0.5806,0.4194	-972.23
0.4814,0.5186	-973.52
0.6171,0.3829	-971.67
0.6343,0.3657	-970.23
0.5147,0.4853	-973.34
0.4722,0.5278	-972.00
0.5474,0.4526	-973.81
0.5152,0.4848	-973.29
0.6493,0.3507	-968.46
0.6801,0.3199	-966.18
0.5359,0.4641	-971.83
0.4753,0.5247	-973.00
0.4812,0.5188	-973.53
0.4682,0.5318	-973.27
0.6389,0.3611	-970.82
0.6709,0.3291	-974.82
0.5387,0.4613	-973.15
0.4972,0.5028	-973.13
0.5253,0.4747	-972.86
0.4200,0.5800	-972.17
0.6418,0.3582	-974.34
0.6950,0.3050	-970.19
0.5434,0.4566	-972.50
0.4774,0.5226	-972.82
0.4659,0.5341	-972.48
0.4007,0.5993	-972.81
0.6287,0.3713	-976.02
0.6738,0.3262	-966.24
0.5875,0.4125	-974.03
0.4256,0.5744	-973.64
0.4355,0.5645	-971.08
0.4516,0.5484	-973.55
0.5804,0.4196	-973.20
0.6643,0.3357	-973.87
0.6009,0.3991	-970.35
0.4584,0.5416	-972.75
0.4014,0.5986	-972.80
0.4305,0.5695	-972.68
0.5853,0.4147	-973.63
0.6236,0.3764	-970.23
0.6048,0.3952	-974.57
0.4620,0.5380	-972.45
0.4192,0.5808	-971.52
0.4133,0.5867	-973.28
0.6021,0.3979	-973.65
0.6210,0.3790	-972.21
0.5137,0.4863	-972.88
0.4813,0.5187	-973.00
0.3903,0.6097	-973.52
0.3328,0.6672	-969.51
0.6061,0.3939	-976.34
0.5802,0.4198	-973.20
0.4350,0.5650	-971.33
0.4844,0.5156	-972.94
0.3686,0.6314	-973.83
0.3540,0.6460	-970.29
0.5900,0.4100	-973.01
0.5046,0.4954	-973.13
0.4683,0.5317	-972.51
0.4324,0.5676	-971.57
0.4404,0.5596	-971.88
0.3534,0.6466	-973.33
0.5418,0.4582	-973.51
0.5099,0.4901	-973.13
0.5546,0.4454	-973.56
0.4628,0.5372	-973.50
0.4937,0.5063	-972.90
0.3170,0.6830	-970.03
0.5225,0.4775	-972.15
0.4603,0.5397	-972.91
0.4959,0.5041	-973.13
0.4366,0.5634	-973.90
0.4917,0.5083	-972.97
0.3538,0.6462	-972.71
0.5877,0.4123	-974.04
0.4875,0.5125	-972.77
0.4660,0.5340	-973.30
0.4433,0.5567	-973.27
0.4387,0.5613	-973.60
0.3925,0.6075	-972.14
0.6072,0.3928	-968.99
0.4583,0.5417	-972.92
0.4986,0.5014	-973.08
0.4493,0.5507	-972.37
0.4109,0.5891	-973.70
0.4492,0.5508	-972.37
0.6182,0.3818	-972.65
0.3781,0.6219	-973.96
0.4946,0.5054	-973.14
0.4082,0.5918	-972.29
0.3950,0.6050	-971.24
0.4133,0.5867	-975.38
0.6511,0.3489	-973.44
0.3905,0.6095	-969.95
0.5588,0.4412	-972.46
0.4495,0.5505	-973.18
0.3778,0.6222	-973.47
0.4477,0.5523	-973.63
0.6989,0.3011	-969.43
0.4043,0.5957	-973.51
0.5258,0.4742	-972.76
0.4328,0.5672	-972.93
0.3726,0.6274	-971.06
0.3725,0.6275	-970.54
0.6615,0.3385	-970.42
0.3717,0.6283	-973.18
0.4972,0.5028	-973.13
0.4038,0.5962	-969.63
0.3754,0.6246	-970.00
0.3555,0.6445	-971.45
0.6826,0.3174	-970.75
0.4199,0.5801	-971.52
0.5292,0.4708	-972.38
0.4018,0.5982	-973.59
0.3771,0.6229	-972.49
0.3450,0.6550	-972.43
0.6876,0.3124	-970.06
0.4021,0.5979	-971.59
0.5440,0.4560	-972.49
0.4865,0.5135	-973.44
0.3905,0.6095	-973.51
0.3877,0.6123	-969.95
0.6944,0.3056	-973.47
0.3728,0.6272	-974.18
0.5756,0.4244	-973.43
0.4560,0.5440	-973.11
0.4339,0.5661	-970.52
0.4180,0.5820	-971.52
0.6589,0.3411	-973.68
0.3721,0.6279	-972.64
0.5743,0.4257	-971.31
0.4758,0.5242	-972.81
0.3733,0.6267	-973.64
0.4550,0.5450	-972.94
0.6935,0.3065	-972.62
0.3630,0.6370	-972.95
0.5620,0.4380	-972.96
0.4408,0.5592	-973.08
0.3761,0.6239	-970.50
0.3935,0.6065	-973.85
0.6906,0.3094	-968.51
0.3901,0.6099	-973.53
0.4988,0.5012	-973.09
0.4640,0.5360	-972.90
0.3827,0.6173	-969.96
0.3680,0.6320	-970.61
0.6981,0.3019	-968.58
0.4209,0.5791	-974.08
0.4600,0.5400	-972.27
0.4371,0.5629	-970.85
0.3440,0.6560	-967.96
0.3650,0.6350	-972.32
0.7029,0.2971	-969.50
0.4714,0.5286	-972.89
0.4533,0.5467	-973.32
0.4409,0.5591	-972.13
0.3534,0.6466	-970.91
0.4224,0.5776	-972.47
0.7152,0.2848	-967.90
0.5536,0.4464	-973.54
0.4281,0.5719	-971.84
0.4836,0.5164	-973.00
0.3841,0.6159	-972.32
0.4224,0.5776	-974.03
0.7149,0.2851	-973.41
0.5548,0.4452	-972.90
0.4468,0.5532	-971.08
0.4525,0.5475	-972.76
0.4246,0.5754	-972.14
0.4393,0.5607	-973.58
0.7300,0.2700	-970.11
0.5165,0.4835	-972.85
0.5413,0.4587	-974.33
0.4378,0.5622	-971.87
0.4880,0.5120	-972.83
0.4495,0.5505	-973.18
0.6292,0.3708	-971.28
0.5507,0.4493	-973.08
0.4995,0.5005	-973.10
0.4997,0.5003	-973.10
0.4952,0.5048	-973.00
0.4804,0.5196	-972.84
0.6723,0.3277	-974.88
0.5604,0.4396	-973.92
0.4629,0.5371	-972.75
0.5326,0.4674	-973.75
0.5248,0.4752	-973.46
0.4745,0.5255	-973.00
0.6854,0.3146	-971.58
0.5269,0.4731	-973.61
0.4714,0.5286	-972.55
0.5842,0.4158	-970.89
0.5136,0.4864	-973.05
0.5017,0.4983	-973.10
0.6670,0.3330	-973.97
0.5287,0.4713	-973.54
0.4672,0.5328	-972.37
0.5841,0.4159	-971.23
0.5053,0.4947	-972.99
0.5459,0.4541	-973.77
0.6943,0.3057	-970.18
0.4990,0.5010	-973.11
0.4269,0.5731	-973.31
0.5779,0.4221	-974.10
0.4611,0.5389	-971.97
0.5319,0.4681	-972.07
0.7173,0.2827	-968.86
0.4765,0.5235	-973.47
0.3791,0.6209	-974.91
0.5949,0.4051	-972.33
0.4432,0.5568	-973.28
0.5172,0.4828	-972.70
0.6523,0.3477	-969.70
0.4463,0.5537	-973.01
0.4456,0.5544	-974.11
0.6040,0.3960	-970.74
0.4452,0.5548	-973.90
0.5339,0.4661	-973.92
0.6486,0.3514	-969.69
0.4489,0.5511	-972.37
0.4836,0.5164	-973.00
0.6059,0.3941	-970.30
0.4148,0.5852	-972.56
0.5736,0.4264	-972.50
0.6745,0.3255	-969.15
0.4979,0.5021	-973.06
0.5127,0.4873	-973.15
0.6280,0.3720	-971.27
0.4064,0.5936	-973.84
0.6443,0.3557	-969.08
0.6482,0.3518	-973.35
0.4543,0.5457	-973.49
0.4971,0.5029	-973.11
0.6696,0.3304	-970.53
0.4033,0.5967	-971.19
0.6782,0.3218	-970.67
0.5954,0.4046	-973.88
0.5021,0.4979	-973.11
0.4926,0.5074	-973.13
0.7081,0.2919	-968.71
0.4068,0.5932	-970.81
0.6246,0.3754	-973.28
0.6081,0.3919	-976.44
0.4880,0.5120	-973.12
0.4347,0.5653	-972.90
0.6927,0.3073	-971.78
0.3929,0.6071	-972.13
0.6062,0.3938	-972.46
0.5157,0.4843	-973.30
0.5087,0.4913	-973.30
0.4428,0.5572	-972.36
0.6765,0.3235	-967.69
0.4235,0.5765	-971.22
0.6427,0.3573	-974.96
0.5118,0.4882	-973.24
0.5660,0.4340	-976.19
0.4530,0.5470	-973.14
0.6925,0.3075	-966.09
0.4355,0.5645	-972.63
0.6360,0.3640	-971.91
0.5064,0.4936	-972.89
0.5969,0.4031	-969.99
0.4253,0.5747	-971.23
0.6423,0.3577	-972.02
0.4434,0.5566	-970.77
0.6429,0.3571	-970.26
0.4451,0.5549	-972.80
0.5818,0.4182	-972.89
0.4067,0.5933	-970.43
0.6508,0.3492	-975.92
0.4785,0.5215	-973.26
0.6526,0.3474	-968.44
0.4760,0.5240	-973.00
0.5758,0.4242	-973.74
0.4243,0.5757	-973.97
0.6516,0.3484	-971.58
0.4592,0.5408	-973.08
0.6324,0.3676	-969.14
0.4577,0.5423	-971.74
0.6181,0.3819	-971.68
0.4600,0.5400	-972.59
0.6889,0.3111	-968.49
0.4518,0.5482	-972.96
0.5500,0.4500	-973.07
0.3951,0.6049	-971.24
0.6297,0.3703	-972.88
0.4495,0.5505	-972.78
0.7278,0.2722	-966.11
0.4280,0.5720	-971.55
0.5769,0.4231	-974.07
0.4035,0.5965	-971.19
0.6554,0.3446	-973.57
0.4426,0.5574	-971.90
0.7050,0.2950	-973.02
0.4331,0.5669	-972.92
0.6117,0.3883	-971.18
0.4083,0.5917	-971.18
0.6852,0.3148	-973.91
0.4582,0.5418	-973.25
0.6787,0.3213	-976.66
0.3916,0.6084	-976.57
0.6055,0.3945	-971.59
0.3965,0.6035	-969.97
0.6692,0.3308	-976.86
0.5021,0.4979	-973.17
0.6530,0.3470	-971.60
0.3844,0.6156	-974.66
0.6278,0.3722	-971.27
0.4684,0.5316	-972.77
0.6798,0.3202	-970.70
0.5188,0.4812	-972.75
0.6799,0.3201	-970.70
0.4074,0.5926	-970.81
0.6504,0.3496	-974.66
0.4385,0.5615	-973.36
0.6726,0.3274	-973.45
0.4978,0.5022	-973.07
0.6983,0.3017	-965.23
0.4416,0.5584	-970.48
0.6383,0.3617	-970.81
0.4455,0.5545	-973.24
0.6858,0.3142	-971.59
0.5287,0.4713	-973.65
0.6928,0.3072	-975.03
0.4748,0.5252	-972.60
0.6396,0.3604	-969.10
0.5061,0.4939	-973.33
0.6468,0.3532	-973.31
0.4788,0.5212	-972.91
0.6843,0.3157	-966.92
0.5386,0.4614	-973.45
0.6140,0.3860	-973.97
0.4918,0.5082	-972.91
0.6772,0.3228	-968.43
0.5564,0.4436	-974.50
0.6505,0.3495	-970.93
0.5725,0.4275	-973.37
0.6672,0.3328	-971.19
0.4757,0.5243	-972.90
0.6903,0.3097	-966.10
0.5382,0.4618	-973.45
0.6702,0.3298	-976.21
0.5512,0.4488	-972.67
0.6488,0.3512	-970.91
0.5148,0.4852	-972.87
0.7218,0.2782	-967.03
0.5877,0.4123	-971.21
0.6172,0.3828	-969.76
0.4969,0.5031	-973.16
0.6367,0.3633	-969.12
0.5268,0.4732	-972.85
0.6794,0.3206	-974.44
0.6335,0.3665	-974.61
0.5798,0.4202	-973.19
0.5287,0.4713	-973.31
0.5678,0.4322	-973.57
0.5661,0.4339	-971.41
0.6493,0.3507	-971.54
0.6257,0.3743	-966.63
0.6058,0.3942	-973.74
0.5197,0.4803	-973.44
0.5437,0.4563	-972.85
0.5756,0.4244	-969.47
0.6142,0.3858	-972.58
0.6216,0.3784	-970.23
0.5507,0.4493	-973.28
0.5045,0.4955	-973.11
0.5123,0.4877	-973.10
0.5363,0.4637	-973.56
0.6183,0.3817	-971.20
0.6025,0.3975	-973.66
0.5029,0.4971	-973.17
0.5174,0.4826	-972.98
0.5029,0.4971	-973.12
0.6204,0.3796	-970.23
0.5701,0.4299	-972.77
0.5501,0.4499	-973.47
0.4545,0.5455	-974.40
0.4763,0.5237	-973.19
0.5102,0.4898	-973.18
0.6002,0.3998	-971.16
0.5902,0.4098	-975.20
0.5408,0.4592	-972.02
0.4303,0.5697	-972.40
0.4645,0.5355	-973.04
0.5167,0.4833	-972.58
0.5909,0.4091	-974.50
0.5464,0.4536	-972.67
0.4868,0.5132	-973.38
0.3939,0.6061	-972.12
0.4898,0.5102	-972.78
0.4588,0.5412	-973.91
0.5176,0.4824	-972.98
0.5613,0.4387	-973.69
0.5344,0.4656	-973.80
0.4339,0.5661	-971.32
0.4774,0.5226	-972.00
0.4168,0.5832	-971.52
0.5207,0.4793	-972.97
0.4894,0.5106	-972.98
0.4925,0.5075	-972.98
0.4866,0.5134	-972.80
0.4614,0.5386	-973.53
0.4426,0.5574	-973.28
0.5369,0.4631	-972.98
0.5198,0.4802	-973.29
0.5385,0.4615	-973.15
0.5113,0.4887	-973.19
0.4950,0.5050	-973.12
0.4470,0.5530	-973.64
0.5483,0.4517	-973.64
0.5043,0.4957	-973.18
0.5337,0.4663	-973.92
0.4423,0.5577	-972.36
0.4807,0.5193	-972.69
0.4825,0.5175	-972.72
0.5390,0.4610	-973.77
0.4927,0.5073	-973.01
0.4718,0.5282	-973.68
0.4493,0.5507	-972.98
0.5301,0.4699	-973.69
0.4417,0.5583	-972.36
0.5116,0.4884	-973.14
0.4963,0.5037	-973.10
0.4445,0.5555	-973.25
0.4919,0.5081	-972.84
0.5297,0.4703	-973.44
0.4995,0.5005	-973.09
0.4788,0.5212	-972.74
0.4853,0.5147	-973.24
0.4796,0.5204	-972.43
0.4953,0.5047	-973.21
0.5319,0.4681	-973.35
0.5270,0.4730	-972.96
0.4727,0.5273	-973.33
0.5234,0.4766	-973.71
0.4267,0.5733	-970.95
0.5234,0.4766	-973.43
0.5237,0.4763	-972.77
0.5453,0.4547	-973.03
0.4359,0.5641	-971.09
0.4411,0.5589	-973.07
0.4156,0.5844	-970.84
0.5351,0.4649	-972.98
0.5010,0.4990	-973.11
0.5630,0.4370	-972.46
0.4154,0.5846	-969.82
0.4102,0.5898	-971.18
0.4266,0.5734	-972.72
0.5469,0.4531	-972.86
0.5521,0.4479	-973.93
0.5825,0.4175	-972.90
0.3878,0.6122	-972.23
0.3928,0.6072	-971.70
0.4621,0.5379	-972.45
0.5329,0.4671	-972.71
0.5422,0.4578	-973.18
0.5487,0.4513	-973.26
0.4230,0.5770	-974.94
0.4515,0.5485	-972.77
0.4530,0.5470	-974.46
0.5585,0.4415	-972.93
0.5539,0.4461	-973.76
0.5408,0.4592	-972.51
0.4545,0.5455	-975.31
0.4208,0.5792	-973.12
0.4132,0.5868	-974.34
0.5816,0.4184	-971.57
0.5058,0.4942	-973.25
0.4870,0.5130	-972.81
0.4090,0.5910	-973.02
0.4452,0.5548	-974.34
0.4373,0.5627	-972.87
0.5468,0.4532	-971.73
0.4898,0.5102	-973.27
0.4589,0.5411	-972.26
0.4104,0.5896	-974.08
0.4796,0.5204	-972.67
0.4253,0.5747	-970.33
0.5023,0.4977	-973.10
0.4984,0.5016	-973.11
0.4561,0.5439	-972.40
0.4351,0.5649	-971.86
0.5132,0.4868	-973.37
0.3805,0.6195	-971.92
0.4508,0.5492	-973.17
0.4450,0.5550	-973.03
0.5088,0.4912	-973.09
0.4211,0.5789	-974.07
0.4649,0.5351	-973.32
0.3754,0.6246	-975.60
0.4542,0.5458	-972.21
0.4408,0.5592	-973.31
0.4832,0.5168	-973.27
0.4009,0.5991	-970.40
0.4667,0.5333	-973.03
0.3581,0.6419	-974.30
0.4717,0.5283	-973.01
0.4924,0.5076	-973.16
0.4302,0.5698	-972.12
0.4387,0.5613	-971.87
0.5072,0.4928	-973.09
0.3409,0.6591	-971.29
0.4795,0.5205	-973.16
0.4870,0.5130	-972.86
0.3576,0.6424	-974.32
0.4308,0.5692	-971.84
0.4933,0.5067	-973.21
0.3328,0.6672	-972.28
0.4915,0.5085	-972.90
0.4909,0.5091	-972.89
0.3201,0.6799	-972.92
0.4506,0.5494	-973.17
0.5005,0.4995	-973.10
0.3808,0.6192	-972.40
0.4144,0.5856	-974.64
0.4657,0.5343	-972.62
0.3645,0.6355	-971.22
0.4730,0.5270	-973.00
0.4869,0.5131	-973.01
0.3734,0.6266	-970.53
0.4149,0.5851	-973.59
0.4812,0.5188	-972.62
0.3478,0.6522	-971.69
0.4238,0.5762	-973.99
0.4421,0.5579	-973.99
0.3753,0.6247	-973.05
0.3942,0.6058	-975.12
0.4800,0.5200	-973.08
0.3566,0.6434	-967.88
0.4477,0.5523	-973.84
0.4463,0.5537	-971.93
0.3566,0.6434	-973.78
0.4097,0.5903	-975.19
0.4507,0.5493	-973.17
0.4262,0.5738	-970.35
0.4324,0.5676	-973.48
0.4686,0.5314	-972.89
0.3827,0.6173	-969.96
0.4402,0.5598	-972.84
0.4628,0.5372	-971.71
0.4790,0.5210	-973.42
0.4625,0.5375	-973.80
0.5012,0.4988	-973.11
0.4115,0.5885	-974.04
0.4309,0.5691	-972.40
0.5022,0.4978	-973.10
0.5407,0.4593	-972.84
0.4456,0.5544	-972.58
0.4736,0.5264	-973.53
0.3839,0.6161	-970.43
0.4471,0.5529	-972.79
0.4932,0.5068	-972.88
0.5795,0.4205	-972.87
0.4179,0.5821	-972.52
0.4878,0.5122	-972.77
0.3965,0.6035	-974.59
0.4343,0.5657	-972.64
0.5465,0.4535	-972.48
0.5711,0.4289	-973.92
0.4194,0.5806	-974.13
0.4200,0.5800	-971.85
0.4047,0.5953	-972.73
0.4871,0.5129	-972.86
0.5279,0.4721	-973.07
0.5581,0.4419	-971.52
0.4531,0.5469	-973.51
0.4234,0.5766	-973.07
0.3963,0.6037	-973.34
0.4499,0.5501	-973.58
0.5066,0.4934	-973.25
0.5257,0.4743	-972.55
0.4348,0.5652	-974.21
0.3890,0.6110	-973.56
0.4333,0.5667	-972.12
0.4450,0.5550	-972.58
0.4495,0.5505	-973.39
0.4799,0.5201	-972.44
0.4620,0.5380	-971.84
0.3888,0.6112	-968.59
0.4616,0.5384	-973.21
0.5130,0.4870	-972.94
0.4680,0.5320	-972.64
0.4609,0.5391	-971.81
0.4820,0.5180	-973.07
0.4032,0.5968	-972.76
0.4397,0.5603	-971.88
0.5214,0.4786	-972.20
0.4945,0.5055	-973.12
0.4865,0.5135	-973.50
0.5188,0.4812	-973.12
0.4208,0.5792	-974.72
0.4153,0.5847	-970.50
0.5547,0.4453	-972.90
0.4830,0.5170	-972.87
0.4757,0.5243	-973.19
0.4942,0.5058	-973.29
0.4305,0.5695	-973.52
0.3779,0.6221	-974.96
0.5354,0.4646	-973.26
0.4709,0.5291	-972.66
0.4322,0.5678	-972.66
0.5082,0.4918	-973.29
0.4356,0.5644	-971.86
0.3547,0.6453	-970.28
0.5616,0.4384	-972.96
0.4708,0.5292	-972.54
0.4333,0.5667	-972.12
0.4900,0.5100	-973.03
0.4318,0.5682	-972.94
0.4002,0.5998	-971.21
0.5807,0.4193	-971.90
0.4927,0.5073	-973.16
0.4901,0.5099	-973.11
0.4410,0.5590	-970.70
0.4295,0.5705	-974.11
0.4468,0.5532	-973.65
0.5542,0.4458	-973.11
0.4993,0.5007	-973.08
0.4552,0.5448	-972.76
0.4510,0.5490	-973.16
0.4219,0.5781	-974.68
0.4510,0.5490	-973.95
0.6171,0.3829	-974.06
0.5068,0.4932	-973.28
0.4808,0.5192	-973.31
0.4306,0.5694	-973.52
0.4309,0.5691	-972.95
0.3837,0.6163	-971.38
0.6157,0.3843	-974.96
0.4876,0.5124	-972.77
0.4576,0.5424	-973.94
0.4197,0.5803	-970.88
0.4563,0.5437	-973.98
0.3770,0.6230	-970.99
0.6486,0.3514	-973.98
0.3866,0.6134	-970.41
0.4241,0.5759	-973.98
0.3932,0.6068	-973.43
0.4466,0.5534	-973.22
0.3593,0.6407	-971.93
0.6310,0.3690	-972.37
0.3855,0.6145	-972.28
0.4400,0.5600	-973.33
0.4092,0.5908	-971.91
0.4526,0.5474	-971.81
0.4106,0.5894	-974.43
0.6238,0.3762	-966.68
0.3894,0.6106	-969.05
0.4204,0.5796	-973.13
0.4151,0.5849	-974.61
0.4383,0.5617	-975.10
0.4042,0.5958	-974.29
0.6731,0.3269	-972.03
0.4184,0.5816	-975.47
0.3997,0.6003	-972.84
0.4472,0.5528	-971.73
0.5009,0.4991	-973.09
0.3952,0.6048	-970.39
0.7050,0.2950	-965.18
0.3979,0.6021	-973.71
0.3651,0.6349	-971.76
0.4872,0.5128	-973.22
0.5226,0.4774	-972.51
0.4386,0.5614	-973.11
0.7461,0.2539	-967.38
0.3779,0.6221	-969.98
0.4031,0.5969	-973.16
0.4266,0.5734	-972.43
0.5750,0.4250	-972.51
0.4017,0.5983	-973.59
0.7108,0.2892	-971.45
0.3785,0.6215	-971.96
0.4644,0.5356	-972.33
0.3640,0.6360	-969.56
0.5550,0.4450	-974.67
0.4540,0.5460	-972.39
0.6905,0.3095	-972.52
0.3359,0.6641	-974.88
0.5119,0.4881	-973.34
0.3779,0.6221	-969.48
0.4956,0.5044	-973.15
0.4272,0.5728	-971.84
0.6824,0.3176	-964.63
0.3932,0.6068	-971.69
0.5305,0.4695	-973.21
0.4012,0.5988	-970.80
0.4694,0.5306	-973.01
0.4802,0.5198	-972.84
0.6807,0.3193	-971.47
0.4158,0.5842	-970.51
0.5309,0.4691	-973.09
0.3990,0.6010	-974.08
0.4679,0.5321	-972.38
0.4972,0.5028	-973.10
0.6192,0.3808	-974.61
0.4690,0.5310	-973.39
0.5178,0.4822	-973.19
0.3925,0.6075	-970.83
0.4717,0.5283	-973.46
0.4570,0.5430	-974.13
0.6208,0.3792	-974.18
0.4456,0.5544	-971.27
0.4665,0.5335	-972.63
0.3990,0.6010	-972.85
0.5216,0.4784	-973.14
0.5115,0.4885	-973.14
0.5915,0.4085	-972.67
0.4945,0.5055	-973.12
0.4883,0.5117	-973.53
0.4000,0.6000	-972.42
0.4911,0.5089	-973.25
0.5296,0.4704	-972.61
0.5332,0.4668	-971.91
0.4741,0.5259	-973.83
0.4820,0.5180	-972.93
0.3870,0.6130	-974.55
0.4917,0.5083	-972.90
0.5824,0.4176	-972.57
0.5744,0.4256	-970.41
0.4364,0.5636	-971.60
0.4316,0.5684	-972.39
0.3958,0.6042	-970.81
0.4843,0.5157	-972.82
0.5482,0.4518	-973.25
0.5349,0.4651	-972.56
0.4341,0.5659	-972.38
0.4352,0.5648	-972.64
0.4210,0.5790	-973.44
0.5194,0.4806	-973.44
0.5548,0.4452	-973.34
0.5215,0.4785	-973.31
0.4277,0.5723	-976.21
0.4395,0.5605	-973.09
0.3873,0.6127	-974.99
0.5693,0.4307	-973.04
0.5684,0.4316	-972.75
0.4809,0.5191	-973.53
0.4358,0.5642	-974.18
0.4130,0.5870	-971.88
0.4760,0.5240	-972.61
0.5778,0.4222	-972.22
0.5229,0.4771	-972.87
0.4671,0.5329	-972.63
0.4479,0.5521	-972.79
0.3691,0.6309	-970.59
0.4720,0.5280	-973.23
0.5944,0.4056	-974.62
0.4898,0.5102	-973.11
0.4691,0.5309	-973.39
0.4149,0.5851	-973.25
0.3347,0.6653	-973.58
0.4914,0.5086	-973.07
0.5273,0.4727	-972.85
0.3989,0.6011	-972.04
0.4862,0.5138	-973.34
0.3990,0.6010	-972.03
0.3150,0.6850	-971.66
0.5313,0.4687	-972.46
0.5293,0.4707	-973.20
0.4210,0.5790	-972.16
0.4571,0.5429	-973.10
0.3844,0.6156	-972.31
0.3575,0.6425	-971.40
0.5299,0.4701	-973.20
0.5360,0.4640	-973.27
0.4080,0.5920	-975.64
0.4455,0.5545	-973.68
0.4251,0.5749	-973.95
0.3487,0.6513	-970.41
0.5687,0.4313	-970.82
0.6017,0.3983	-972.81
0.4518,0.5482	-972.77
0.4554,0.5446	-972.93
0.4303,0.5697	-971.56
0.3339,0.6661	-972.93
0.6318,0.3682	-972.93
0.5679,0.4321	-973.57
0.4082,0.5918	-970.81
0.4267,0.5733	-974.20
0.4197,0.5803	-972.50
0.3707,0.6293	-971.62
0.6679,0.3321	-971.90
0.6200,0.3800	-977.57
0.4245,0.5755	-973.36
0.5166,0.4834	-973.11
0.4182,0.5818	-971.19
0.3857,0.6143	-971.81
0.7252,0.2748	-967.07
0.5576,0.4424	-973.38
0.4152,0.5848	-972.90
0.4906,0.5094	-973.07
0.3744,0.6256	-973.60
0.3564,0.6436	-976.15
0.7118,0.2882	-971.48
0.5647,0.4353	-974.29
0.4697,0.5303	-972.77
0.4828,0.5172	-973.21
0.4505,0.5495	-972.77
0.4002,0.5998	-972.02
0.6617,0.3383	-971.10
0.5612,0.4388	-972.46
0.4971,0.5029	-973.12
0.4919,0.5081	-973.04
0.4750,0.5250	-972.60
0.4071,0.5929	-970.81
0.6591,0.3409	-970.39
0.5215,0.4785	-972.36
0.5144,0.4856	-973.39
0.5801,0.4199	-972.55
0.4802,0.5198	-973.32
0.4520,0.5480	-973.54
0.6912,0.3088	-966.90
0.5216,0.4784	-973.31
0.4957,0.5043	-973.13
0.5697,0.4303	-973.61
0.4690,0.5310	-973.76
0.4579,0.5421	-973.26
0.6588,0.3412	-974.34
0.5113,0.4887	-973.41
0.5347,0.4653	-972.42
0.5161,0.4839	-973.11
0.4274,0.5726	-974.18
0.4548,0.5452	-973.48
0.6588,0.3412	-971.05
0.4811,0.5189	-973.15
0.5345,0.4655	-972.14
0.4481,0.5519	-971.54
0.4175,0.5825	-971.19
0.5299,0.4701	-972.25
0.5863,0.4137	-973.31
0.4704,0.5296	-973.60
0.5109,0.4891	-972.88
0.4416,0.5584	-972.83
0.4237,0.5763	-971.53
0.5696,0.4304	-971.64
0.5646,0.4354	-975.06
0.4766,0.5234	-973.19
0.5393,0.4607	-972.68
0.5068,0.4932	-973.23
0.4790,0.5210	-972.49
0.5539,0.4461	-972.68
0.5457,0.4543	-973.40
0.4644,0.5356	-972.75
0.5279,0.4721	-973.07
0.5288,0.4712	-973.42
0.4408,0.5592	-973.55
0.5378,0.4622	-972.68
0.5395,0.4605	-972.52
0.4831,0.5169	-972.67
0.5725,0.4275	-975.13
0.5956,0.4044	-972.33
0.4618,0.5382	-971.68
0.4834,0.5166	-972.67
0.4958,0.5042	-973.20
0.4705,0.5295	-972.66
0.5353,0.4647	-972.84
0.5692,0.4308	-973.60
0.4234,0.5766	-971.84
0.4520,0.5480	-973.34
0.4560,0.5440	-973.46
0.3815,0.6185	-970.45
0.5257,0.4743	-972.55
0.5378,0.4622	-972.68
0.4270,0.5730	-972.43
0.4599,0.5401	-971.79
0.5576,0.4424	-972.46
0.3758,0.6242	-976.08
0.4963,0.5037	-973.05
0.5606,0.4394	-971.73
0.3769,0.6231	-975.01
0.4706,0.5294	-972.89
0.6116,0.3884	-970.72
0.3852,0.6148	-973.69
0.5735,0.4265	-973.39
0.6301,0.3699	-971.82
0.3265,0.6735	-971.86
0.4062,0.5938	-973.08
0.6367,0.3633	-973.60
0.3949,0.6051	-977.22
0.6091,0.3909	-969.84
0.6290,0.3710	-968.11
0.3086,0.6914	-967.16
0.3895,0.6105	-970.40
0.6461,0.3539	-975.10
0.4548,0.5452	-973.30
0.6312,0.3688	-972.38
0.6827,0.3173	-967.69
0.3443,0.6557	-970.53
0.3436,0.6564	-970.55
0.6360,0.3640	-969.68
0.4073,0.5927	-971.56
0.6104,0.3896	-972.52
0.6653,0.3347	-968.41
0.3822,0.6178	-970.92
0.3633,0.6367	-972.37
0.6320,0.3680	-971.31
0.4535,0.5465	-972.39
0.6101,0.3899	-973.41
0.6852,0.3148	-966.91
0.3896,0.6104	-973.09
0.3514,0.6486	-968.51
0.6235,0.3765	-973.76
0.4510,0.5490	-972.97
0.6068,0.3932	-970.73
0.6939,0.3061	-971.81
0.4112,0.5888	-970.10
0.3684,0.6316	-967.37
0.5753,0.4247	-972.82
0.4922,0.5078	-973.01
0.6376,0.3624	-969.68
0.7122,0.2878	-968.77
0.4599,0.5401	-971.62
0.3524,0.6476	-976.41
0.5627,0.4373	-973.22
0.4775,0.5225	-972.82
0.6719,0.3281	-972.00
0.7272,0.2728	-970.03
0.4398,0.5602	-971.64
0.3813,0.6187	-973.84
0.5937,0.4063	-969.66
0.4918,0.5082	-972.94
0.6973,0.3027	-967.74
0.7084,0.2916	-967.82
0.4531,0.5469	-972.57
0.3668,0.6332	-971.72
0.6153,0.3847	-972.60
0.4622,0.5378	-972.45
0.6506,0.3494	-974.67
0.6982,0.3018	-969.42
0.4491,0.5509	-970.74
0.3681,0.6319	-967.90
0.6611,0.3389	-971.09
0.4645,0.5355	-973.04
0.6239,0.3761	-972.25
0.7057,0.2943	-965.17
0.4638,0.5362	-973.19
0.4401,0.5599	-970.92
0.6303,0.3697	-974.49
0.4611,0.5389	-973.06
0.6108,0.3892	-973.43
0.6655,0.3345	-971.16
0.4628,0.5372	-971.56
0.4501,0.5499	-973.77
0.6301,0.3699	-972.89
0.4119,0.5881	-971.54
0.5747,0.4253	-971.91
0.6039,0.3961	-970.74
0.4851,0.5149	-973.31
0.4121,0.5879	-971.89
0.6249,0.3751	-976.35
0.3910,0.6090	-970.84
0.5811,0.4189	-972.56
0.5701,0.4299	-975.31
0.4560,0.5440	-972.23
0.4148,0.5852	-972.56
0.6162,0.3838	-970.25
0.3656,0.6344	-970.65
0.6075,0.3925	-975.53
0.5888,0.4112	-971.56
0.4435,0.5565	-973.72
0.4180,0.5820	-972.85
0.5872,0.4128	-973.32
0.3923,0.6077	-973.90
0.5645,0.4355	-972.99
0.5619,0.4381	-973.71
0.4653,0.5347	-973.45
0.4879,0.5121	-972.73
0.5786,0.4214	-972.22
0.3830,0.6170	-973.30
0.5623,0.4377	-971.71
0.5796,0.4204	-971.90
0.4593,0.5407	-972.59
0.4563,0.5437	-972.23
0.5986,0.4014	-971.17
0.3580,0.6420	-971.97
0.5537,0.4463	-972.03
0.5740,0.4260	-974.30
0.4639,0.5361	-972.32
0.4417,0.5583	-972.83
0.6182,0.3818	-973.13
0.3877,0.6123	-971.32
0.5926,0.4074	-973.81
0.5718,0.4282	-972.20
0.4669,0.5331	-973.16
0.3965,0.6035	-974.17
0.5800,0.4200	-974.16
0.3707,0.6293	-972.15
0.5551,0.4449	-974.67
0.5456,0.4544	-974.68
0.5425,0.4575	-973.52
0.4105,0.5895	-973.35
0.5727,0.4273	-973.67
0.3434,0.6566	-969.26
0.5433,0.4567	-973.89
0.5350,0.4650	-973.40
0.5914,0.4086	-975.62
0.4000,0.6000	-974.05
0.5163,0.4837	-972.98
0.3428,0.6572	-971.87
0.4897,0.5103	-973.11
0.5024,0.4976	-973.18
0.5879,0.4121	-973.34
0.4457,0.5543	-972.58
0.5012,0.4988	-973.09
0.3415,0.6585	-974.55
0.5030,0.4970	-973.07
0.5147,0.4853	-973.17
0.5798,0.4202	-972.87
0.4771,0.5229	-973.00
0.4732,0.5268	-972.36
0.3694,0.6306	-975.93
0.4916,0.5084	-972.87
0.4767,0.5233	-972.91
0.6338,0.3662	-974.62
0.5018,0.4982	-973.12
0.4775,0.5225	-972.82
0.3707,0.6293	-971.62
0.4874,0.5126	-973.32
0.5557,0.4443	-971.79
0.6609,0.3391	-971.75
0.4310,0.5690	-973.23
0.5554,0.4446	-973.35
0.4208,0.5792	-972.80
0.5694,0.4306	-972.48
0.5197,0.4803	-973.13
0.6458,0.3542	-973.28
0.4230,0.5770	-971.84
0.4742,0.5258	-973.31
0.4240,0.5760	-970.92
0.5698,0.4302	-973.89
0.5577,0.4423	-973.39
0.5468,0.4532	-973.98
0.4243,0.5757	-973.06
0.4168,0.5832	-970.52
0.4120,0.5880	-971.89
0.5769,0.4231	-973.46
0.5416,0.4584	-972.34
0.5572,0.4428	-972.92
0.3786,0.6214	-971.96
0.3696,0.6304	-972.72
0.4513,0.5487	-972.96
0.6223,0.3777	-972.22
0.5866,0.4134	-974.36
0.5336,0.4664	-973.24
0.3795,0.6205	-969.48
0.3757,0.6243	-971.52
0.4701,0.5299	-972.89
0.5868,0.4132	-975.77
0.6108,0.3892	-973.88
0.5279,0.4721	-972.85
0.3778,0.6222	-970.98
0.3797,0.6203	-974.38
0.4411,0.5589	-971.42
0.5659,0.4341	-970.88
0.5709,0.4291	-971.35
0.5311,0.4689	-972.97
0.4318,0.5682	-972.12
0.4031,0.5969	-973.94
0.4693,0.5307	-973.14
0.5230,0.4770	-972.87
0.5938,0.4062	-972.32
0.5370,0.4630	-973.58
0.4602,0.5398	-973.07
0.4373,0.5627	-973.13
0.4421,0.5579	-972.83
0.5428,0.4572	-973.87
0.5751,0.4249	-972.21
0.6016,0.3984	-972.40
0.4416,0.5584	-972.36
0.4324,0.5676	-973.48
0.4435,0.5565	-973.04
0.5105,0.4895	-973.31
0.5965,0.4035	-973.91
0.6161,0.3839	-970.25
0.4595,0.5405	-973.08
0.4362,0.5638	-971.35
0.3613,0.6387	-974.15
0.5396,0.4604	-973.16
0.5876,0.4124	-971.56
0.6193,0.3807	-969.26
0.4664,0.5336	-973.16
0.4486,0.5514	-974.43
0.3208,0.6792	-971.38
0.5592,0.4408	-973.17
0.5379,0.4621	-973.60
0.5950,0.4050	-974.64
0.4826,0.5174	-972.58
0.4751,0.5249	-973.40
0.3526,0.6474	-970.93
0.5335,0.4665	-973.24
0.5614,0.4386	-973.94
0.7049,0.2951	-970.40
0.4723,0.5277	-973.12
0.5242,0.4758	-972.96
0.4002,0.5998	-969.59
0.6018,0.3982	-971.16
0.5164,0.4836	-973.05
0.6857,0.3143	-976.27
0.4572,0.5428	-972.41
0.5354,0.4646	-972.69
0.3719,0.6281	-973.69
0.5959,0.4041	-971.56
0.4661,0.5339	-973.30
0.7013,0.2987	-972.88
0.4233,0.5767	-971.53
0.5507,0.4493	-972.47
0.4310,0.5690	-971.29
0.5624,0.4376	-973.97
0.4647,0.5353	-972.33
0.7183,0.2817	-972.62
0.4379,0.5621	-972.87
0.5845,0.4155	-974.30
0.4297,0.5703	-972.12
0.5241,0.4759	-973.35
0.4627,0.5373	-972.75
0.7423,0.2577	-977.89
0.4391,0.5609	-972.86
0.5555,0.4445	-974.46
0.4671,0.5329	-973.68
0.5548,0.4452	-973.34
0.4329,0.5671	-973.20
0.7549,0.2451	-967.55
0.4577,0.5423	-972.92
0.5364,0.4636	-972.98
0.4652,0.5348	-973.45
0.5821,0.4179	-971.90
0.4254,0.5746	-972.74
0.7285,0.2715	-973.03
0.4391,0.5609	-975.30
0.5481,0.4519	-973.63
0.4765,0.5235	-972.90
0.6047,0.3953	-973.29
0.3878,0.6122	-974.97
0.6796,0.3204	-971.45
0.4920,0.5080	-973.26
0.5514,0.4486	-973.08
0.4917,0.5083	-972.97
0.5673,0.4327	-973.02
0.3637,0.6363	-971.24
0.7310,0.2690	-967.14
0.5551,0.4449	-972.68
0.5170,0.4830	-972.77
0.4900,0.5100	-972.91
0.5482,0.4518	-973.06
0.3808,0.6192	-969.48
0.7436,0.2564	-966.27
0.5798,0.4202	-973.83
0.5108,0.4892	-973.14
0.4883,0.5117	-973.16
0.5039,0.4961	-973.12
0.3869,0.6131	-969.03
0.7284,0.2716	-968.09
0.6136,0.3864	-971.64
0.5488,0.4512	-973.06
0.5308,0.4692	-973.58
0.5532,0.4468	-974.17
0.3536,0.6464	-970.91
0.7433,0.2567	-971.58
0.6076,0.3924	-973.79
0.5175,0.4825	-973.05
0.5651,0.4349	-975.09
0.5620,0.4380	-971.21
0.4547,0.5453	-973.12
0.7445,0.2555	-964.14
0.5979,0.4021	-971.56
0.4683,0.5317	-973.02
0.5887,0.4113	-973.35
0.5756,0.4244	-972.52
0.4595,0.5405	-971.94
0.7779,0.2221	-963.16
0.5753,0.4247	-972.82
0.4769,0.5231	-973.37
0.6260,0.3740	-973.31
0.5716,0.4284	-971.63
0.4558,0.5442	-971.34
0.7536,0.2464	-970.88
0.6328,0.3672	-971.32
0.4203,0.5797	-969.92
0.6269,0.3731	-969.19
0.6034,0.3966	-974.94
0.4705,0.5295	-973.25
0.7524,0.2476	-966.39
0.5922,0.4078	-970.44
0.3974,0.6026	-969.56
0.6285,0.3715	-972.85
0.5647,0.4353	-973.51
0.4716,0.5284	-973.35
0.7275,0.2725	-968.08
0.5597,0.4403	-972.94
0.4798,0.5202	-973.16
0.6287,0.3713	-968.64
0.5667,0.4333	-974.62
0.4997,0.5003	-973.10
0.6723,0.3277	-972.01
0.5398,0.4602	-972.36
0.4992,0.5008	-973.11
0.6399,0.3601	-971.40
0.4887,0.5113	-973.07
0.4653,0.5347	-972.76
0.6521,0.3479	-974.10
0.5374,0.4626	-973.14
0.5030,0.4970	-973.03
0.6091,0.3909	-973.83
0.5076,0.4924	-973.25
0.4806,0.5194	-972.92
0.6803,0.3197	-970.71
0.5022,0.4978	-973.10
0.5373,0.4627	-972.84
0.6039,0.3961	-971.58
0.5490,0.4510	-972.47
0.5276,0.4724	-972.96
0.6295,0.3705	-973.94
0.4729,0.5271	-972.79
0.5651,0.4349	-972.99
0.6025,0.3975	-971.16
0.5190,0.4810	-973.51
0.4450,0.5550	-972.58
0.6507,0.3493	-971.56
0.4708,0.5292	-972.54
0.5360,0.4640	-973.84
0.5768,0.4232	-972.83
0.4639,0.5361	-973.04
0.4784,0.5216	-973.34
0.6145,0.3855	-972.58
0.4874,0.5126	-973.37
0.5582,0.4418	-974.10
0.5650,0.4350	-973.51
0.4202,0.5798	-973.78
0.4866,0.5134	-972.80
0.5845,0.4155	-973.96
0.4531,0.5469	-973.89
0.5638,0.4362	-975.54
0.5106,0.4894	-973.27
0.4581,0.5419	-972.42
0.4612,0.5388	-973.37
0.5924,0.4076	-972.30
0.4632,0.5368	-972.31
0.5628,0.4372	-972.46
0.5351,0.4649	-972.70
0.4039,0.5961	-970.02
0.4081,0.5919	-974.90
0.5539,0.4461	-973.54
0.5057,0.4943	-973.14
0.5911,0.4089	-972.29
0.4669,0.5331	-972.76
0.3700,0.6300	-971.64
0.4320,0.5680	-972.94
0.4445,0.5555	-973.03
0.4432,0.5568	-972.59
0.5843,0.4157	-971.23
0.4648,0.5352	-973.32
0.3806,0.6194	-970.45
0.4326,0.5674	-973.47
0.4335,0.5665	-974.53
0.5053,0.4947	-973.07
0.5369,0.4631	-972.39
0.4339,0.5661	-973.71
0.4180,0.5820	-970.86
0.4954,0.5046	-973.14
0.4276,0.5724	-971.25
0.5389,0.4611	-972.84
0.5189,0.4811	-973.65
0.4199,0.5801	-971.85
0.3856,0.6144	-973.21
0.5048,0.4952	-973.15
0.3992,0.6008	-971.21
0.4900,0.5100	-972.91
0.5317,0.4683	-973.86
0.4134,0.5866	-970.48
0.3989,0.6011	-973.67
0.5394,0.4606	-972.52
0.4413,0.5587	-972.60
0.4528,0.5472	-972.57
0.5179,0.4821	-973.12
0.4070,0.5930	-970.81
0.4055,0.5945	-970.80
0.5495,0.4505	-973.27
0.4525,0.5475	-972.76
0.4817,0.5183	-972.56
0.5013,0.4987	-973.05
0.4584,0.5416	-972.08
0.4039,0.5961	-971.19
0.5329,0.4671	-974.16
0.5467,0.4533	-973.60
0.4766,0.5234	-973.28
0.4163,0.5837	-972.88
0.4884,0.5116	-973.21
0.3826,0.6174	-969.00
0.5070,0.4930	-973.23
0.5197,0.4803	-973.52
0.5044,0.4956	-972.99
0.4240,0.5760	-972.76
0.4638,0.5362	-972.75
0.3522,0.6478	-970.94
0.5162,0.4838	-972.85
0.5146,0.4854	-973.11
0.5494,0.4506	-973.46
