#isoforms=['ENSG00000186575.SE.4.A.up_ENSG00000186575.SE.4.A.SE1_ENSG00000186575.SE.4.A.dn','ENSG00000186575.SE.4.B.up_ENSG00000186575.SE.4.B.dn']	exon_lens=('ENSG00000186575.SE.4.A.up',128),('ENSG00000186575.SE.4.A.SE1',163),('ENSG00000186575.SE.4.A.dn',3847),('ENSG00000186575.SE.4.B.up',128),('ENSG00000186575.SE.4.B.dn',194)	iters=5000	burn_in=500	lag=10	percent_accept=93.14	proposal_type=drift	counts=(0,0):219,(1,0):787,(1,1):63	assigned_counts=0:833,1:17	chrom=chr22	strand=+	mRNA_starts=29678196,29678196	mRNA_ends=29698598,29694945
sampled_psi	log_score
0.8090,0.1910	-7092.04
0.7574,0.2426	-7093.31
0.7207,0.2793	-7095.81
0.6447,0.3553	-7097.05
0.6428,0.3572	-7094.14
0.7122,0.2878	-7097.50
0.8180,0.1820	-7086.35
0.7547,0.2453	-7092.14
0.6831,0.3169	-7093.21
0.6379,0.3621	-7096.56
0.6265,0.3735	-7097.81
0.6666,0.3334	-7094.20
0.8348,0.1652	-7081.76
0.7183,0.2817	-7089.21
0.6975,0.3025	-7088.87
0.6825,0.3175	-7091.69
0.6045,0.3955	-7097.35
0.6408,0.3592	-7097.09
0.8384,0.1616	-7096.58
0.7912,0.2088	-7086.21
0.6899,0.3101	-7093.92
0.7128,0.2872	-7091.15
0.5790,0.4210	-7099.58
0.6538,0.3462	-7099.54
0.7996,0.2004	-7083.45
0.7723,0.2277	-7092.41
0.6440,0.3560	-7097.65
0.7103,0.2897	-7087.59
0.5992,0.4008	-7099.94
0.6854,0.3146	-7096.29
0.7814,0.2186	-7091.33
0.7506,0.2494	-7097.60
0.6611,0.3389	-7093.63
0.7504,0.2496	-7088.79
0.6771,0.3229	-7097.01
0.6741,0.3259	-7098.45
0.7492,0.2508	-7088.80
0.8051,0.1949	-7086.24
0.6347,0.3653	-7099.93
0.7553,0.2447	-7086.51
0.7081,0.2919	-7091.21
0.6709,0.3291	-7091.99
0.7499,0.2501	-7093.19
0.8161,0.1839	-7086.33
0.6188,0.3812	-7098.40
0.7930,0.2070	-7087.55
0.6954,0.3046	-7091.41
0.6997,0.3003	-7097.26
0.7681,0.2319	-7089.94
0.8021,0.1979	-7090.42
0.6500,0.3500	-7090.82
0.7915,0.2085	-7087.54
0.7045,0.2955	-7092.13
0.7108,0.2892	-7093.87
0.7421,0.2579	-7087.81
0.7861,0.2139	-7084.92
0.6496,0.3504	-7095.78
0.7996,0.2004	-7097.28
0.7656,0.2344	-7091.11
0.7024,0.2976	-7087.00
0.7062,0.2938	-7094.74
0.7594,0.2406	-7091.05
0.6496,0.3504	-7097.63
0.7893,0.2107	-7091.49
0.7559,0.2441	-7092.15
0.6890,0.3110	-7089.16
0.7095,0.2905	-7095.65
0.7702,0.2298	-7092.37
0.6065,0.3935	-7097.72
0.7975,0.2025	-7097.18
0.8054,0.1946	-7084.82
0.6994,0.3006	-7093.87
0.6858,0.3142	-7098.64
0.7199,0.2801	-7094.85
0.6785,0.3215	-7097.76
0.8021,0.1979	-7089.02
0.7959,0.2041	-7080.77
0.6257,0.3743	-7095.25
0.7237,0.2763	-7093.93
0.7196,0.2804	-7096.73
0.6350,0.3650	-7097.71
0.7899,0.2101	-7090.18
0.7701,0.2299	-7087.53
0.6197,0.3803	-7099.86
0.7296,0.2704	-7093.98
0.6996,0.3004	-7098.10
0.6064,0.3936	-7097.72
0.7755,0.2245	-7094.96
0.7679,0.2321	-7086.35
0.5945,0.4055	-7098.45
0.7257,0.2743	-7098.81
0.7282,0.2718	-7093.97
0.6545,0.3455	-7098.91
0.7522,0.2478	-7091.00
0.7803,0.2197	-7091.31
0.6179,0.3821	-7100.82
0.7214,0.2786	-7092.96
0.7576,0.2424	-7089.89
0.6060,0.3940	-7096.87
0.7632,0.2368	-7088.74
0.7963,0.2037	-7087.57
0.6523,0.3477	-7098.89
0.6620,0.3380	-7095.63
0.7686,0.2314	-7085.14
0.5806,0.4194	-7100.19
0.7451,0.2549	-7087.76
0.7562,0.2438	-7086.50
0.6392,0.3608	-7097.68
0.6294,0.3706	-7097.77
0.7883,0.2117	-7094.10
0.6064,0.3936	-7096.86
0.7957,0.2043	-7086.21
0.7103,0.2897	-7093.87
0.6804,0.3196	-7095.52
0.6331,0.3669	-7101.00
0.7832,0.2168	-7081.09
0.6571,0.3429	-7096.33
0.7736,0.2264	-7088.75
0.7045,0.2955	-7095.60
0.6563,0.3437	-7093.10
0.6335,0.3665	-7098.82
0.7669,0.2331	-7083.98
0.7083,0.2917	-7091.20
0.7496,0.2504	-7095.38
0.7616,0.2384	-7086.42
0.7175,0.2825	-7097.62
0.6464,0.3536	-7094.63
0.7147,0.2853	-7089.29
0.6867,0.3133	-7095.52
0.7676,0.2324	-7091.13
0.7947,0.2053	-7086.21
0.7273,0.2727	-7095.92
0.7341,0.2659	-7096.06
0.7140,0.2860	-7092.05
0.7333,0.2667	-7088.97
0.7636,0.2364	-7086.39
0.7733,0.2267	-7086.29
0.7101,0.2899	-7093.87
0.7169,0.2831	-7093.89
0.7037,0.2963	-7092.14
0.7384,0.2616	-7087.87
0.8022,0.1978	-7080.62
0.7594,0.2406	-7086.45
0.6679,0.3321	-7092.78
0.7328,0.2672	-7097.05
0.7029,0.2971	-7098.17
0.7413,0.2587	-7090.98
0.7912,0.2088	-7087.54
0.7243,0.2757	-7092.97
0.6650,0.3350	-7090.11
0.7516,0.2484	-7095.43
0.6728,0.3272	-7089.78
0.7734,0.2266	-7089.98
0.8245,0.1755	-7084.89
0.7323,0.2677	-7090.99
0.6500,0.3500	-7097.01
0.7173,0.2827	-7092.03
0.6780,0.3220	-7094.04
0.7245,0.2755	-7088.14
0.8283,0.1717	-7084.92
0.7510,0.2490	-7089.89
0.6237,0.3763	-7097.84
0.7386,0.2614	-7085.79
0.7220,0.2780	-7093.92
0.7050,0.2950	-7091.25
0.8186,0.1814	-7078.82
0.7477,0.2523	-7085.55
0.6152,0.3848	-7097.98
0.7363,0.2637	-7094.06
0.7052,0.2948	-7090.38
0.7088,0.2912	-7095.65
0.8000,0.2000	-7088.99
0.7602,0.2398	-7088.75
0.6248,0.3752	-7102.42
0.7163,0.2837	-7091.11
0.6643,0.3357	-7094.92
0.7072,0.2928	-7092.10
0.7920,0.2080	-7092.89
0.7529,0.2471	-7089.89
0.6102,0.3898	-7098.52
0.7522,0.2478	-7082.12
0.7295,0.2705	-7088.03
0.7053,0.2947	-7090.37
0.7843,0.2157	-7088.81
0.7561,0.2439	-7091.02
0.5892,0.4108	-7098.25
0.7641,0.2359	-7092.27
0.7328,0.2672	-7089.98
0.7369,0.2631	-7088.92
0.8015,0.1985	-7086.22
0.7340,0.2660	-7087.94
0.6011,0.3989	-7097.05
0.7550,0.2450	-7092.14
0.7626,0.2374	-7093.41
0.7071,0.2929	-7096.51
0.8117,0.1883	-7086.28
0.6838,0.3162	-7093.20
0.5924,0.4076	-7098.51
0.7407,0.2593	-7090.98
0.7723,0.2277	-7091.19
0.7110,0.2890	-7099.27
0.8047,0.1953	-7087.65
0.6973,0.3027	-7098.89
0.6592,0.3408	-7095.66
0.7585,0.2415	-7084.17
0.7974,0.2026	-7091.69
0.6783,0.3217	-7095.52
0.8252,0.1748	-7074.03
0.7182,0.2818	-7098.57
0.6352,0.3648	-7095.49
0.7154,0.2846	-7092.96
0.7879,0.2121	-7084.90
0.6425,0.3575	-7095.90
0.7931,0.2069	-7084.86
0.7639,0.2361	-7089.91
0.6553,0.3447	-7095.70
0.6541,0.3459	-7093.81
0.7783,0.2217	-7096.30
0.6786,0.3214	-7092.53
0.7840,0.2160	-7088.81
0.7715,0.2285	-7087.53
0.7058,0.2942	-7092.99
0.6472,0.3528	-7100.07
0.7781,0.2219	-7088.77
0.7333,0.2667	-7090.99
0.7952,0.2048	-7092.99
0.7254,0.2746	-7092.00
0.7210,0.2790	-7094.86
0.6895,0.3105	-7090.73
0.7722,0.2278	-7086.30
0.7329,0.2671	-7088.97
0.7722,0.2278	-7091.19
0.7574,0.2426	-7086.48
0.7357,0.2643	-7096.10
0.6902,0.3098	-7098.73
0.8297,0.1703	-7077.02
0.7173,0.2827	-7091.10
0.7939,0.2061	-7086.21
0.7570,0.2430	-7094.44
0.6745,0.3255	-7096.99
0.7172,0.2828	-7092.96
0.8126,0.1874	-7089.23
0.7260,0.2740	-7098.82
0.8250,0.1750	-7091.09
0.7340,0.2660	-7095.05
0.6475,0.3525	-7094.60
0.7223,0.2777	-7089.14
0.8174,0.1826	-7083.34
0.7369,0.2631	-7094.07
0.8025,0.1975	-7079.22
0.7274,0.2726	-7094.94
0.6129,0.3871	-7097.10
0.7011,0.2989	-7089.61
0.8513,0.1487	-7078.32
0.6816,0.3184	-7092.47
0.8188,0.1812	-7081.83
0.7282,0.2718	-7091.01
0.6235,0.3765	-7097.34
0.7266,0.2734	-7093.95
0.8018,0.1982	-7084.83
0.7049,0.2951	-7093.86
0.8138,0.1862	-7077.46
0.7246,0.2754	-7093.94
0.6148,0.3852	-7099.86
0.7129,0.2871	-7094.78
0.7697,0.2303	-7083.91
0.7101,0.2899	-7092.97
0.8245,0.1755	-7086.43
0.7251,0.2749	-7090.06
0.6062,0.3938	-7097.73
0.6873,0.3127	-7094.73
0.7446,0.2554	-7088.84
0.7325,0.2675	-7096.03
0.7983,0.2017	-7091.72
0.6904,0.3096	-7089.11
0.6416,0.3584	-7095.92
0.7014,0.2986	-7093.87
0.7836,0.2164	-7090.09
0.7560,0.2440	-7088.76
0.7602,0.2398	-7092.21
0.7496,0.2504	-7087.70
0.6803,0.3197	-7093.25
0.7457,0.2543	-7087.75
0.7703,0.2297	-7096.00
0.7882,0.2118	-7087.53
0.7425,0.2575	-7086.74
0.7144,0.2856	-7088.38
0.6656,0.3344	-7094.91
0.7196,0.2804	-7092.02
0.7822,0.2178	-7087.51
0.8226,0.1774	-7083.34
0.7176,0.2824	-7089.23
0.7289,0.2711	-7091.01
0.6717,0.3283	-7093.40
0.7611,0.2389	-7095.70
0.7346,0.2654	-7094.04
0.8524,0.1476	-7078.31
0.6918,0.3082	-7093.10
0.7457,0.2543	-7087.75
0.6697,0.3303	-7091.32
0.7975,0.2025	-7086.21
0.7307,0.2693	-7093.00
0.8539,0.1461	-7083.59
0.7066,0.2934	-7096.50
0.7634,0.2366	-7088.74
0.6565,0.3435	-7096.34
0.8260,0.1740	-7089.57
0.7574,0.2426	-7088.76
0.8678,0.1322	-7076.36
0.6620,0.3380	-7094.28
0.7288,0.2712	-7091.01
0.6653,0.3347	-7096.28
0.8197,0.1803	-7090.91
0.7328,0.2672	-7089.98
0.8894,0.1106	-7080.45
0.6458,0.3542	-7094.64
0.7273,0.2727	-7091.02
0.7292,0.2708	-7088.04
0.8467,0.1533	-7086.90
0.7376,0.2624	-7093.05
0.8805,0.1195	-7072.29
0.6589,0.3411	-7094.34
0.7191,0.2809	-7093.90
0.6964,0.3036	-7088.07
0.8506,0.1494	-7092.24
0.7521,0.2479	-7095.44
0.8793,0.1207	-7074.30
0.6946,0.3054	-7092.25
0.7124,0.2876	-7093.87
0.6319,0.3681	-7095.58
0.8576,0.1424	-7080.07
0.7817,0.2183	-7093.89
0.8601,0.1399	-7089.16
0.6670,0.3330	-7096.97
0.7302,0.2698	-7093.99
0.6476,0.3524	-7091.56
0.8451,0.1549	-7080.07
0.7493,0.2507	-7095.37
0.8314,0.1686	-7092.93
0.6784,0.3216	-7091.04
0.7264,0.2736	-7093.95
0.6274,0.3726	-7096.75
0.8803,0.1197	-7084.26
0.7456,0.2544	-7088.83
0.8006,0.1994	-7090.39
0.6701,0.3299	-7094.85
0.7384,0.2616	-7092.02
0.6455,0.3545	-7097.65
0.8652,0.1348	-7078.24
0.7761,0.2239	-7091.24
0.8245,0.1755	-7087.98
0.6912,0.3088	-7098.75
0.7603,0.2397	-7087.59
0.6154,0.3846	-7098.45
0.8430,0.1570	-7080.08
0.7303,0.2697	-7091.00
0.8422,0.1578	-7090.14
0.7205,0.2795	-7094.85
0.7447,0.2553	-7088.84
0.6306,0.3694	-7098.29
0.8664,0.1336	-7072.63
0.7069,0.2931	-7094.74
0.8438,0.1562	-7088.51
0.7100,0.2900	-7094.76
0.7905,0.2095	-7088.87
0.6037,0.3963	-7099.48
0.8569,0.1431	-7089.02
0.7335,0.2665	-7088.96
0.8498,0.1502	-7085.26
0.6910,0.3090	-7101.16
0.8024,0.1976	-7080.62
0.6057,0.3943	-7099.03
0.9128,0.0872	-7074.17
0.7545,0.2455	-7095.51
0.8488,0.1512	-7080.06
0.7011,0.2989	-7096.43
0.7763,0.2237	-7090.00
0.5678,0.4322	-7101.29
0.9131,0.0869	-7071.82
0.7497,0.2503	-7088.80
0.8345,0.1655	-7089.85
0.6847,0.3153	-7089.31
0.7713,0.2287	-7091.17
0.5988,0.4012	-7102.34
0.8943,0.1057	-7078.43
0.7170,0.2830	-7087.38
0.8180,0.1820	-7086.35
0.6923,0.3077	-7092.29
0.7685,0.2315	-7089.94
0.6010,0.3990	-7097.46
0.8967,0.1033	-7078.47
0.7104,0.2896	-7092.97
0.8309,0.1691	-7091.32
0.7176,0.2824	-7092.96
0.7574,0.2426	-7085.34
0.6647,0.3353	-7090.13
0.8915,0.1085	-7069.97
0.7076,0.2924	-7092.10
0.7974,0.2026	-7088.95
0.7169,0.2831	-7088.32
0.7684,0.2316	-7088.74
0.6629,0.3371	-7091.56
0.9034,0.0966	-7078.61
0.6692,0.3308	-7096.98
0.7747,0.2253	-7085.05
0.6632,0.3368	-7092.90
0.8133,0.1867	-7086.30
0.6670,0.3330	-7094.19
0.8973,0.1027	-7084.99
0.6776,0.3224	-7099.24
0.7634,0.2366	-7093.43
0.7004,0.2996	-7093.87
0.7941,0.2059	-7083.51
0.6818,0.3182	-7095.52
0.9090,0.0910	-7087.96
0.6543,0.3457	-7096.99
0.7388,0.2612	-7090.98
0.6727,0.3273	-7095.55
0.7832,0.2168	-7095.22
0.6518,0.3482	-7095.75
0.9113,0.0887	-7071.83
0.6363,0.3637	-7099.38
0.7452,0.2548	-7087.76
0.6859,0.3141	-7099.42
0.7970,0.2030	-7079.37
0.5851,0.4149	-7098.05
0.9107,0.0893	-7074.16
0.6168,0.3832	-7098.90
0.7230,0.2770	-7089.13
0.7157,0.2843	-7094.81
0.7801,0.2199	-7088.78
0.5812,0.4188	-7099.20
0.9151,0.0849	-7071.81
0.6024,0.3976	-7098.25
0.7054,0.2946	-7093.86
0.6592,0.3408	-7099.61
0.7641,0.2359	-7088.74
0.6095,0.3905	-7099.43
0.9223,0.0777	-7064.38
0.6298,0.3702	-7100.95
0.7082,0.2918	-7090.32
0.6277,0.3723	-7097.27
0.7133,0.2867	-7092.05
0.6466,0.3534	-7097.64
0.9199,0.0801	-7069.36
0.6473,0.3527	-7095.82
0.7069,0.2931	-7088.58
0.5845,0.4155	-7099.78
0.7164,0.2836	-7094.81
0.6447,0.3553	-7095.86
0.9064,0.0936	-7074.14
0.5696,0.4304	-7099.58
0.6873,0.3127	-7097.88
0.6558,0.3442	-7092.47
0.7327,0.2673	-7097.04
0.6291,0.3709	-7095.13
0.9133,0.0867	-7076.53
0.5508,0.4492	-7100.97
0.7389,0.2611	-7089.94
0.6077,0.3923	-7097.69
0.7375,0.2625	-7093.05
0.5906,0.4094	-7101.86
0.9180,0.0820	-7079.05
0.5653,0.4347	-7099.22
0.7234,0.2766	-7092.97
0.6062,0.3938	-7098.59
0.7336,0.2664	-7090.99
0.6239,0.3761	-7096.83
0.9215,0.0785	-7076.73
0.6661,0.3339	-7096.97
0.7059,0.2941	-7098.24
0.6106,0.3894	-7098.07
0.7169,0.2831	-7096.68
0.5912,0.4088	-7098.92
0.9148,0.0852	-7069.44
0.6782,0.3218	-7094.03
0.6681,0.3319	-7096.27
0.6416,0.3584	-7100.58
0.7511,0.2489	-7092.10
0.6390,0.3610	-7096.54
0.9118,0.0882	-7067.16
0.7090,0.2910	-7090.30
0.6342,0.3658	-7096.07
0.6340,0.3660	-7095.52
0.7599,0.2401	-7094.51
0.5817,0.4183	-7100.17
0.9305,0.0695	-7069.25
0.7123,0.2877	-7089.34
0.6984,0.3016	-7093.88
0.5836,0.4164	-7097.77
0.7966,0.2034	-7088.94
0.6068,0.3932	-7095.11
0.9369,0.0631	-7066.52
0.7006,0.2994	-7091.32
0.7166,0.2834	-7097.60
0.6456,0.3544	-7095.85
0.8002,0.1998	-7091.77
0.6447,0.3553	-7097.65
0.9414,0.0586	-7080.32
0.6956,0.3044	-7095.54
0.7384,0.2616	-7086.83
0.7097,0.2903	-7095.66
0.7396,0.2604	-7089.93
0.6098,0.3902	-7095.85
0.9451,0.0549	-7060.69
0.6806,0.3194	-7089.47
0.7161,0.2839	-7096.66
0.7149,0.2851	-7102.15
0.6785,0.3215	-7093.28
0.6437,0.3563	-7094.11
0.9447,0.0553	-7063.55
0.7350,0.2650	-7089.96
0.6569,0.3431	-7095.03
0.7499,0.2501	-7096.48
0.6892,0.3108	-7094.72
0.6080,0.3920	-7097.24
0.9533,0.0467	-7066.30
0.7515,0.2485	-7089.89
0.6105,0.3895	-7100.32
0.7656,0.2344	-7087.55
0.6765,0.3235	-7097.00
0.5908,0.4092	-7098.19
0.9372,0.0628	-7063.81
0.7533,0.2467	-7092.12
0.6030,0.3970	-7097.82
0.7589,0.2411	-7088.75
0.7078,0.2922	-7089.44
0.5902,0.4098	-7099.31
0.9347,0.0653	-7071.88
0.7671,0.2329	-7086.35
0.6382,0.3618	-7095.42
0.7457,0.2543	-7086.68
0.7249,0.2751	-7096.85
0.5537,0.4463	-7101.95
0.9357,0.0643	-7079.93
0.7676,0.2324	-7088.74
0.6310,0.3690	-7096.68
0.7905,0.2095	-7082.23
0.7249,0.2751	-7092.00
0.6153,0.3847	-7097.98
0.9298,0.0702	-7071.83
0.7217,0.2783	-7090.10
0.5903,0.4097	-7098.57
0.7882,0.2118	-7094.10
0.7405,0.2595	-7088.88
0.5883,0.4117	-7101.13
0.9143,0.0857	-7069.45
0.6858,0.3142	-7093.17
0.6343,0.3657	-7098.82
0.7770,0.2230	-7093.75
0.7403,0.2597	-7093.07
0.6640,0.3360	-7094.93
0.8897,0.1103	-7072.10
0.6913,0.3087	-7097.14
0.6895,0.3105	-7094.72
0.7695,0.2305	-7093.56
0.7213,0.2787	-7092.96
0.7109,0.2891	-7099.27
0.8981,0.1019	-7076.32
0.7250,0.2750	-7098.79
0.6698,0.3302	-7099.10
0.7591,0.2409	-7091.05
0.7378,0.2622	-7094.08
0.7214,0.2786	-7090.11
0.9072,0.0928	-7074.15
0.7164,0.2836	-7095.74
0.6626,0.3374	-7095.62
0.7444,0.2556	-7092.05
0.7346,0.2654	-7084.88
0.6934,0.3066	-7093.90
0.9056,0.0944	-7080.93
0.6725,0.3275	-7095.55
0.6639,0.3361	-7096.29
0.7848,0.2152	-7099.16
0.7373,0.2627	-7088.92
0.6473,0.3527	-7096.43
0.9072,0.0928	-7083.27
0.7116,0.2884	-7090.26
0.6457,0.3543	-7098.25
0.8004,0.1996	-7087.61
0.7248,0.2752	-7092.00
0.6362,0.3638	-7098.82
0.9155,0.0845	-7076.58
0.7020,0.2980	-7090.44
0.6745,0.3255	-7094.08
0.7929,0.2071	-7084.87
0.7371,0.2629	-7095.10
0.6363,0.3637	-7097.70
0.9047,0.0953	-7071.89
0.6860,0.3140	-7100.99
0.6349,0.3651	-7097.16
0.7591,0.2409	-7089.90
0.6922,0.3078	-7093.10
0.6155,0.3845	-7099.39
0.9129,0.0871	-7078.87
0.7158,0.2842	-7094.81
0.6445,0.3555	-7095.27
0.7662,0.2338	-7083.99
0.6136,0.3864	-7100.78
0.6077,0.3923	-7100.75
0.9067,0.0933	-7071.87
0.7140,0.2860	-7088.39
0.6719,0.3281	-7096.27
0.7860,0.2140	-7083.62
0.6000,0.4000	-7098.71
0.6164,0.3836	-7098.91
0.9009,0.0991	-7078.55
0.7036,0.2964	-7087.81
0.6814,0.3186	-7091.72
0.7721,0.2279	-7093.63
0.6050,0.3950	-7098.61
0.6453,0.3547	-7097.05
0.8846,0.1154	-7084.42
0.7790,0.2210	-7088.77
0.6886,0.3114	-7093.93
0.7581,0.2419	-7091.04
0.5909,0.4091	-7096.35
0.5757,0.4243	-7100.29
0.8611,0.1389	-7080.08
0.7945,0.2055	-7088.91
0.6824,0.3176	-7091.69
0.7908,0.2092	-7087.54
0.5856,0.4144	-7098.37
0.5953,0.4047	-7098.82
0.8760,0.1240	-7078.25
0.7738,0.2262	-7086.29
0.6800,0.3200	-7095.52
0.8103,0.1897	-7084.82
0.5894,0.4106	-7097.15
0.6276,0.3724	-7099.88
0.9025,0.0975	-7076.36
0.8056,0.1944	-7093.35
0.6952,0.3048	-7092.24
0.7951,0.2049	-7080.78
0.5974,0.4026	-7099.56
0.6478,0.3522	-7097.03
0.9014,0.0986	-7078.57
0.8149,0.1851	-7086.31
0.7077,0.2923	-7092.98
0.8256,0.1744	-7092.67
0.5960,0.4040	-7098.80
0.6271,0.3729	-7099.36
0.9005,0.0995	-7076.34
0.8168,0.1832	-7086.33
0.7221,0.2779	-7092.96
0.8092,0.1908	-7080.49
0.6245,0.3755	-7098.85
0.5963,0.4037	-7100.35
0.8769,0.1231	-7074.33
0.8201,0.1799	-7090.92
0.7468,0.2532	-7096.39
0.8207,0.1793	-7083.34
0.6281,0.3719	-7098.83
0.6429,0.3571	-7095.89
0.8594,0.1406	-7083.69
0.8246,0.1754	-7078.70
0.7538,0.2462	-7092.13
0.8381,0.1619	-7091.62
0.6535,0.3465	-7098.26
0.6050,0.3950	-7096.91
0.8570,0.1430	-7083.65
0.8514,0.1486	-7087.04
0.7528,0.2472	-7084.32
0.8407,0.1593	-7086.75
0.6372,0.3628	-7094.32
0.5682,0.4318	-7097.98
0.8550,0.1450	-7087.16
0.8387,0.1613	-7078.46
0.7284,0.2716	-7095.94
0.8348,0.1652	-7085.00
0.5887,0.4113	-7102.57
0.5463,0.4537	-7101.13
0.8494,0.1506	-7081.79
0.8251,0.1749	-7084.89
0.7556,0.2444	-7088.76
0.8478,0.1522	-7081.78
0.6225,0.3775	-7095.86
0.5534,0.4466	-7100.45
0.8218,0.1782	-7078.75
0.7822,0.2178	-7086.23
0.7089,0.2911	-7092.98
0.8595,0.1405	-7078.26
0.6373,0.3627	-7097.13
0.6034,0.3966	-7098.23
0.8394,0.1606	-7081.76
0.7417,0.2583	-7093.09
0.7400,0.2600	-7092.02
0.8668,0.1332	-7083.86
0.6395,0.3605	-7095.39
0.6193,0.3807	-7101.80
0.8335,0.1665	-7073.71
0.7436,0.2564	-7087.78
0.7308,0.2692	-7094.00
0.8603,0.1397	-7089.16
0.5762,0.4238	-7101.20
0.6796,0.3204	-7097.78
0.8181,0.1819	-7084.85
0.7595,0.2405	-7099.10
0.7399,0.2601	-7083.66
0.8491,0.1509	-7081.79
0.5993,0.4007	-7100.74
0.6584,0.3416	-7095.01
0.8368,0.1632	-7085.02
0.7447,0.2553	-7088.84
0.7362,0.2638	-7093.03
0.8597,0.1403	-7083.70
0.5736,0.4264	-7098.85
0.6119,0.3881	-7098.50
0.8632,0.1368	-7078.25
0.7485,0.2515	-7101.90
0.7161,0.2839	-7093.89
0.8520,0.1480	-7090.56
0.5648,0.4352	-7101.59
0.6376,0.3624	-7097.13
0.8413,0.1587	-7080.09
0.7828,0.2172	-7083.67
0.6921,0.3079	-7096.34
0.8668,0.1332	-7074.50
0.5928,0.4072	-7100.75
0.6404,0.3596	-7097.67
0.8391,0.1609	-7085.06
0.7786,0.2214	-7086.25
0.6835,0.3165	-7093.98
0.8070,0.1930	-7084.82
0.5333,0.4667	-7102.06
0.6220,0.3780	-7098.37
0.8122,0.1878	-7084.82
0.7860,0.2140	-7094.03
0.6127,0.3873	-7094.81
0.7993,0.2007	-7095.89
0.5428,0.4572	-7102.29
0.5880,0.4120	-7102.56
0.7998,0.2002	-7088.99
0.7566,0.2434	-7086.49
0.6106,0.3894	-7100.32
0.7623,0.2377	-7087.58
0.5375,0.4625	-7101.78
0.6183,0.3817	-7096.96
0.8023,0.1977	-7087.63
0.7458,0.2542	-7092.06
0.6151,0.3849	-7097.04
0.7598,0.2402	-7091.05
0.5667,0.4333	-7101.30
0.6601,0.3399	-7095.65
0.7797,0.2203	-7091.30
0.7983,0.2017	-7091.72
0.6226,0.3774	-7097.86
0.7854,0.2146	-7092.71
0.5770,0.4230	-7098.40
0.5990,0.4010	-7098.73
0.7698,0.2302	-7085.12
0.7637,0.2363	-7089.91
0.6506,0.3494	-7099.50
0.7576,0.2424	-7084.20
0.6268,0.3732	-7098.32
0.5993,0.4007	-7101.95
0.7770,0.2230	-7091.26
0.7902,0.2098	-7090.19
0.6012,0.3988	-7100.33
0.6761,0.3239	-7094.79
0.6530,0.3470	-7098.26
0.6246,0.3754	-7095.28
0.7441,0.2559	-7092.05
0.7777,0.2223	-7088.77
0.5956,0.4044	-7098.81
0.6477,0.3523	-7092.77
0.6734,0.3266	-7097.71
0.6208,0.3792	-7096.41
0.7226,0.2774	-7092.01
0.7983,0.2017	-7087.59
0.5672,0.4328	-7099.40
0.6601,0.3399	-7098.30
0.6823,0.3177	-7095.52
0.5596,0.4404	-7100.93
0.7150,0.2850	-7088.36
0.8128,0.1872	-7092.17
0.5640,0.4360	-7099.28
0.6689,0.3311	-7096.27
0.5951,0.4049	-7097.67
0.6084,0.3916	-7098.99
0.6593,0.3407	-7095.65
0.8357,0.1643	-7088.26
0.5615,0.4385	-7101.13
0.6810,0.3190	-7093.24
0.6195,0.3805	-7098.39
0.5937,0.4063	-7100.75
0.6871,0.3129	-7098.66
0.8069,0.1931	-7094.83
0.5964,0.4036	-7099.96
0.6928,0.3072	-7093.90
0.5916,0.4084	-7100.02
0.6017,0.3983	-7096.61
0.7228,0.2772	-7093.92
0.8311,0.1689	-7100.89
0.6020,0.3980	-7100.33
0.6932,0.3068	-7095.53
0.5672,0.4328	-7099.40
0.6261,0.3739	-7096.26
0.7023,0.2977	-7095.58
0.8506,0.1494	-7080.06
0.5461,0.4539	-7100.40
0.6410,0.3590	-7097.09
0.5538,0.4462	-7101.30
0.5503,0.4497	-7101.80
0.6741,0.3259	-7094.81
0.8642,0.1358	-7072.69
0.5427,0.4573	-7101.78
0.6460,0.3540	-7098.85
0.5418,0.4582	-7101.63
0.5132,0.4868	-7102.82
0.7089,0.2911	-7096.54
0.8495,0.1505	-7078.33
0.6114,0.3886	-7097.60
0.6258,0.3742	-7093.19
0.5582,0.4418	-7101.90
0.5637,0.4363	-7100.32
0.7105,0.2895	-7098.36
0.8657,0.1343	-7081.97
0.6620,0.3380	-7094.95
0.6407,0.3593	-7094.78
0.6035,0.3965	-7098.64
0.5713,0.4287	-7100.09
0.7327,0.2673	-7093.01
0.8596,0.1404	-7078.26
0.6876,0.3124	-7092.36
0.6790,0.3210	-7093.27
0.6446,0.3554	-7102.41
0.5573,0.4427	-7101.68
0.7343,0.2657	-7097.09
0.8181,0.1819	-7090.86
0.6947,0.3053	-7098.83
0.6801,0.3199	-7093.26
0.6597,0.3403	-7096.97
0.6245,0.3755	-7100.37
0.6781,0.3219	-7091.80
0.8140,0.1860	-7087.78
0.6526,0.3474	-7093.85
0.6236,0.3764	-7096.83
0.7224,0.2776	-7092.96
0.5871,0.4129	-7098.67
0.7294,0.2706	-7097.95
0.8476,0.1524	-7080.07
0.6216,0.3784	-7097.87
0.6221,0.3779	-7096.37
0.7667,0.2333	-7086.36
0.6004,0.3996	-7099.93
0.7495,0.2505	-7087.70
0.8653,0.1347	-7080.10
0.5971,0.4029	-7099.17
0.5998,0.4002	-7097.50
0.7403,0.2597	-7092.02
0.6321,0.3679	-7100.45
0.7559,0.2441	-7088.76
0.8571,0.1429	-7076.48
0.6149,0.3851	-7099.86
0.5535,0.4465	-7100.02
0.7413,0.2587	-7097.29
0.5953,0.4047	-7101.13
0.7108,0.2892	-7091.17
0.8403,0.1597	-7071.80
0.6460,0.3540	-7096.44
0.5715,0.4285	-7101.24
0.7183,0.2817	-7090.15
0.6037,0.3963	-7096.11
0.6971,0.3029	-7091.38
0.8347,0.1653	-7085.00
0.6398,0.3602	-7099.40
0.5606,0.4394	-7099.69
0.7036,0.2964	-7089.54
0.5775,0.4225	-7099.00
0.7035,0.2965	-7090.41
0.8212,0.1788	-7090.96
0.6090,0.3910	-7098.10
0.5727,0.4273	-7100.64
0.6983,0.3017	-7098.07
0.5976,0.4024	-7099.16
0.7423,0.2577	-7089.92
0.8075,0.1925	-7089.12
0.6459,0.3541	-7098.85
0.5216,0.4784	-7101.95
0.7318,0.2682	-7088.99
0.5962,0.4038	-7098.41
0.7103,0.2897	-7096.56
0.8163,0.1837	-7086.33
0.6642,0.3358	-7096.97
0.4846,0.5154	-7104.19
0.7622,0.2378	-7088.74
0.6176,0.3824	-7100.33
0.7148,0.2852	-7091.12
0.8561,0.1439	-7085.41
0.6451,0.3549	-7097.05
0.5584,0.4416	-7100.49
0.7637,0.2363	-7088.74
0.6411,0.3589	-7098.25
0.7032,0.2968	-7091.28
0.8237,0.1763	-7081.80
0.6143,0.3857	-7099.39
0.5179,0.4821	-7102.55
0.7436,0.2564	-7097.37
0.6432,0.3568	-7095.30
0.6492,0.3508	-7094.56
0.8294,0.1706	-7083.35
0.5913,0.4087	-7100.02
0.5871,0.4129	-7101.14
0.7124,0.2876	-7094.78
0.7164,0.2836	-7091.11
0.6338,0.3662	-7096.08
0.8332,0.1668	-7086.58
0.6031,0.3969	-7097.81
0.6368,0.3632	-7096.58
0.7116,0.2884	-7086.65
0.6973,0.3027	-7090.54
0.6152,0.3848	-7099.39
0.8541,0.1459	-7083.60
0.6317,0.3683	-7095.05
0.6041,0.3959	-7099.90
0.7660,0.2340	-7086.37
0.6970,0.3030	-7100.55
0.5964,0.4036	-7097.62
0.8776,0.1224	-7072.35
0.5909,0.4091	-7098.92
0.6134,0.3866	-7098.01
0.7938,0.2062	-7091.60
0.7034,0.2966	-7099.05
0.6714,0.3286	-7090.55
0.8860,0.1140	-7084.48
0.5893,0.4107	-7097.52
0.6408,0.3592	-7098.25
0.8202,0.1798	-7087.89
0.6729,0.3271	-7097.71
0.7031,0.2969	-7093.00
0.8819,0.1181	-7074.27
0.6555,0.3445	-7093.77
0.6415,0.3585	-7097.08
0.8222,0.1778	-7084.87
0.6796,0.3204	-7099.28
0.6899,0.3101	-7093.92
0.8718,0.1282	-7085.91
0.6453,0.3547	-7096.45
0.7049,0.2951	-7089.51
0.8394,0.1606	-7076.80
0.6533,0.3467	-7100.80
0.6813,0.3187	-7093.24
0.8961,0.1039	-7076.31
0.6005,0.3995	-7099.11
0.7144,0.2856	-7085.63
0.8519,0.1481	-7081.81
0.7040,0.2960	-7099.07
0.7432,0.2568	-7086.73
0.8906,0.1094	-7072.09
0.6149,0.3851	-7099.39
0.7659,0.2341	-7100.59
0.8626,0.1374	-7080.09
0.7114,0.2886	-7094.77
0.6995,0.3005	-7089.65
0.8689,0.1311	-7080.13
0.6020,0.3980	-7097.02
0.7210,0.2790	-7086.31
0.8428,0.1572	-7076.73
0.6809,0.3191	-7096.28
0.7020,0.2980	-7095.58
0.8845,0.1155	-7072.20
0.6106,0.3894	-7099.87
0.7437,0.2563	-7092.04
0.7923,0.2077	-7095.58
0.6706,0.3294	-7098.40
0.6782,0.3218	-7090.31
0.9032,0.0968	-7074.14
0.6698,0.3302	-7096.27
0.6815,0.3185	-7099.32
0.7961,0.2039	-7088.93
0.6874,0.3126	-7095.52
0.6405,0.3595	-7093.63
0.8825,0.1175	-7086.36
0.6619,0.3381	-7096.97
0.6379,0.3621	-7094.29
0.8061,0.1939	-7081.97
0.6132,0.3868	-7100.78
0.5602,0.4398	-7099.22
0.8558,0.1442	-7078.28
0.7422,0.2578	-7087.80
0.6403,0.3597	-7098.83
0.8083,0.1917	-7089.14
0.5869,0.4131	-7097.98
0.5259,0.4741	-7101.69
0.8888,0.1112	-7080.43
0.7573,0.2427	-7094.45
0.6048,0.3952	-7099.47
0.8315,0.1685	-7078.57
0.5649,0.4351	-7101.06
0.5135,0.4865	-7102.81
0.8884,0.1116	-7074.20
0.7438,0.2562	-7085.65
0.6413,0.3587	-7095.34
0.8207,0.1793	-7087.90
0.5577,0.4423	-7101.67
0.5774,0.4226	-7099.00
0.8744,0.1256	-7078.25
0.7407,0.2593	-7087.83
0.6505,0.3495	-7095.15
0.8363,0.1637	-7080.13
0.5751,0.4249	-7099.09
0.5998,0.4002	-7099.53
0.8829,0.1171	-7080.32
0.7480,0.2520	-7090.99
0.6745,0.3255	-7092.62
0.8535,0.1465	-7073.01
0.5880,0.4120	-7099.00
0.6548,0.3452	-7094.43
0.9028,0.0972	-7078.60
0.7629,0.2371	-7088.74
0.6415,0.3585	-7096.50
0.8393,0.1607	-7080.10
0.5738,0.4262	-7099.43
0.6177,0.3823	-7098.42
0.9183,0.0817	-7074.22
0.7374,0.2626	-7092.01
0.6750,0.3250	-7101.38
0.8272,0.1728	-7086.48
0.5428,0.4572	-7101.26
0.6263,0.3737	-7097.29
0.9352,0.0648	-7066.55
0.7222,0.2778	-7091.05
0.6912,0.3088	-7091.50
0.8335,0.1665	-7089.81
0.5489,0.4511	-7100.64
0.6448,0.3552	-7098.25
0.9517,0.0483	-7069.29
0.7493,0.2507	-7085.52
0.6771,0.3229	-7090.34
0.8182,0.1818	-7086.35
0.5016,0.4984	-7103.36
0.6934,0.3066	-7093.90
0.9320,0.0680	-7066.62
0.7880,0.2120	-7091.47
0.6222,0.3778	-7095.87
0.8427,0.1573	-7093.52
0.5224,0.4776	-7102.44
0.7253,0.2747	-7089.09
0.9032,0.0968	-7071.91
0.7319,0.2681	-7093.00
0.6348,0.3652	-7099.37
0.8571,0.1429	-7080.07
0.5563,0.4437	-7102.15
0.6978,0.3022	-7094.72
0.8938,0.1062	-7074.16
0.7300,0.2700	-7090.01
0.6564,0.3436	-7098.93
0.8820,0.1180	-7070.24
0.5648,0.4352	-7101.85
0.6628,0.3372	-7098.32
0.8922,0.1078	-7076.29
0.7128,0.2872	-7099.33
0.6760,0.3240	-7091.85
0.8462,0.1538	-7078.37
0.5965,0.4035	-7101.53
0.7280,0.2720	-7094.95
0.9024,0.0976	-7078.59
0.7939,0.2061	-7079.47
0.6332,0.3668	-7092.82
0.8782,0.1218	-7080.24
0.5877,0.4123	-7100.78
0.7459,0.2541	-7090.98
0.9031,0.0969	-7071.91
0.7718,0.2282	-7091.18
0.6226,0.3774	-7094.85
0.9013,0.0987	-7082.99
0.6183,0.3817	-7099.37
0.7213,0.2787	-7096.77
0.9159,0.0841	-7076.59
0.7788,0.2212	-7090.03
0.6431,0.3569	-7094.71
0.8785,0.1215	-7074.31
0.6244,0.3756	-7099.87
0.7484,0.2516	-7087.72
0.9139,0.0861	-7090.72
0.7630,0.2370	-7095.76
0.6393,0.3607	-7095.39
0.8494,0.1506	-7076.60
0.6083,0.3917	-7097.23
0.8120,0.1880	-7083.36
0.8999,0.1001	-7074.14
0.7403,0.2597	-7089.93
0.6208,0.3792	-7099.36
0.8547,0.1453	-7085.38
0.6408,0.3592	-7095.93
0.8457,0.1543	-7083.48
0.8986,0.1014	-7080.69
0.7497,0.2503	-7090.99
0.6003,0.3997	-7101.55
0.8655,0.1345	-7081.97
0.6404,0.3596	-7096.52
0.8306,0.1694	-7088.12
0.9096,0.0904	-7071.85
0.7242,0.2758	-7092.00
0.6054,0.3946	-7098.61
0.8598,0.1402	-7080.07
0.5974,0.4026	-7099.95
0.8663,0.1337	-7078.24
0.9107,0.0893	-7071.84
0.7485,0.2515	-7088.81
0.6099,0.3901	-7102.55
0.8617,0.1383	-7076.42
0.6069,0.3931	-7099.45
0.8559,0.1441	-7072.94
0.9027,0.0973	-7085.28
0.7444,0.2556	-7098.46
0.5902,0.4098	-7101.50
0.8486,0.1514	-7086.96
0.6138,0.3862	-7097.08
0.8598,0.1402	-7076.45
0.8664,0.1336	-7074.50
0.7433,0.2567	-7096.29
0.5699,0.4301	-7102.10
0.8070,0.1930	-7094.83
0.6317,0.3683	-7097.21
0.8445,0.1555	-7086.85
0.8523,0.1477	-7081.81
0.7763,0.2237	-7088.76
0.5836,0.4164	-7100.81
0.8128,0.1872	-7087.76
0.6397,0.3603	-7098.83
0.7980,0.2020	-7088.96
0.8618,0.1382	-7080.08
0.7486,0.2514	-7087.71
0.5414,0.4586	-7100.15
0.8327,0.1673	-7072.13
0.6219,0.3781	-7099.36
0.8201,0.1799	-7092.44
0.8217,0.1783	-7087.92
0.7047,0.2953	-7092.13
0.5343,0.4657	-7101.20
0.8226,0.1774	-7084.87
0.6489,0.3511	-7097.64
0.8343,0.1657	-7094.69
0.8102,0.1898	-7083.37
0.7316,0.2684	-7096.01
0.6154,0.3846	-7100.80
0.8300,0.1700	-7084.94
0.6488,0.3512	-7095.80
0.8001,0.1999	-7087.61
0.8461,0.1539	-7083.48
0.7360,0.2640	-7098.16
0.6507,0.3493	-7093.28
0.7923,0.2077	-7091.56
0.6297,0.3703	-7098.83
0.8202,0.1798	-7087.89
0.8154,0.1846	-7081.86
0.6836,0.3164	-7099.37
0.7430,0.2570	-7089.92
0.7609,0.2391	-7085.27
0.6826,0.3174	-7092.45
0.8685,0.1315	-7072.58
0.8257,0.1743	-7089.56
0.6490,0.3510	-7094.56
0.7374,0.2626	-7097.17
0.7658,0.2342	-7087.55
0.7111,0.2889	-7095.67
0.8753,0.1247	-7080.20
0.8188,0.1812	-7080.32
0.6924,0.3076	-7101.21
0.7144,0.2856	-7096.63
0.7578,0.2422	-7091.04
0.6673,0.3327	-7090.01
0.8494,0.1506	-7076.60
0.8348,0.1652	-7073.66
0.6901,0.3099	-7096.32
0.6948,0.3052	-7098.01
0.7549,0.2451	-7096.64
0.6929,0.3071	-7095.53
0.8150,0.1850	-7092.25
0.8156,0.1844	-7083.35
0.6973,0.3027	-7090.54
0.7485,0.2515	-7085.53
0.7355,0.2645	-7093.03
0.6827,0.3173	-7097.05
0.7912,0.2088	-7092.87
0.8222,0.1778	-7095.59
0.6914,0.3086	-7096.33
0.7384,0.2616	-7086.83
0.7280,0.2720	-7085.11
0.6148,0.3852	-7099.39
0.7942,0.2058	-7084.86
0.8191,0.1809	-7086.36
0.6819,0.3181	-7092.47
0.7111,0.2889	-7091.17
0.7465,0.2535	-7092.06
0.5894,0.4106	-7097.88
0.7628,0.2372	-7094.58
0.8092,0.1908	-7087.71
0.6638,0.3362	-7092.21
0.7310,0.2690	-7095.00
0.7482,0.2518	-7095.34
0.6009,0.3991	-7098.29
0.7347,0.2653	-7095.06
0.8150,0.1850	-7087.80
0.6985,0.3015	-7093.04
0.7244,0.2756	-7087.17
0.6763,0.3237	-7094.06
0.6077,0.3923	-7098.13
0.7228,0.2772	-7094.88
0.8135,0.1865	-7089.25
0.7139,0.2861	-7096.62
0.7464,0.2536	-7095.30
0.6621,0.3379	-7094.95
0.6083,0.3917	-7095.91
0.6976,0.3024	-7095.55
0.8099,0.1901	-7081.92
0.7496,0.2504	-7088.80
0.8190,0.1810	-7081.83
0.6579,0.3421	-7095.67
0.5734,0.4266	-7100.63
0.6171,0.3829	-7093.18
0.7807,0.2193	-7088.78
0.7167,0.2833	-7092.96
0.8316,0.1684	-7091.34
0.6752,0.3248	-7094.07
0.5612,0.4388	-7100.64
0.6350,0.3650	-7092.73
0.7783,0.2217	-7083.74
0.6782,0.3218	-7093.29
0.7924,0.2076	-7083.53
0.7398,0.2602	-7096.20
0.5940,0.4060	-7099.61
0.6376,0.3624	-7096.56
0.7883,0.2117	-7080.95
0.7413,0.2587	-7087.82
0.8030,0.1970	-7083.42
0.7305,0.2695	-7093.00
0.6657,0.3343	-7093.53
0.6459,0.3541	-7093.44
0.7584,0.2416	-7087.61
0.7185,0.2815	-7092.96
0.7956,0.2044	-7088.93
0.7434,0.2566	-7087.79
0.6602,0.3398	-7096.31
0.6376,0.3624	-7096.56
0.7133,0.2867	-7093.88
0.7313,0.2687	-7093.00
0.7751,0.2249	-7088.75
0.7538,0.2462	-7094.37
0.6809,0.3191	-7094.00
0.6623,0.3377	-7097.64
0.7212,0.2788	-7095.81
0.7811,0.2189	-7086.24
0.7882,0.2118	-7078.33
0.8164,0.1836	-7083.35
0.6871,0.3129	-7095.52
0.6423,0.3577	-7097.66
0.7217,0.2783	-7091.06
0.7608,0.2392	-7089.90
0.7820,0.2180	-7083.68
0.8188,0.1812	-7090.88
0.6287,0.3713	-7098.31
0.6889,0.3111	-7089.16
0.6908,0.3092	-7095.52
0.7439,0.2561	-7092.04
0.7449,0.2551	-7085.62
0.7545,0.2455	-7093.26
0.6247,0.3753	-7094.77
0.6779,0.3221	-7089.57
0.7267,0.2733	-7090.04
0.7525,0.2475	-7093.23
0.7312,0.2688	-7083.99
0.7631,0.2369	-7088.74
0.6216,0.3784	-7098.37
0.6847,0.3153	-7090.86
0.7015,0.2985	-7094.72
0.7403,0.2597	-7086.79
0.7194,0.2806	-7089.20
0.7120,0.2880	-7092.06
0.6654,0.3346	-7092.85
0.7248,0.2752	-7092.00
0.7170,0.2830	-7092.03
0.7012,0.2988	-7100.69
0.7256,0.2744	-7095.89
0.7104,0.2896	-7085.79
0.6356,0.3644	-7092.70
0.7830,0.2170	-7095.21
0.7317,0.2683	-7088.99
0.6988,0.3012	-7090.51
0.7402,0.2598	-7093.07
0.6964,0.3036	-7093.89
0.6200,0.3800	-7096.92
0.7603,0.2397	-7086.44
0.7592,0.2408	-7084.16
0.7232,0.2768	-7097.77
0.7629,0.2371	-7087.57
0.6970,0.3030	-7087.22
0.6304,0.3696	-7097.76
0.7374,0.2626	-7090.98
0.7426,0.2574	-7092.04
0.7207,0.2793	-7093.91
0.7856,0.2144	-7087.52
0.6188,0.3812	-7095.49
0.6188,0.3812	-7097.43
0.7673,0.2327	-7087.54
0.7152,0.2848	-7091.12
0.7194,0.2806	-7094.84
0.7998,0.2002	-7086.22
0.5932,0.4068	-7096.60
0.6281,0.3719	-7098.83
0.7745,0.2255	-7091.22
0.6944,0.3056	-7093.07
0.7108,0.2892	-7087.57
0.7795,0.2205	-7086.25
0.5805,0.4195	-7098.24
0.6186,0.3814	-7098.40
0.7931,0.2069	-7090.24
0.6649,0.3351	-7094.91
0.7419,0.2581	-7089.92
0.7728,0.2272	-7094.87
0.6091,0.3909	-7100.76
0.6708,0.3292	-7094.84
0.8123,0.1877	-7092.15
0.7072,0.2928	-7092.98
0.7434,0.2566	-7092.04
0.7813,0.2187	-7091.33
0.6493,0.3507	-7098.25
0.6464,0.3536	-7096.44
0.8237,0.1763	-7077.17
0.7367,0.2633	-7092.01
0.7746,0.2254	-7092.46
0.7764,0.2236	-7086.27
0.6116,0.3884	-7096.23
0.6418,0.3582	-7101.16
0.7973,0.2027	-7087.58
0.7147,0.2853	-7088.37
0.8180,0.1820	-7096.87
0.8176,0.1824	-7074.34
0.6302,0.3698	-7097.23
0.6886,0.3114	-7095.52
0.8080,0.1920	-7086.26
0.7169,0.2831	-7087.39
0.8111,0.1889	-7084.82
0.8241,0.1759	-7086.43
0.6016,0.3984	-7101.98
0.7365,0.2635	-7086.87
0.7861,0.2139	-7086.22
0.7275,0.2725	-7088.07
0.8068,0.1932	-7090.54
0.8318,0.1682	-7084.96
0.6507,0.3493	-7097.01
0.7702,0.2298	-7086.32
0.7918,0.2082	-7091.55
0.7297,0.2703	-7092.00
0.8222,0.1778	-7080.28
0.8023,0.1977	-7090.43
0.6384,0.3616	-7093.71
0.7938,0.2062	-7090.25
0.7714,0.2286	-7086.31
0.7081,0.2919	-7091.21
0.8391,0.1609	-7090.01
0.8285,0.1715	-7081.77
0.5844,0.4156	-7097.06
0.7833,0.2167	-7088.80
0.7616,0.2384	-7092.23
0.7171,0.2829	-7093.89
0.8552,0.1448	-7078.29
0.8268,0.1732	-7088.03
0.6141,0.3859	-7098.93
0.7751,0.2249	-7089.99
0.7644,0.2356	-7098.15
0.7356,0.2644	-7092.01
0.8456,0.1544	-7088.58
0.8188,0.1812	-7092.39
0.6421,0.3579	-7094.74
0.7530,0.2470	-7087.66
0.7797,0.2203	-7079.93
0.6918,0.3082	-7096.34
0.8498,0.1502	-7078.33
0.8385,0.1615	-7085.05
0.7047,0.2953	-7091.26
0.7555,0.2445	-7088.76
0.7844,0.2156	-7086.23
0.7115,0.2885	-7093.87
0.7577,0.2423	-7093.31
0.8401,0.1599	-7083.42
0.7204,0.2796	-7085.39
0.7427,0.2573	-7092.04
0.7515,0.2485	-7097.64
0.7069,0.2931	-7094.75
0.7240,0.2760	-7092.00
0.8360,0.1640	-7085.01
0.7179,0.2821	-7092.96
0.7210,0.2790	-7093.91
0.7638,0.2362	-7092.26
0.6868,0.3132	-7090.80
0.7015,0.2985	-7093.87
0.8336,0.1664	-7084.98
0.7513,0.2487	-7084.37
0.6974,0.3026	-7088.04
0.7002,0.2998	-7089.63
0.6858,0.3142	-7092.39
0.7414,0.2586	-7087.82
0.8219,0.1781	-7086.40
0.7503,0.2497	-7090.99
0.7079,0.2921	-7093.87
0.7316,0.2684	-7094.00
0.6725,0.3275	-7094.83
0.7717,0.2283	-7098.49
0.8001,0.1999	-7091.77
0.7284,0.2716	-7088.05
0.6870,0.3130	-7091.59
0.7468,0.2532	-7092.06
0.6472,0.3528	-7095.82
0.7305,0.2695	-7092.00
0.8049,0.1951	-7093.32
0.7430,0.2570	-7090.98
0.6776,0.3224	-7094.78
0.7440,0.2560	-7090.98
0.6469,0.3531	-7097.04
0.6830,0.3170	-7097.05
0.7805,0.2195	-7087.51
0.7395,0.2605	-7096.19
0.6743,0.3257	-7092.63
0.7403,0.2597	-7086.79
0.6534,0.3466	-7095.73
0.7258,0.2742	-7092.97
0.7686,0.2314	-7081.54
0.7562,0.2438	-7089.89
0.6802,0.3198	-7090.24
0.7794,0.2206	-7082.46
0.6008,0.3992	-7096.24
0.7317,0.2683	-7088.99
0.7747,0.2253	-7088.75
0.7676,0.2324	-7089.93
0.6630,0.3370	-7090.88
0.7424,0.2576	-7096.27
0.6814,0.3186	-7094.00
0.7726,0.2274	-7094.86
0.7736,0.2264	-7085.06
0.7860,0.2140	-7086.22
0.6840,0.3160	-7097.83
0.7725,0.2275	-7087.52
0.6831,0.3169	-7097.82
0.7432,0.2568	-7085.66
0.7750,0.2250	-7091.23
0.7662,0.2338	-7097.05
0.6963,0.3037	-7093.89
0.7829,0.2171	-7087.51
0.6380,0.3620	-7096.56
0.7216,0.2784	-7089.15
0.7606,0.2394	-7091.06
0.7467,0.2533	-7088.82
0.7136,0.2864	-7088.40
0.8097,0.1903	-7090.61
0.6480,0.3520	-7099.47
0.6508,0.3492	-7095.14
0.7921,0.2079	-7086.21
0.7552,0.2448	-7084.26
0.7032,0.2968	-7094.73
0.8084,0.1916	-7084.82
0.6972,0.3028	-7088.88
0.7036,0.2964	-7096.46
0.7679,0.2321	-7082.76
0.7661,0.2339	-7088.74
0.7303,0.2697	-7095.98
0.7933,0.2067	-7091.59
0.6401,0.3599	-7094.80
0.6931,0.3069	-7097.98
0.7754,0.2246	-7093.71
0.7897,0.2103	-7082.24
0.7446,0.2554	-7098.47
0.7934,0.2066	-7086.21
0.6143,0.3857	-7097.53
0.6288,0.3712	-7096.20
0.7637,0.2363	-7094.61
0.7565,0.2435	-7088.76
0.7338,0.2662	-7089.97
0.7634,0.2366	-7092.25
0.6394,0.3606	-7099.40
0.6825,0.3175	-7096.28
0.7618,0.2382	-7085.25
0.7483,0.2517	-7085.54
0.7640,0.2360	-7092.26
0.7940,0.2060	-7086.21
0.6631,0.3369	-7097.65
0.6883,0.3117	-7092.35
0.7383,0.2617	-7086.83
0.7488,0.2512	-7099.73
0.7647,0.2353	-7089.92
0.7906,0.2094	-7086.21
0.6734,0.3266	-7098.44
0.7265,0.2735	-7096.88
0.7483,0.2517	-7089.90
0.7776,0.2224	-7083.76
0.7670,0.2330	-7087.55
0.8016,0.1984	-7093.21
0.6820,0.3180	-7095.52
0.7035,0.2965	-7095.59
0.7477,0.2523	-7086.64
0.7647,0.2353	-7087.56
0.7807,0.2193	-7082.43
0.7570,0.2430	-7092.17
0.6877,0.3123	-7094.73
0.7247,0.2753	-7093.94
0.7220,0.2780	-7092.01
0.8062,0.1938	-7084.82
0.7903,0.2097	-7091.52
0.7612,0.2388	-7094.54
0.6672,0.3328	-7094.89
0.7051,0.2949	-7094.74
0.7401,0.2599	-7094.12
0.8003,0.1997	-7082.05
0.7806,0.2194	-7084.97
0.7387,0.2613	-7095.14
0.6642,0.3358	-7096.97
0.7094,0.2906	-7092.97
0.7169,0.2831	-7088.31
0.8051,0.1949	-7083.40
0.7859,0.2141	-7086.22
0.7235,0.2765	-7092.97
0.6426,0.3574	-7095.90
0.7329,0.2671	-7095.03
0.7140,0.2860	-7092.96
0.7794,0.2206	-7086.25
0.7879,0.2121	-7092.78
0.7252,0.2748	-7094.91
0.6714,0.3286	-7091.98
0.7591,0.2409	-7092.19
0.6805,0.3195	-7094.01
0.7462,0.2538	-7093.14
0.8000,0.2000	-7088.99
0.7148,0.2852	-7095.72
0.7022,0.2978	-7097.30
0.8126,0.1874	-7087.76
0.6961,0.3039	-7093.89
0.7149,0.2851	-7090.20
0.8163,0.1837	-7081.85
0.7056,0.2944	-7095.61
0.7508,0.2492	-7095.41
0.8252,0.1748	-7084.89
0.6957,0.3043	-7097.20
0.7344,0.2656	-7089.97
0.7321,0.2679	-7092.00
0.7205,0.2795	-7096.75
0.7454,0.2546	-7089.91
0.7945,0.2055	-7087.56
0.6751,0.3249	-7094.07
0.7092,0.2908	-7094.76
0.7469,0.2531	-7093.15
0.7399,0.2601	-7089.93
0.7767,0.2233	-7090.01
0.8357,0.1643	-7085.01
0.6441,0.3559	-7098.84
0.7215,0.2785	-7086.30
0.7322,0.2678	-7089.99
0.6615,0.3385	-7098.31
0.7482,0.2518	-7089.90
0.8093,0.1907	-7081.93
0.5999,0.4001	-7095.07
0.6977,0.3023	-7095.55
0.7725,0.2275	-7087.52
0.6705,0.3295	-7094.14
0.7623,0.2377	-7088.74
0.8277,0.1723	-7083.35
0.5473,0.4527	-7100.53
0.7028,0.2972	-7089.56
0.7379,0.2621	-7090.98
0.7038,0.2962	-7095.60
0.7449,0.2551	-7090.98
0.7889,0.2111	-7087.53
0.5520,0.4480	-7099.88
0.6635,0.3365	-7092.22
0.6988,0.3012	-7095.56
0.6868,0.3132	-7093.16
0.7607,0.2393	-7088.75
0.7866,0.2134	-7087.52
0.5535,0.4465	-7100.88
0.6451,0.3549	-7097.05
0.7235,0.2765	-7092.97
0.6543,0.3457	-7096.35
0.7898,0.2102	-7098.13
0.7688,0.2312	-7088.74
0.5613,0.4387	-7101.13
0.6552,0.3448	-7096.99
0.7503,0.2497	-7103.09
0.6844,0.3156	-7095.52
0.7703,0.2297	-7083.90
0.7426,0.2574	-7096.27
0.6232,0.3768	-7100.87
0.6128,0.3872	-7099.86
0.7590,0.2410	-7088.75
0.7222,0.2778	-7086.28
0.7956,0.2044	-7090.29
0.7400,0.2600	-7092.02
0.6587,0.3413	-7094.35
0.6467,0.3533	-7095.83
0.7625,0.2375	-7088.74
0.7134,0.2866	-7089.32
0.7778,0.2222	-7095.03
0.7077,0.2923	-7091.21
0.7356,0.2644	-7096.10
0.6443,0.3557	-7094.09
0.7141,0.2859	-7092.05
0.7554,0.2446	-7089.89
0.7260,0.2740	-7087.13
0.6869,0.3131	-7090.02
0.7524,0.2476	-7092.11
0.6243,0.3757	-7099.87
0.7463,0.2537	-7089.90
0.7580,0.2420	-7089.90
0.7113,0.2887	-7092.07
0.7064,0.2936	-7089.48
0.7413,0.2587	-7087.82
0.6259,0.3741	-7096.27
0.7763,0.2237	-7091.25
0.7553,0.2447	-7086.51
0.7164,0.2836	-7091.11
0.7068,0.2932	-7093.86
0.7267,0.2733	-7094.93
0.5567,0.4433	-7100.32
0.7739,0.2261	-7092.44
0.7728,0.2272	-7089.97
0.7015,0.2985	-7097.29
0.7204,0.2796	-7092.96
0.7319,0.2681	-7092.00
0.6000,0.4000	-7100.33
0.7918,0.2082	-7090.22
0.7537,0.2463	-7088.77
0.6753,0.3247	-7089.68
0.7270,0.2730	-7091.02
0.7774,0.2226	-7095.02
0.6303,0.3697	-7099.36
0.7831,0.2169	-7097.78
0.7257,0.2743	-7098.81
0.6905,0.3095	-7093.12
0.7249,0.2751	-7087.16
0.7026,0.2974	-7098.17
0.6799,0.3201	-7097.78
0.7811,0.2189	-7092.60
0.7446,0.2554	-7088.84
0.7163,0.2837	-7095.74
0.7269,0.2731	-7093.96
0.7338,0.2662	-7095.05
0.7435,0.2565	-7083.53
0.7917,0.2083	-7090.21
0.7830,0.2170	-7092.65
0.6878,0.3122	-7095.52
0.7655,0.2345	-7094.65
0.6626,0.3374	-7096.30
0.6962,0.3038	-7090.57
0.8284,0.1716	-7081.77
0.7556,0.2444	-7091.02
0.6507,0.3493	-7092.03
0.7340,0.2660	-7087.94
0.6719,0.3281	-7091.97
0.7279,0.2721	-7093.97
0.8191,0.1809	-7084.85
0.7815,0.2185	-7087.51
0.6112,0.3888	-7098.51
0.7378,0.2622	-7087.88
0.7139,0.2861	-7095.71
0.7233,0.2767	-7089.12
0.8203,0.1797	-7084.86
0.7343,0.2657	-7097.09
0.6148,0.3852	-7099.86
0.7298,0.2702	-7092.00
0.6997,0.3003	-7092.18
0.6827,0.3173	-7093.98
0.8135,0.1865	-7077.46
0.7575,0.2425	-7083.06
0.5911,0.4089	-7096.34
0.7288,0.2712	-7094.96
0.6898,0.3102	-7094.72
0.7245,0.2755	-7092.97
0.8366,0.1634	-7085.02
0.7286,0.2714	-7092.99
0.6499,0.3501	-7098.25
0.6914,0.3086	-7093.91
0.7047,0.2953	-7090.39
0.6905,0.3095	-7094.72
0.8652,0.1348	-7083.82
0.6710,0.3290	-7094.13
0.6452,0.3548	-7100.04
0.6377,0.3623	-7097.13
0.7332,0.2668	-7089.98
0.7698,0.2302	-7086.33
0.8784,0.1216	-7072.33
0.5965,0.4035	-7100.74
0.6108,0.3892	-7096.71
0.6650,0.3350	-7094.91
0.7290,0.2710	-7092.99
0.6910,0.3090	-7094.72
0.8850,0.1150	-7078.31
0.5998,0.4002	-7096.69
0.6261,0.3739	-7100.90
0.6617,0.3383	-7092.95
0.7152,0.2848	-7100.33
0.7085,0.2915	-7094.75
0.8589,0.1411	-7078.26
0.6355,0.3645	-7094.37
0.6787,0.3213	-7092.53
0.6071,0.3929	-7099.45
0.7131,0.2869	-7090.23
0.7052,0.2948	-7091.25
0.8634,0.1366	-7081.93
0.7093,0.2907	-7096.54
0.6917,0.3083	-7093.91
0.6182,0.3818	-7096.96
0.7613,0.2387	-7092.22
0.7286,0.2714	-7094.96
0.8653,0.1347	-7085.68
0.6737,0.3263	-7099.89
0.7222,0.2778	-7088.19
0.6572,0.3428	-7095.68
0.7007,0.2993	-7093.87
0.7147,0.2853	-7102.14
0.8813,0.1187	-7076.28
0.7081,0.2919	-7092.98
0.7275,0.2725	-7092.98
0.6768,0.3232	-7092.57
0.6449,0.3551	-7094.67
0.7274,0.2726	-7091.02
0.8938,0.1062	-7065.64
0.7524,0.2476	-7097.67
0.7467,0.2533	-7090.98
0.6284,0.3716	-7099.88
0.6568,0.3432	-7095.68
0.7526,0.2474	-7083.22
0.8694,0.1306	-7078.24
0.7390,0.2610	-7092.02
0.7577,0.2423	-7084.20
0.5838,0.4162	-7099.80
0.6850,0.3150	-7094.74
0.7653,0.2347	-7088.74
0.8363,0.1637	-7080.12
0.7775,0.2225	-7087.51
0.7706,0.2294	-7082.68
0.5893,0.4107	-7101.85
0.6786,0.3214	-7097.02
0.7524,0.2476	-7095.45
0.8283,0.1717	-7080.20
0.7994,0.2006	-7090.36
0.7210,0.2790	-7093.91
0.5364,0.4636	-7101.67
0.6862,0.3138	-7097.08
0.7531,0.2469	-7088.78
0.7837,0.2163	-7090.09
0.7852,0.2148	-7086.22
0.7661,0.2339	-7086.36
0.5817,0.4183	-7100.17
0.6879,0.3121	-7093.94
0.7294,0.2706	-7090.02
0.7502,0.2498	-7087.70
0.7958,0.2042	-7080.77
0.7435,0.2565	-7096.30
0.6233,0.3767	-7098.35
0.6681,0.3319	-7093.48
0.7419,0.2581	-7095.20
0.7161,0.2839	-7092.03
0.7788,0.2212	-7090.03
0.7649,0.2351	-7089.92
0.6331,0.3669	-7096.64
0.6922,0.3078	-7092.29
0.7568,0.2432	-7089.89
0.6702,0.3298	-7093.43
0.7918,0.2082	-7094.22
0.7645,0.2355	-7088.74
0.6426,0.3574	-7095.90
0.7152,0.2848	-7095.72
0.7692,0.2308	-7080.31
0.6373,0.3627	-7097.13
0.7575,0.2425	-7091.03
0.7972,0.2028	-7093.05
0.6442,0.3558	-7097.65
0.7062,0.2938	-7092.11
0.7714,0.2286	-7085.10
0.6921,0.3079	-7093.91
0.7692,0.2308	-7094.76
0.7769,0.2231	-7090.01
0.6225,0.3775	-7101.86
0.7750,0.2250	-7087.52
0.7532,0.2468	-7087.66
0.7490,0.2510	-7090.99
0.7504,0.2496	-7092.10
0.7806,0.2194	-7081.17
0.6390,0.3610	-7099.40
0.7551,0.2449	-7086.51
0.7291,0.2709	-7089.03
0.7365,0.2635	-7089.95
0.7375,0.2625	-7094.08
0.8059,0.1941	-7083.40
0.5860,0.4140	-7098.01
0.8087,0.1913	-7077.61
0.7362,0.2638	-7089.96
0.7205,0.2795	-7088.23
0.7302,0.2698	-7094.98
0.8359,0.1641	-7086.64
0.5613,0.4387	-7100.89
0.8025,0.1975	-7082.02
0.7375,0.2625	-7095.11
0.7434,0.2566	-7086.72
0.7347,0.2653	-7094.04
0.7914,0.2086	-7088.88
0.5477,0.4523	-7101.65
0.8030,0.1970	-7082.01
0.7257,0.2743	-7093.95
0.7114,0.2886	-7092.97
0.7388,0.2612	-7090.98
0.7974,0.2026	-7084.84
0.5453,0.4547	-7101.17
0.8096,0.1904	-7086.27
0.7205,0.2795	-7094.86
0.6741,0.3259	-7102.08
0.6958,0.3042	-7095.54
0.7612,0.2388	-7086.42
0.5544,0.4456	-7101.29
0.8057,0.1943	-7084.82
0.6748,0.3252	-7096.27
0.6213,0.3787	-7096.89
0.6646,0.3354	-7099.70
0.7842,0.2158	-7088.81
0.5371,0.4629	-7102.09
0.8273,0.1727	-7084.91
0.7173,0.2827	-7092.96
0.6510,0.3490	-7097.63
0.6060,0.3940	-7098.16
0.7348,0.2652	-7087.93
0.5363,0.4637	-7101.96
0.8582,0.1418	-7087.27
0.7002,0.2998	-7097.27
0.6735,0.3265	-7094.82
0.5598,0.4402	-7099.72
0.7329,0.2671	-7090.99
0.5646,0.4354	-7100.81
0.8777,0.1223	-7072.35
0.7469,0.2531	-7087.74
0.6885,0.3115	-7095.52
0.6042,0.3958	-7098.20
0.7413,0.2587	-7092.03
0.5531,0.4469	-7100.25
0.8780,0.1220	-7074.32
0.7493,0.2507	-7081.14
0.6731,0.3269	-7091.93
0.6476,0.3524	-7095.81
0.7426,0.2574	-7092.04
0.5570,0.4430	-7101.45
0.8918,0.1082	-7086.83
0.7798,0.2202	-7084.98
0.6885,0.3115	-7097.10
0.6464,0.3536	-7099.45
0.7655,0.2345	-7095.84
0.5742,0.4258	-7103.61
0.8972,0.1028	-7080.65
0.7689,0.2311	-7085.13
0.7428,0.2572	-7086.74
0.6134,0.3866	-7101.24
0.7677,0.2323	-7089.93
0.6590,0.3410	-7096.32
0.8996,0.1004	-7080.72
0.7900,0.2100	-7087.54
0.8017,0.1983	-7091.81
0.6225,0.3775	-7098.86
0.7584,0.2416	-7096.76
0.6360,0.3640	-7094.91
0.8974,0.1026	-7078.49
0.7647,0.2353	-7087.56
0.7878,0.2122	-7080.97
0.6569,0.3431	-7095.68
0.7074,0.2926	-7091.22
0.6277,0.3723	-7095.70
0.8965,0.1035	-7076.31
0.7964,0.2036	-7086.21
0.7694,0.2306	-7091.15
0.6806,0.3194	-7099.30
0.7601,0.2399	-7092.21
0.6098,0.3902	-7098.08
0.8916,0.1084	-7084.71
0.7946,0.2054	-7088.91
0.7702,0.2298	-7089.95
0.6756,0.3244	-7097.00
0.7453,0.2547	-7089.91
0.5978,0.4022	-7098.76
0.8944,0.1056	-7080.57
0.7932,0.2068	-7084.86
0.8212,0.1788	-7092.48
0.6737,0.3263	-7094.09
0.6872,0.3128	-7093.94
0.5752,0.4248	-7100.90
0.8825,0.1175	-7078.29
0.8019,0.1981	-7090.42
0.8404,0.1596	-7081.76
0.6565,0.3435	-7098.93
0.7161,0.2839	-7091.11
0.6220,0.3780	-7094.88
0.8539,0.1461	-7085.36
0.7978,0.2022	-7080.72
0.8400,0.1600	-7086.73
0.6735,0.3265	-7100.61
0.7143,0.2857	-7090.21
0.6458,0.3542	-7100.05
0.8914,0.1086	-7078.39
0.8123,0.1877	-7084.82
0.8404,0.1596	-7083.42
0.6659,0.3341	-7093.52
0.6497,0.3503	-7097.02
0.5635,0.4365	-7099.30
0.8836,0.1164	-7086.41
0.7694,0.2306	-7083.92
0.8264,0.1736	-7084.90
0.6459,0.3541	-7096.44
0.6681,0.3319	-7089.98
0.5666,0.4334	-7100.23
0.8784,0.1216	-7088.15
0.7741,0.2259	-7088.75
0.8517,0.1483	-7078.31
0.6620,0.3380	-7101.01
0.6423,0.3577	-7098.25
0.5441,0.4559	-7101.74
0.8727,0.1273	-7080.17
0.7606,0.2394	-7088.75
0.8323,0.1677	-7084.96
0.6036,0.3964	-7099.48
0.6429,0.3571	-7094.72
0.5340,0.4660	-7102.71
0.8983,0.1017	-7080.68
0.7143,0.2857	-7086.55
0.8369,0.1631	-7085.03
0.5807,0.4193	-7098.56
0.6445,0.3555	-7095.27
0.5222,0.4778	-7102.18
0.9031,0.0969	-7080.83
0.7595,0.2405	-7088.75
0.8591,0.1409	-7081.88
0.6205,0.3795	-7095.92
0.6392,0.3608	-7101.11
0.5704,0.4296	-7100.12
0.8863,0.1137	-7074.22
0.7466,0.2534	-7095.31
0.8238,0.1762	-7080.25
0.6555,0.3445	-7098.92
0.6692,0.3308	-7096.27
0.5477,0.4523	-7100.70
0.8989,0.1011	-7067.59
0.6968,0.3032	-7093.88
0.8119,0.1881	-7083.36
0.6530,0.3470	-7098.89
0.7085,0.2915	-7092.98
0.5522,0.4478	-7100.71
0.8998,0.1002	-7080.73
0.6357,0.3643	-7098.26
0.8148,0.1852	-7084.83
0.6526,0.3474	-7097.00
0.6656,0.3344	-7095.59
0.5707,0.4293	-7100.97
0.8956,0.1044	-7076.30
0.6226,0.3774	-7100.36
0.8210,0.1790	-7090.96
0.6119,0.3881	-7094.85
0.6726,0.3274	-7091.23
0.5199,0.4801	-7102.38
0.8895,0.1105	-7090.88
0.6569,0.3431	-7096.98
0.8200,0.1800	-7092.44
0.6213,0.3787	-7097.38
0.6725,0.3275	-7098.43
0.5029,0.4971	-7103.23
0.8759,0.1241	-7080.21
0.6162,0.3838	-7095.59
0.8597,0.1403	-7074.64
0.6013,0.3987	-7096.22
0.6276,0.3724	-7095.70
0.5882,0.4118	-7098.99
0.8669,0.1331	-7074.49
0.6478,0.3522	-7096.42
0.8669,0.1331	-7081.99
0.6402,0.3598	-7091.91
0.6363,0.3637	-7096.58
0.5302,0.4698	-7102.28
0.8794,0.1206	-7080.26
0.6392,0.3608	-7096.54
0.8719,0.1281	-7083.99
0.6366,0.3634	-7096.02
0.6713,0.3287	-7097.70
0.5474,0.4526	-7102.04
0.8767,0.1233	-7082.18
0.6316,0.3684	-7100.44
0.8846,0.1154	-7080.35
0.6565,0.3435	-7096.98
0.6231,0.3769	-7099.86
0.6005,0.3995	-7100.33
0.8823,0.1177	-7076.28
0.6423,0.3577	-7094.73
0.9001,0.0999	-7074.14
0.6566,0.3434	-7096.98
0.6650,0.3350	-7093.54
0.6507,0.3493	-7092.03
0.8745,0.1255	-7076.31
0.6467,0.3533	-7094.01
0.8870,0.1130	-7072.15
0.6317,0.3683	-7096.13
0.6239,0.3761	-7098.85
0.6523,0.3477	-7099.52
0.8807,0.1193	-7080.28
0.7039,0.2961	-7096.46
0.8958,0.1042	-7078.46
0.6048,0.3952	-7099.04
0.5715,0.4285	-7100.95
0.6748,0.3252	-7096.27
0.8616,0.1384	-7085.57
0.7247,0.2753	-7092.00
0.8774,0.1226	-7088.10
0.6434,0.3566	-7095.30
0.5778,0.4222	-7098.67
0.6569,0.3431	-7098.28
0.8841,0.1159	-7080.34
0.7647,0.2353	-7094.63
0.8846,0.1154	-7076.27
0.6503,0.3497	-7097.01
0.5948,0.4052	-7101.52
0.6832,0.3168	-7096.28
0.9033,0.0967	-7074.14
0.7746,0.2254	-7094.93
0.8793,0.1207	-7074.30
0.6782,0.3218	-7096.27
0.6154,0.3846	-7099.86
0.7155,0.2845	-7093.88
0.9004,0.0996	-7071.94
0.7620,0.2380	-7093.40
0.8640,0.1360	-7081.94
0.6714,0.3286	-7093.41
0.6122,0.3878	-7098.95
0.6785,0.3215	-7093.28
0.8995,0.1005	-7078.53
0.7513,0.2487	-7091.00
0.8398,0.1602	-7085.07
0.7010,0.2990	-7092.17
0.6606,0.3394	-7096.97
0.6860,0.3140	-7092.39
0.8827,0.1173	-7076.28
0.7569,0.2431	-7093.30
0.8268,0.1732	-7088.03
0.6748,0.3252	-7094.81
0.6457,0.3543	-7095.85
0.7493,0.2507	-7092.08
0.8699,0.1301	-7095.34
0.7284,0.2716	-7095.95
0.8242,0.1758	-7081.79
0.6538,0.3462	-7093.18
0.6747,0.3253	-7097.00
0.7655,0.2345	-7093.47
0.8838,0.1162	-7082.36
0.6822,0.3178	-7096.28
0.7902,0.2098	-7084.88
0.6104,0.3896	-7098.52
0.7112,0.2888	-7090.27
0.7961,0.2039	-7086.21
0.8876,0.1124	-7084.54
0.6547,0.3453	-7098.91
0.7756,0.2244	-7088.76
0.6566,0.3434	-7095.69
0.6721,0.3279	-7091.96
0.7441,0.2559	-7092.05
0.8726,0.1274	-7076.32
0.6421,0.3579	-7095.91
0.7634,0.2366	-7091.08
0.6803,0.3197	-7091.74
0.6710,0.3290	-7094.13
0.7213,0.2787	-7093.91
0.8691,0.1309	-7074.45
0.6370,0.3630	-7094.89
0.7554,0.2446	-7086.51
0.6107,0.3893	-7098.51
0.6417,0.3583	-7092.42
0.7130,0.2870	-7092.96
0.8614,0.1386	-7074.60
0.6208,0.3792	-7096.41
0.7712,0.2288	-7086.31
0.5475,0.4525	-7099.75
0.5994,0.4006	-7100.74
0.7322,0.2678	-7089.99
0.8217,0.1783	-7084.87
0.6502,0.3498	-7096.39
0.7245,0.2755	-7092.97
0.5802,0.4198	-7096.64
0.6646,0.3354	-7097.65
0.7212,0.2788	-7102.47
0.7937,0.2063	-7086.21
0.6134,0.3866	-7097.55
0.7285,0.2715	-7091.01
0.5737,0.4263	-7101.52
0.6373,0.3627	-7099.39
0.7488,0.2512	-7093.17
0.8244,0.1756	-7086.43
0.6275,0.3725	-7097.27
0.6428,0.3572	-7097.66
0.6317,0.3683	-7095.59
0.6521,0.3479	-7094.49
0.7441,0.2559	-7088.84
0.8155,0.1845	-7089.29
0.6555,0.3445	-7096.99
0.6272,0.3728	-7096.24
0.6200,0.3800	-7098.88
0.6370,0.3630	-7097.70
0.6867,0.3133	-7099.44
0.8108,0.1892	-7090.64
0.6434,0.3566	-7094.11
0.7013,0.2987	-7093.02
0.6368,0.3632	-7095.45
0.6282,0.3718	-7095.69
0.6937,0.3063	-7093.08
0.8182,0.1818	-7087.85
0.5934,0.4066	-7099.24
0.7446,0.2554	-7088.84
0.6424,0.3576	-7098.25
0.6259,0.3741	-7097.30
0.6385,0.3615	-7098.25
0.8510,0.1490	-7085.29
0.6265,0.3735	-7094.18
0.7009,0.2991	-7094.72
0.6261,0.3739	-7098.33
0.6277,0.3723	-7098.31
0.5332,0.4668	-7101.26
0.8538,0.1462	-7085.36
0.6138,0.3862	-7098.47
0.6749,0.3251	-7095.54
0.6281,0.3719	-7096.21
0.6111,0.3889	-7098.51
0.5437,0.4563	-7101.75
0.8495,0.1505	-7080.06
0.6263,0.3737	-7099.87
0.6817,0.3183	-7092.47
0.6615,0.3385	-7097.64
0.6265,0.3735	-7096.77
0.6029,0.3971	-7098.24
0.8312,0.1688	-7080.17
0.6075,0.3925	-7098.57
0.7111,0.2889	-7090.27
0.7365,0.2635	-7088.93
0.6382,0.3618	-7097.69
0.6100,0.3900	-7098.08
0.8073,0.1927	-7084.82
0.6574,0.3426	-7096.33
0.7321,0.2679	-7088.98
0.7564,0.2436	-7086.49
0.6322,0.3678	-7099.91
0.7077,0.2923	-7099.17
0.8414,0.1586	-7085.10
0.6557,0.3443	-7095.05
0.7483,0.2517	-7092.08
0.7564,0.2436	-7085.36
0.6442,0.3558	-7094.09
0.7245,0.2755	-7088.13
0.8421,0.1579	-7076.74
0.7012,0.2988	-7097.28
0.7553,0.2447	-7096.65
0.7110,0.2890	-7095.67
0.6644,0.3356	-7094.92
0.6941,0.3059	-7100.45
0.8165,0.1835	-7080.36
0.7022,0.2978	-7095.58
0.7939,0.2061	-7084.86
0.7667,0.2333	-7092.31
0.6467,0.3533	-7094.62
0.6851,0.3149	-7089.30
0.8129,0.1871	-7092.17
0.6950,0.3050	-7090.60
0.7849,0.2151	-7083.63
0.8181,0.1819	-7087.85
0.6808,0.3192	-7097.79
0.6976,0.3024	-7093.05
0.8065,0.1935	-7089.10
0.7370,0.2630	-7088.92
0.8391,0.1609	-7086.71
0.7834,0.2166	-7086.23
0.6328,0.3672	-7095.01
0.6760,0.3240	-7094.06
0.8018,0.1982	-7084.83
0.6296,0.3704	-7095.12
0.8091,0.1909	-7090.60
0.7954,0.2046	-7082.14
0.6295,0.3705	-7099.36
0.6593,0.3407	-7097.64
0.8210,0.1790	-7077.25
0.6227,0.3773	-7098.36
0.7765,0.2235	-7086.27
0.7602,0.2398	-7092.21
0.6183,0.3817	-7099.37
0.6100,0.3900	-7096.29
0.8116,0.1884	-7092.12
0.6079,0.3921	-7099.00
0.7737,0.2263	-7092.44
0.7390,0.2610	-7085.77
0.6070,0.3930	-7098.14
0.6329,0.3671	-7099.91
0.8128,0.1872	-7077.48
0.6049,0.3951	-7098.62
0.7854,0.2146	-7091.41
0.6510,0.3490	-7094.51
0.6128,0.3872	-7097.10
0.6714,0.3286	-7094.84
0.7196,0.2804	-7091.08
0.6507,0.3493	-7093.90
0.8163,0.1837	-7093.79
0.7099,0.2901	-7091.18
0.6574,0.3426	-7098.94
0.6125,0.3875	-7096.20
0.7158,0.2842	-7092.96
0.6604,0.3396	-7097.64
0.8262,0.1738	-7086.46
0.6904,0.3096	-7092.31
0.6876,0.3124	-7093.94
0.6643,0.3357	-7094.92
0.7031,0.2969	-7095.59
0.6994,0.3006	-7097.25
0.8460,0.1540	-7081.78
0.6994,0.3006	-7095.56
0.6937,0.3063	-7090.63
0.6712,0.3288	-7093.41
0.7056,0.2944	-7093.86
0.6995,0.3005	-7087.11
0.8294,0.1706	-7080.19
0.7247,0.2753	-7097.81
0.6798,0.3202	-7093.26
0.6731,0.3269	-7094.10
0.6848,0.3152	-7092.41
0.6639,0.3361	-7092.20
0.8179,0.1821	-7087.85
0.7161,0.2839	-7089.26
0.6944,0.3056	-7091.43
0.7086,0.2914	-7092.09
0.6508,0.3492	-7095.77
0.6932,0.3068	-7090.64
0.8275,0.1725	-7091.18
0.6742,0.3258	-7094.81
0.6917,0.3083	-7093.10
0.7011,0.2989	-7096.43
0.6977,0.3023	-7099.74
0.6571,0.3429	-7096.98
0.8342,0.1658	-7088.22
0.6702,0.3298	-7090.60
0.6963,0.3037	-7092.23
0.7158,0.2842	-7094.81
0.7324,0.2676	-7089.99
0.6333,0.3667	-7098.28
0.8305,0.1695	-7086.53
0.6682,0.3318	-7094.87
0.7015,0.2985	-7094.72
0.7695,0.2305	-7087.53
0.6716,0.3284	-7100.56
0.6446,0.3554	-7096.46
0.8163,0.1837	-7089.31
0.6782,0.3218	-7097.02
0.7104,0.2896	-7088.48
0.7332,0.2668	-7089.98
0.6865,0.3135	-7090.03
0.6854,0.3146	-7094.74
0.8080,0.1920	-7086.26
0.6879,0.3121	-7097.89
0.6632,0.3368	-7095.61
0.7381,0.2619	-7090.98
0.6629,0.3371	-7092.24
0.7039,0.2961	-7093.00
0.7727,0.2273	-7093.64
0.6620,0.3380	-7092.27
0.6436,0.3564	-7094.70
0.7307,0.2693	-7093.00
0.6251,0.3749	-7096.29
0.6421,0.3579	-7093.57
0.7456,0.2544	-7087.76
0.6462,0.3538	-7094.03
0.6304,0.3696	-7095.09
0.7017,0.2983	-7089.59
0.6171,0.3829	-7098.42
0.6160,0.3840	-7097.97
0.7768,0.2232	-7078.79
0.6707,0.3293	-7094.85
0.6446,0.3554	-7097.05
0.6957,0.3043	-7091.41
0.6313,0.3687	-7096.14
0.6112,0.3888	-7095.79
0.7580,0.2420	-7081.90
0.6313,0.3687	-7097.75
0.6525,0.3475	-7093.85
0.7016,0.2984	-7093.87
0.6460,0.3540	-7094.64
0.6731,0.3269	-7094.82
0.7569,0.2431	-7086.49
0.6201,0.3799	-7095.44
0.6365,0.3635	-7093.78
0.6893,0.3107	-7096.32
0.6151,0.3849	-7100.79
0.7076,0.2924	-7089.45
0.6876,0.3124	-7095.52
0.6363,0.3637	-7099.38
0.5856,0.4144	-7099.07
0.6568,0.3432	-7094.39
0.6252,0.3748	-7096.29
0.7224,0.2776	-7092.96
0.6566,0.3434	-7093.74
0.6489,0.3511	-7098.86
0.5595,0.4405	-7100.69
0.7302,0.2698	-7092.00
0.6148,0.3852	-7095.65
0.7106,0.2894	-7087.58
0.6642,0.3358	-7094.24
0.7104,0.2896	-7094.77
0.5672,0.4328	-7101.29
0.7128,0.2872	-7099.33
0.6203,0.3797	-7098.38
0.7129,0.2871	-7087.51
0.7219,0.2781	-7099.64
0.7069,0.2931	-7092.98
0.5417,0.4583	-7101.97
0.7187,0.2813	-7093.90
0.6254,0.3746	-7102.94
0.7448,0.2552	-7093.12
0.7218,0.2782	-7090.10
0.6845,0.3155	-7095.52
0.5470,0.4530	-7102.61
0.7303,0.2697	-7091.00
0.6473,0.3527	-7097.64
0.7778,0.2222	-7095.03
0.7361,0.2639	-7100.22
0.6272,0.3728	-7100.40
0.5493,0.4507	-7099.84
0.7382,0.2618	-7086.83
0.6808,0.3192	-7092.49
0.8270,0.1730	-7077.09
0.6956,0.3044	-7094.72
0.6073,0.3927	-7098.14
0.5710,0.4290	-7098.68
0.7666,0.2334	-7088.74
0.7114,0.2886	-7095.67
0.8448,0.1552	-7076.69
0.6933,0.3067	-7091.45
0.6036,0.3964	-7099.06
0.6392,0.3608	-7096.54
0.7121,0.2879	-7090.25
0.7409,0.2591	-7086.77
0.8602,0.1398	-7085.53
0.6918,0.3082	-7085.82
0.5550,0.4450	-7101.49
0.6616,0.3384	-7101.66
0.7166,0.2834	-7092.03
0.7925,0.2075	-7086.21
0.8507,0.1493	-7076.58
0.6869,0.3131	-7096.30
0.5730,0.4270	-7097.70
0.6544,0.3456	-7096.35
0.7138,0.2862	-7093.88
0.7688,0.2312	-7089.94
0.8137,0.1863	-7092.20
0.7070,0.2930	-7096.51
0.6167,0.3833	-7101.28
0.6655,0.3345	-7095.60
0.7582,0.2418	-7088.75
0.7933,0.2067	-7088.90
0.8116,0.1884	-7090.67
0.7075,0.2925	-7090.33
0.6651,0.3349	-7093.54
0.6509,0.3491	-7092.65
0.7379,0.2621	-7094.09
0.7998,0.2002	-7083.45
0.8400,0.1600	-7080.10
0.7113,0.2887	-7098.38
0.6591,0.3409	-7096.98
0.6744,0.3256	-7094.08
0.7834,0.2166	-7082.37
0.7717,0.2283	-7088.74
0.8507,0.1493	-7080.06
0.7085,0.2915	-7089.42
0.6645,0.3355	-7094.24
0.6717,0.3283	-7095.55
0.7832,0.2168	-7095.22
0.7842,0.2158	-7084.94
0.8758,0.1242	-7076.30
0.7302,0.2698	-7093.99
0.6848,0.3152	-7093.96
0.6488,0.3512	-7099.48
0.7860,0.2140	-7082.32
0.7860,0.2140	-7086.22
0.8588,0.1412	-7078.27
0.7193,0.2807	-7095.78
0.6542,0.3458	-7096.35
0.6245,0.3755	-7099.87
0.7685,0.2315	-7088.74
0.7548,0.2452	-7086.52
0.8465,0.1535	-7080.07
0.6733,0.3267	-7094.82
0.7076,0.2924	-7096.52
0.5768,0.4232	-7100.88
0.7514,0.2486	-7088.79
0.7906,0.2094	-7084.88
0.8549,0.1451	-7081.84
0.6921,0.3079	-7093.91
0.6719,0.3281	-7096.27
0.5583,0.4417	-7100.02
0.7468,0.2532	-7090.98
0.7791,0.2209	-7100.12
0.8356,0.1644	-7086.63
0.6939,0.3061	-7093.90
0.6572,0.3428	-7098.28
0.4926,0.5074	-7103.97
0.7455,0.2545	-7093.13
0.7651,0.2349	-7092.28
0.8453,0.1547	-7085.17
0.6429,0.3571	-7096.48
0.6774,0.3226	-7101.46
0.5039,0.4961	-7103.22
0.7667,0.2333	-7089.93
0.7525,0.2475	-7092.12
0.8294,0.1706	-7083.35
0.6700,0.3300	-7094.85
0.6571,0.3429	-7094.38
0.5336,0.4664	-7101.37
0.7733,0.2267	-7085.07
0.7505,0.2495	-7092.10
0.8374,0.1626	-7078.48
0.6496,0.3504	-7093.31
0.6319,0.3681	-7099.36
0.5903,0.4097	-7101.50
0.7341,0.2659	-7089.97
0.7984,0.2016	-7093.10
0.8659,0.1341	-7091.30
0.6951,0.3049	-7089.77
0.6752,0.3248	-7094.07
0.5721,0.4279	-7100.36
0.7119,0.2881	-7089.35
0.8016,0.1984	-7093.20
0.8579,0.1421	-7096.25
0.7081,0.2919	-7091.21
0.6564,0.3436	-7094.39
0.5363,0.4637	-7102.11
0.6707,0.3293	-7096.98
0.7893,0.2107	-7083.57
0.8511,0.1489	-7083.55
0.7064,0.2936	-7089.47
0.6499,0.3501	-7094.54
0.5126,0.4874	-7102.70
0.7038,0.2962	-7096.46
0.7323,0.2677	-7090.99
0.8567,0.1433	-7080.07
0.6872,0.3128	-7096.30
0.6475,0.3525	-7094.60
0.5202,0.4798	-7102.37
0.6562,0.3438	-7099.57
0.7245,0.2755	-7092.00
0.8331,0.1669	-7091.41
0.6897,0.3103	-7096.32
0.6827,0.3173	-7096.28
0.6323,0.3677	-7093.40
0.6081,0.3919	-7098.56
0.7296,0.2704	-7089.02
0.8225,0.1775	-7087.94
0.6863,0.3137	-7091.60
0.6703,0.3297	-7095.56
0.6381,0.3619	-7097.12
0.6489,0.3511	-7095.18
0.7289,0.2711	-7092.99
0.8257,0.1743	-7084.90
0.7146,0.2854	-7092.96
0.6791,0.3209	-7097.02
0.6784,0.3216	-7094.78
0.6693,0.3307	-7097.68
0.7424,0.2576	-7094.15
0.8555,0.1445	-7080.06
0.7364,0.2636	-7092.01
0.6743,0.3257	-7092.63
0.7482,0.2518	-7089.90
0.7140,0.2860	-7089.30
0.7600,0.2400	-7094.51
0.8385,0.1615	-7080.11
0.7169,0.2831	-7090.17
0.6803,0.3197	-7096.27
0.7701,0.2299	-7096.00
0.7056,0.2944	-7092.99
0.7092,0.2908	-7094.76
0.8377,0.1623	-7078.47
0.7417,0.2583	-7094.14
0.6882,0.3118	-7088.39
0.7759,0.2241	-7094.97
0.7336,0.2664	-7090.99
0.7021,0.2979	-7092.15
0.8168,0.1832	-7087.83
0.7613,0.2387	-7088.74
0.6605,0.3395	-7096.31
0.7778,0.2222	-7092.53
0.7034,0.2966	-7090.41
0.6975,0.3025	-7093.88
0.8452,0.1548	-7078.38
0.6996,0.3004	-7093.03
0.6339,0.3661	-7096.63
0.7084,0.2916	-7091.20
0.7613,0.2387	-7088.74
0.6594,0.3406	-7092.35
0.8367,0.1633	-7083.39
0.7233,0.2767	-7089.12
0.6737,0.3263	-7094.09
0.7016,0.2984	-7096.43
0.8111,0.1889	-7089.19
0.6477,0.3523	-7095.20
0.8471,0.1529	-7081.78
0.7386,0.2614	-7097.21
0.6706,0.3294	-7096.27
0.6645,0.3355	-7089.45
0.8026,0.1974	-7087.63
0.6432,0.3568	-7095.89
0.8594,0.1406	-7083.69
0.7434,0.2566	-7092.04
0.6462,0.3538	-7091.02
0.6417,0.3583	-7098.83
0.7932,0.2068	-7086.21
0.6260,0.3740	-7098.33
0.8692,0.1308	-7082.03
0.7402,0.2598	-7095.17
0.6364,0.3636	-7096.02
0.6256,0.3744	-7100.38
0.7905,0.2095	-7080.90
0.6359,0.3641	-7097.15
0.8597,0.1403	-7089.14
0.7257,0.2743	-7095.89
0.6360,0.3640	-7099.94
0.6416,0.3584	-7093.59
0.7649,0.2351	-7091.10
0.6645,0.3355	-7088.09
0.8694,0.1306	-7083.93
0.7244,0.2756	-7091.04
0.6252,0.3748	-7095.27
0.6824,0.3176	-7094.75
0.7781,0.2219	-7091.28
0.6786,0.3214	-7094.03
0.8771,0.1229	-7076.29
0.7559,0.2441	-7087.63
0.6193,0.3807	-7098.88
0.6468,0.3532	-7098.25
0.8117,0.1883	-7078.98
0.7103,0.2897	-7089.38
0.8602,0.1398	-7083.71
0.7647,0.2353	-7086.38
0.6356,0.3644	-7094.93
0.7123,0.2877	-7090.25
0.7879,0.2121	-7092.78
0.7016,0.2984	-7095.58
0.8626,0.1374	-7083.76
0.7822,0.2178	-7088.79
0.6694,0.3306	-7094.86
0.6677,0.3323	-7092.79
0.7563,0.2437	-7092.16
0.7299,0.2701	-7092.99
0.8672,0.1328	-7074.49
0.8097,0.1903	-7089.16
0.6631,0.3369	-7096.29
0.6850,0.3150	-7094.74
0.7098,0.2902	-7092.97
0.7531,0.2469	-7089.89
0.8658,0.1342	-7070.79
0.8375,0.1625	-7076.84
0.6454,0.3546	-7095.85
0.6866,0.3134	-7096.30
0.6990,0.3010	-7097.25
0.7527,0.2473	-7089.89
0.8446,0.1554	-7085.16
0.8638,0.1362	-7083.79
0.6720,0.3280	-7098.42
0.7021,0.2979	-7094.73
0.7253,0.2747	-7090.06
0.7299,0.2701	-7092.00
0.8690,0.1310	-7085.81
0.8740,0.1260	-7074.37
0.6301,0.3699	-7097.76
0.6986,0.3014	-7095.56
0.7044,0.2956	-7093.00
0.7215,0.2785	-7092.96
0.8952,0.1048	-7067.72
0.8847,0.1153	-7078.31
0.6407,0.3593	-7099.98
0.7066,0.2934	-7090.35
0.6893,0.3107	-7091.54
0.6927,0.3073	-7093.09
0.8911,0.1089	-7082.59
0.8742,0.1258	-7078.25
0.6711,0.3289	-7097.69
0.6502,0.3498	-7093.91
0.7242,0.2758	-7091.04
0.6785,0.3215	-7095.52
0.8968,0.1032	-7080.64
0.8769,0.1231	-7076.29
0.6474,0.3526	-7097.03
0.6291,0.3709	-7097.24
0.7130,0.2870	-7096.60
0.6670,0.3330	-7092.80
0.9112,0.0888	-7071.83
0.8664,0.1336	-7091.33
0.6127,0.3873	-7097.57
0.6277,0.3723	-7096.22
0.7392,0.2608	-7090.98
0.6568,0.3432	-7095.03
0.9155,0.0845	-7076.58
0.8491,0.1509	-7085.25
0.5727,0.4273	-7100.64
0.6700,0.3300	-7096.98
0.7315,0.2685	-7095.01
0.6590,0.3410	-7096.32
0.8990,0.1010	-7078.52
0.8484,0.1516	-7078.34
0.5115,0.4885	-7102.76
0.6880,0.3120	-7097.10
0.7064,0.2936	-7092.99
0.6366,0.3634	-7092.65
0.8707,0.1293	-7085.87
0.8424,0.1576	-7090.14
0.5058,0.4942	-7103.41
0.6752,0.3248	-7092.61
0.7003,0.2997	-7093.02
0.6378,0.3622	-7095.99
0.8734,0.1266	-7084.04
0.8057,0.1943	-7090.51
0.4986,0.5014	-7103.56
0.6766,0.3234	-7094.05
0.7159,0.2841	-7088.34
0.6325,0.3675	-7099.37
0.8612,0.1388	-7091.03
0.8160,0.1840	-7095.26
0.4977,0.5023	-7103.60
0.6731,0.3269	-7091.21
0.6867,0.3133	-7101.01
0.5730,0.4270	-7100.05
0.8852,0.1148	-7078.32
0.8044,0.1956	-7089.06
0.4866,0.5134	-7104.35
0.6992,0.3008	-7091.34
0.7299,0.2701	-7098.96
0.5853,0.4147	-7099.76
0.8688,0.1312	-7080.13
0.7846,0.2154	-7086.22
0.5169,0.4831	-7102.33
0.7022,0.2978	-7099.02
0.7306,0.2694	-7091.00
0.6357,0.3643	-7099.94
0.8645,0.1355	-7078.24
0.7964,0.2036	-7083.48
0.5547,0.4453	-7100.40
0.6748,0.3252	-7088.96
0.7533,0.2467	-7085.43
0.6579,0.3421	-7097.63
0.8762,0.1238	-7082.17
0.7639,0.2361	-7089.91
0.6174,0.3826	-7096.51
0.6562,0.3438	-7091.17
0.7512,0.2488	-7087.68
0.6946,0.3054	-7093.07
0.8598,0.1402	-7081.89
0.7790,0.2210	-7084.99
0.5890,0.4110	-7100.77
0.6249,0.3751	-7098.85
0.7075,0.2925	-7092.98
0.7115,0.2885	-7094.77
0.8435,0.1565	-7085.14
0.7642,0.2358	-7086.39
0.6146,0.3854	-7096.12
0.6541,0.3459	-7094.44
0.6930,0.3070	-7094.72
0.6819,0.3181	-7098.57
0.8564,0.1436	-7081.85
0.7039,0.2961	-7090.40
0.6727,0.3273	-7095.55
0.6509,0.3491	-7098.88
0.6777,0.3223	-7095.53
0.6900,0.3100	-7094.72
0.8485,0.1515	-7081.79
0.7367,0.2633	-7092.01
0.6540,0.3460	-7101.45
0.6370,0.3630	-7099.38
0.6731,0.3269	-7091.93
0.7156,0.2844	-7094.81
0.8313,0.1687	-7078.57
0.7320,0.2680	-7091.00
0.7088,0.2912	-7096.54
0.6909,0.3091	-7092.31
0.7006,0.2994	-7090.47
0.6918,0.3082	-7094.72
0.8302,0.1698	-7084.94
0.7553,0.2447	-7088.76
0.7260,0.2740	-7097.85
0.6581,0.3419	-7096.32
0.6893,0.3107	-7092.33
0.6621,0.3379	-7090.24
0.8252,0.1748	-7084.89
0.7350,0.2650	-7099.15
0.7588,0.2412	-7091.04
0.6334,0.3666	-7097.18
0.6894,0.3106	-7097.91
0.6425,0.3575	-7096.49
0.7898,0.2102	-7086.21
0.7341,0.2659	-7082.86
0.7809,0.2191	-7090.05
0.6655,0.3345	-7092.84
0.6663,0.3337	-7092.13
0.6121,0.3879	-7096.21
0.7963,0.2037	-7086.21
0.7829,0.2171	-7083.67
0.7739,0.2261	-7081.37
0.6225,0.3775	-7100.36
0.7008,0.2992	-7091.32
0.6078,0.3922	-7098.56
0.8068,0.1932	-7090.54
0.7864,0.2136	-7086.22
