#isoforms=['ENSG00000186575.SE.4.A.up_ENSG00000186575.SE.4.A.SE1_ENSG00000186575.SE.4.A.dn','ENSG00000186575.SE.4.B.up_ENSG00000186575.SE.4.B.dn']	exon_lens=('ENSG00000186575.SE.4.A.up',128),('ENSG00000186575.SE.4.A.SE1',163),('ENSG00000186575.SE.4.A.dn',3847),('ENSG00000186575.SE.4.B.up',128),('ENSG00000186575.SE.4.B.dn',194)	iters=5000	burn_in=500	lag=10	percent_accept=96.12	proposal_type=drift	counts=(0,0):224,(0,1):1,(1,0):1418,(1,1):50	assigned_counts=0:1463,1:6	chrom=chr22	strand=+	mRNA_starts=29678196,29678196	mRNA_ends=29698598,29694945
sampled_psi	log_score
0.9116,0.0884	-12221.99
0.9664,0.0336	-12207.37
0.8941,0.1059	-12222.32
0.9683,0.0317	-12210.75
0.8929,0.1071	-12209.62
0.9712,0.0288	-12207.28
0.9223,0.0777	-12221.95
0.9685,0.0315	-12203.90
0.9001,0.0999	-12224.37
0.9667,0.0333	-12207.36
0.9005,0.0995	-12228.77
0.9744,0.0256	-12207.25
0.9078,0.0922	-12215.18
0.9698,0.0302	-12210.77
0.9049,0.0951	-12222.08
0.9620,0.0380	-12207.50
0.9066,0.0934	-12210.69
0.9708,0.0292	-12207.28
0.9043,0.0957	-12217.60
0.9692,0.0308	-12210.76
0.9085,0.0915	-12217.44
0.9675,0.0325	-12210.74
0.9070,0.0930	-12222.05
0.9673,0.0327	-12210.74
0.9005,0.0995	-12222.17
0.9671,0.0329	-12210.74
0.9227,0.0773	-12214.52
0.9687,0.0313	-12210.75
0.9272,0.0728	-12221.99
0.9705,0.0295	-12210.78
0.8840,0.1160	-12216.53
0.9737,0.0263	-12210.86
0.9343,0.0657	-12211.48
0.9690,0.0310	-12207.31
0.9312,0.0688	-12211.62
0.9780,0.0220	-12203.46
0.8896,0.1104	-12218.27
0.9788,0.0212	-12207.26
0.9259,0.0741	-12214.40
0.9746,0.0254	-12210.89
0.9208,0.0792	-12217.05
0.9783,0.0217	-12203.45
0.8759,0.1241	-12226.83
0.9844,0.0156	-12207.42
0.9089,0.0911	-12212.82
0.9741,0.0259	-12207.25
0.9186,0.0814	-12221.95
0.9835,0.0165	-12207.38
0.8682,0.1318	-12227.03
0.9844,0.0156	-12203.27
0.9096,0.0904	-12224.32
0.9789,0.0211	-12203.42
0.9126,0.0874	-12221.98
0.9815,0.0185	-12211.28
0.8911,0.1089	-12213.99
0.9866,0.0134	-12207.54
0.9097,0.0903	-12226.63
0.9729,0.0271	-12203.68
0.9010,0.0990	-12222.15
0.9790,0.0210	-12211.10
0.8978,0.1022	-12215.71
0.9903,0.0097	-12203.26
0.9183,0.0817	-12214.70
0.9601,0.0399	-12207.56
0.9028,0.0972	-12215.43
0.9777,0.0223	-12203.47
0.8863,0.1137	-12226.65
0.9928,0.0072	-12203.36
0.9298,0.0702	-12214.27
0.9582,0.0418	-12207.63
0.9050,0.0950	-12219.83
0.9692,0.0308	-12210.76
0.8893,0.1107	-12220.37
0.9928,0.0072	-12208.29
0.9247,0.0753	-12224.47
0.9574,0.0426	-12213.89
0.9236,0.0764	-12216.98
0.9675,0.0325	-12217.53
0.9133,0.0867	-12224.33
0.9931,0.0069	-12203.38
0.9347,0.0653	-12211.47
0.9635,0.0365	-12210.72
0.9353,0.0647	-12216.78
0.9670,0.0330	-12214.11
0.9124,0.0876	-12210.27
0.9940,0.0060	-12203.45
0.9250,0.0750	-12219.46
0.9682,0.0318	-12203.92
0.9543,0.0457	-12210.83
0.9640,0.0360	-12210.72
0.9237,0.0763	-12211.98
0.9949,0.0051	-12203.53
0.9315,0.0685	-12216.82
0.9684,0.0316	-12207.33
0.9521,0.0479	-12210.88
0.9670,0.0330	-12210.73
0.9196,0.0804	-12209.76
0.9957,0.0043	-12203.64
0.9371,0.0629	-12214.07
0.9638,0.0362	-12204.16
0.9401,0.0599	-12233.28
0.9424,0.0576	-12213.96
0.9332,0.0668	-12214.17
0.9952,0.0048	-12203.57
0.9271,0.0729	-12214.36
0.9671,0.0329	-12207.35
0.9363,0.0637	-12214.08
0.9333,0.0667	-12208.89
0.9451,0.0549	-12213.92
0.9955,0.0045	-12209.01
0.9188,0.0812	-12212.24
0.9637,0.0363	-12220.56
0.9316,0.0684	-12219.44
0.9350,0.0650	-12211.45
0.9424,0.0576	-12205.57
0.9946,0.0054	-12203.50
0.9185,0.0815	-12217.11
0.9659,0.0341	-12210.73
0.9220,0.0780	-12212.07
0.9269,0.0731	-12214.36
0.9164,0.0836	-12212.38
0.9936,0.0064	-12208.47
0.9223,0.0777	-12209.58
0.9566,0.0434	-12207.70
0.9301,0.0699	-12216.85
0.9257,0.0743	-12216.93
0.8918,0.1082	-12222.38
0.9915,0.0085	-12208.05
0.9214,0.0786	-12229.34
0.9477,0.0523	-12208.09
0.9149,0.0851	-12224.34
0.9180,0.0820	-12217.12
0.8830,0.1170	-12222.66
0.9908,0.0092	-12207.96
0.9333,0.0667	-12211.52
0.9529,0.0471	-12210.86
0.9183,0.0817	-12214.69
0.9185,0.0815	-12217.11
0.8791,0.1209	-12216.85
0.9894,0.0106	-12203.25
0.9440,0.0560	-12208.28
0.9514,0.0486	-12204.94
0.9328,0.0672	-12211.55
0.9012,0.0988	-12215.52
0.8691,0.1309	-12223.22
0.9889,0.0111	-12203.24
0.9308,0.0692	-12216.84
0.9506,0.0494	-12207.95
0.9476,0.0524	-12216.78
0.9098,0.0902	-12212.77
0.8992,0.1008	-12222.19
0.9901,0.0099	-12203.26
0.9325,0.0675	-12216.81
0.9526,0.0474	-12216.86
0.9461,0.0539	-12211.04
0.9008,0.0992	-12222.16
0.9012,0.0988	-12219.94
0.9905,0.0095	-12203.27
0.9267,0.0733	-12214.37
0.9583,0.0417	-12210.76
0.9431,0.0569	-12216.75
0.9057,0.0943	-12222.07
0.9157,0.0843	-12219.58
0.9901,0.0099	-12207.87
0.9432,0.0568	-12208.32
0.9688,0.0312	-12203.88
0.9431,0.0569	-12213.94
0.8959,0.1041	-12215.82
0.9238,0.0762	-12216.97
0.9878,0.0122	-12203.24
0.9450,0.0550	-12211.07
0.9591,0.0409	-12217.06
0.9428,0.0572	-12208.34
0.9105,0.0895	-12215.04
0.9255,0.0745	-12214.41
0.9859,0.0141	-12203.25
0.9463,0.0537	-12213.90
0.9525,0.0475	-12210.87
0.9449,0.0551	-12205.39
0.9049,0.0951	-12219.83
0.9269,0.0731	-12214.36
0.9887,0.0113	-12207.72
0.9325,0.0675	-12214.19
0.9576,0.0424	-12217.01
0.9346,0.0654	-12214.13
0.8945,0.1055	-12213.76
0.9121,0.0879	-12210.29
0.9871,0.0129	-12207.58
0.9094,0.0906	-12215.10
0.9589,0.0411	-12217.06
0.9339,0.0661	-12214.15
0.9136,0.0864	-12217.26
0.9255,0.0745	-12219.45
0.9878,0.0122	-12203.24
0.9215,0.0785	-12214.56
0.9605,0.0395	-12204.36
0.9276,0.0724	-12221.99
0.9214,0.0786	-12221.95
0.9389,0.0611	-12211.29
0.9882,0.0118	-12203.24
0.9020,0.0980	-12219.92
0.9589,0.0411	-12207.61
0.9389,0.0611	-12219.49
0.9119,0.0881	-12212.64
0.9291,0.0709	-12216.86
0.9888,0.0112	-12207.72
0.9153,0.0847	-12217.20
0.9624,0.0376	-12213.97
0.9369,0.0631	-12211.37
0.9103,0.0897	-12231.28
0.9497,0.0503	-12219.75
0.9874,0.0126	-12207.60
0.9180,0.0820	-12221.95
0.9561,0.0439	-12213.88
0.9279,0.0721	-12211.78
0.9091,0.0909	-12226.63
0.9568,0.0432	-12213.88
0.9909,0.0091	-12203.28
0.9181,0.0819	-12212.28
0.9552,0.0448	-12210.81
0.9344,0.0656	-12230.07
0.9253,0.0747	-12219.45
0.9564,0.0436	-12207.70
0.9912,0.0088	-12203.29
0.9289,0.0711	-12211.73
0.9597,0.0403	-12207.58
0.9465,0.0535	-12205.28
0.9184,0.0816	-12219.53
0.9524,0.0476	-12207.87
0.9872,0.0128	-12203.24
0.9210,0.0790	-12219.50
0.9577,0.0423	-12204.53
0.9568,0.0432	-12210.78
0.9175,0.0825	-12221.95
0.9477,0.0523	-12213.89
0.9871,0.0129	-12203.24
0.9332,0.0668	-12211.53
0.9581,0.0419	-12213.90
0.9569,0.0431	-12220.08
0.9174,0.0826	-12212.32
0.9440,0.0560	-12208.28
0.9835,0.0165	-12211.47
0.9475,0.0525	-12208.10
0.9625,0.0375	-12210.73
0.9669,0.0331	-12207.36
0.9365,0.0635	-12211.39
0.9341,0.0659	-12214.14
0.9827,0.0173	-12211.39
0.9539,0.0461	-12207.81
0.9552,0.0448	-12210.81
0.9594,0.0406	-12213.91
0.9277,0.0723	-12211.78
0.9467,0.0533	-12208.14
0.9813,0.0187	-12203.35
0.9472,0.0528	-12208.12
0.9606,0.0394	-12213.93
0.9689,0.0311	-12203.88
0.9262,0.0738	-12216.92
0.9415,0.0585	-12211.19
0.9833,0.0167	-12203.29
0.9285,0.0715	-12214.31
0.9559,0.0441	-12213.87
0.9747,0.0253	-12203.60
0.9318,0.0682	-12214.21
0.9384,0.0616	-12216.76
0.9835,0.0165	-12203.29
0.9357,0.0643	-12214.10
0.9534,0.0466	-12210.85
0.9743,0.0257	-12207.25
0.9188,0.0812	-12221.95
0.9468,0.0532	-12213.90
0.9840,0.0160	-12207.40
0.9277,0.0723	-12211.78
0.9557,0.0443	-12213.87
0.9786,0.0214	-12203.44
0.9097,0.0903	-12222.01
0.9364,0.0636	-12216.77
0.9867,0.0133	-12203.24
0.9337,0.0663	-12211.51
0.9631,0.0369	-12213.99
0.9801,0.0199	-12207.28
0.9069,0.0931	-12215.22
0.9366,0.0634	-12211.38
0.9875,0.0125	-12207.61
0.9474,0.0526	-12205.22
0.9605,0.0395	-12213.93
0.9785,0.0215	-12207.26
0.9057,0.0943	-12215.28
0.9509,0.0491	-12207.94
0.9897,0.0103	-12207.82
0.9395,0.0605	-12214.01
0.9644,0.0356	-12217.32
0.9769,0.0231	-12207.25
0.8921,0.1079	-12228.71
0.9585,0.0415	-12213.90
0.9881,0.0119	-12212.08
0.9383,0.0617	-12222.20
0.9669,0.0331	-12203.99
0.9732,0.0268	-12207.26
0.8948,0.1052	-12220.16
0.9609,0.0391	-12210.74
0.9850,0.0150	-12203.26
0.9274,0.0726	-12216.89
0.9686,0.0314	-12210.75
0.9580,0.0420	-12204.51
0.8735,0.1265	-12223.03
0.9669,0.0331	-12210.73
0.9824,0.0176	-12211.36
0.9171,0.0829	-12212.34
0.9659,0.0341	-12207.39
0.9629,0.0371	-12204.22
0.8541,0.1459	-12229.25
0.9700,0.0300	-12203.82
0.9835,0.0165	-12207.38
0.9161,0.0839	-12217.18
0.9574,0.0426	-12207.66
0.9688,0.0312	-12217.62
0.8585,0.1415	-12218.31
0.9797,0.0203	-12207.27
0.9792,0.0208	-12207.27
0.9069,0.0931	-12217.50
0.9549,0.0451	-12213.87
0.9629,0.0371	-12217.24
0.8684,0.1316	-12225.13
0.9794,0.0206	-12211.13
0.9814,0.0186	-12211.28
0.8857,0.1143	-12216.43
0.9521,0.0479	-12210.88
0.9628,0.0372	-12207.47
0.8571,0.1429	-12227.38
0.9761,0.0239	-12207.24
0.9789,0.0211	-12203.43
0.8908,0.1092	-12220.31
0.9483,0.0517	-12213.88
0.9491,0.0509	-12213.88
0.8623,0.1377	-12225.37
0.9769,0.0231	-12207.25
0.9781,0.0219	-12207.25
0.9011,0.0989	-12226.57
0.9525,0.0475	-12219.86
0.9499,0.0501	-12216.81
0.8513,0.1487	-12222.36
0.9784,0.0216	-12214.88
0.9806,0.0194	-12203.37
0.9214,0.0786	-12219.49
0.9533,0.0467	-12210.85
0.9421,0.0579	-12211.17
0.8276,0.1724	-12234.97
0.9812,0.0188	-12211.26
0.9736,0.0264	-12207.25
0.9141,0.0859	-12219.61
0.9529,0.0471	-12207.85
0.9577,0.0423	-12223.25
0.8355,0.1645	-12231.54
0.9787,0.0213	-12203.43
0.9714,0.0286	-12207.27
0.9167,0.0833	-12221.96
0.9598,0.0402	-12213.92
0.9480,0.0520	-12205.18
0.8334,0.1666	-12233.22
0.9788,0.0212	-12203.43
0.9733,0.0267	-12210.85
0.8976,0.1024	-12217.89
0.9609,0.0391	-12210.74
0.9398,0.0602	-12222.25
0.8241,0.1759	-12230.43
0.9773,0.0227	-12207.25
0.9717,0.0283	-12207.27
0.8884,0.1116	-12214.18
0.9720,0.0280	-12207.27
0.9448,0.0552	-12208.24
0.8423,0.1577	-12229.65
0.9717,0.0283	-12203.74
0.9716,0.0284	-12210.81
0.9027,0.0973	-12226.58
0.9723,0.0277	-12210.82
0.9473,0.0527	-12211.00
0.8780,0.1220	-12224.82
0.9746,0.0254	-12203.60
0.9729,0.0271	-12207.26
0.9082,0.0918	-12228.91
0.9722,0.0278	-12207.27
0.9462,0.0538	-12219.64
0.8608,0.1392	-12227.25
0.9759,0.0241	-12210.94
0.9652,0.0348	-12210.73
0.9097,0.0903	-12226.63
0.9748,0.0252	-12214.56
0.9451,0.0549	-12216.76
0.8772,0.1228	-12222.87
0.9731,0.0269	-12210.85
0.9604,0.0396	-12210.74
0.9200,0.0800	-12219.51
0.9728,0.0272	-12203.68
0.9318,0.0682	-12229.89
0.8898,0.1102	-12218.26
0.9636,0.0364	-12220.55
0.9618,0.0382	-12226.86
0.9260,0.0740	-12224.50
0.9778,0.0222	-12211.04
0.9320,0.0680	-12219.44
0.8942,0.1058	-12224.45
0.9636,0.0364	-12207.45
0.9627,0.0373	-12204.23
0.9292,0.0708	-12211.71
0.9780,0.0220	-12211.05
0.9128,0.0872	-12214.94
0.8856,0.1144	-12220.52
0.9654,0.0346	-12217.38
0.9578,0.0422	-12213.89
0.9120,0.0880	-12214.97
0.9777,0.0223	-12207.25
0.9067,0.0933	-12217.50
0.8848,0.1152	-12224.64
0.9606,0.0394	-12210.74
0.9546,0.0454	-12210.82
0.9152,0.0848	-12219.59
0.9800,0.0200	-12203.39
0.9125,0.0875	-12212.60
0.8862,0.1138	-12212.29
0.9675,0.0325	-12207.35
0.9628,0.0372	-12210.73
0.9166,0.0834	-12219.56
0.9763,0.0237	-12203.53
0.9218,0.0782	-12221.95
0.9066,0.0934	-12226.60
0.9629,0.0371	-12220.50
0.9525,0.0475	-12204.87
0.8940,0.1060	-12215.92
0.9768,0.0232	-12207.25
0.9134,0.0866	-12212.55
0.9075,0.0925	-12231.18
0.9632,0.0368	-12207.46
0.9560,0.0440	-12204.64
0.8815,0.1185	-12218.70
0.9798,0.0202	-12203.39
0.9353,0.0647	-12219.45
0.9192,0.0808	-12214.66
0.9633,0.0367	-12207.46
0.9633,0.0367	-12207.46
0.9014,0.0986	-12219.93
0.9828,0.0172	-12203.31
0.9334,0.0666	-12222.08
0.9285,0.0715	-12211.75
0.9614,0.0386	-12213.95
0.9652,0.0348	-12204.08
0.9106,0.0894	-12219.68
0.9824,0.0176	-12211.36
0.9379,0.0621	-12214.05
0.9243,0.0757	-12211.95
0.9498,0.0502	-12205.05
0.9691,0.0309	-12210.76
0.9006,0.0994	-12222.16
0.9800,0.0200	-12203.39
0.9414,0.0586	-12216.75
0.9257,0.0743	-12214.41
0.9504,0.0496	-12210.92
0.9741,0.0259	-12210.88
0.8950,0.1050	-12215.87
0.9847,0.0153	-12207.43
0.9520,0.0480	-12210.88
0.9201,0.0799	-12212.18
0.9285,0.0715	-12219.44
0.9742,0.0258	-12207.25
0.8811,0.1189	-12210.71
0.9868,0.0132	-12207.56
0.9576,0.0424	-12213.89
0.9306,0.0694	-12219.43
0.9388,0.0612	-12224.95
0.9752,0.0248	-12207.24
0.8782,0.1218	-12222.83
0.9838,0.0162	-12207.39
0.9638,0.0362	-12204.16
0.9333,0.0667	-12214.16
0.9520,0.0480	-12207.89
0.9760,0.0240	-12210.95
0.8616,0.1384	-12223.56
0.9812,0.0188	-12211.26
0.9663,0.0337	-12207.37
0.9452,0.0548	-12213.91
0.9542,0.0458	-12207.79
0.9710,0.0290	-12207.28
0.8517,0.1483	-12224.08
0.9844,0.0156	-12203.27
0.9707,0.0293	-12210.79
0.9285,0.0715	-12222.00
0.9527,0.0473	-12219.87
0.9709,0.0291	-12214.29
0.8579,0.1421	-12227.35
0.9842,0.0158	-12207.41
0.9622,0.0378	-12213.97
0.9382,0.0618	-12214.04
0.9588,0.0412	-12204.46
0.9679,0.0321	-12203.93
0.8352,0.1648	-12229.93
0.9826,0.0174	-12203.31
0.9613,0.0387	-12213.95
0.9456,0.0544	-12205.34
0.9580,0.0420	-12204.51
0.9608,0.0392	-12210.74
0.8193,0.1807	-12226.13
0.9833,0.0167	-12211.45
0.9641,0.0359	-12204.14
0.9415,0.0585	-12213.97
0.9615,0.0385	-12210.73
0.9641,0.0359	-12210.72
0.8144,0.1856	-12226.49
0.9813,0.0187	-12207.31
0.9627,0.0373	-12210.73
0.9570,0.0430	-12210.78
0.9667,0.0333	-12210.73
0.9437,0.0563	-12213.94
0.8376,0.1624	-12229.83
0.9785,0.0215	-12207.26
0.9653,0.0347	-12210.73
0.9602,0.0398	-12217.11
0.9676,0.0324	-12214.14
0.9418,0.0582	-12213.97
0.8000,0.2000	-12234.54
0.9794,0.0206	-12211.13
0.9709,0.0291	-12207.28
0.9617,0.0383	-12213.95
0.9634,0.0366	-12213.99
0.9516,0.0484	-12213.87
0.8026,0.1974	-12227.40
0.9783,0.0217	-12203.45
0.9722,0.0278	-12210.82
0.9609,0.0391	-12207.53
0.9639,0.0361	-12214.01
0.9429,0.0571	-12211.14
0.8293,0.1707	-12231.77
0.9746,0.0254	-12207.25
0.9719,0.0281	-12214.36
0.9529,0.0471	-12210.86
0.9610,0.0390	-12207.53
0.9453,0.0547	-12216.76
0.7977,0.2023	-12229.16
0.9674,0.0326	-12203.96
0.9683,0.0317	-12207.33
0.9549,0.0451	-12210.82
0.9516,0.0484	-12210.89
0.9490,0.0510	-12213.88
0.8244,0.1756	-12231.96
0.9662,0.0338	-12207.38
0.9758,0.0242	-12218.34
0.9640,0.0360	-12207.44
0.9487,0.0513	-12210.96
0.9383,0.0617	-12211.32
0.8742,0.1258	-12223.00
0.9658,0.0342	-12207.39
0.9755,0.0245	-12207.24
0.9707,0.0293	-12210.78
0.9519,0.0481	-12207.90
0.9407,0.0593	-12211.22
0.8954,0.1046	-12220.14
0.9592,0.0408	-12207.59
0.9719,0.0281	-12207.27
0.9658,0.0342	-12204.05
0.9430,0.0570	-12211.14
0.9433,0.0567	-12219.56
0.9302,0.0698	-12216.84
0.9654,0.0346	-12204.07
0.9758,0.0242	-12203.55
0.9589,0.0411	-12210.76
0.9463,0.0537	-12216.77
0.9422,0.0578	-12225.13
0.9123,0.0877	-12217.30
0.9705,0.0295	-12207.29
0.9707,0.0293	-12214.29
0.9549,0.0451	-12216.92
0.9481,0.0519	-12210.98
0.9320,0.0680	-12208.97
0.9096,0.0904	-12210.47
0.9736,0.0264	-12203.65
0.9687,0.0313	-12207.32
0.9436,0.0564	-12211.12
0.9496,0.0504	-12205.07
0.9059,0.0941	-12224.33
0.9157,0.0843	-12221.96
0.9701,0.0299	-12207.30
0.9668,0.0332	-12203.99
0.9328,0.0672	-12216.81
0.9535,0.0465	-12207.82
0.9107,0.0893	-12219.68
0.9263,0.0737	-12216.92
0.9726,0.0274	-12203.69
0.9614,0.0386	-12210.73
0.9198,0.0802	-12219.51
0.9536,0.0464	-12207.82
0.9011,0.0989	-12224.36
0.9192,0.0808	-12212.23
0.9665,0.0335	-12207.37
0.9578,0.0422	-12204.52
0.9336,0.0664	-12211.51
0.9546,0.0454	-12219.96
0.9045,0.0955	-12217.59
0.9054,0.0946	-12215.30
0.9682,0.0318	-12217.58
0.9605,0.0395	-12207.55
0.9429,0.0571	-12208.34
0.9357,0.0643	-12216.78
0.9214,0.0786	-12219.49
0.8827,0.1173	-12226.71
0.9596,0.0404	-12204.41
0.9548,0.0452	-12219.97
0.9438,0.0562	-12208.29
0.9436,0.0564	-12208.30
0.9263,0.0737	-12216.92
0.8856,0.1144	-12224.62
0.9621,0.0379	-12204.26
0.9506,0.0494	-12213.87
0.9514,0.0486	-12219.81
0.9465,0.0535	-12208.15
0.9301,0.0699	-12211.67
0.8947,0.1053	-12222.30
0.9612,0.0388	-12210.73
0.9319,0.0681	-12216.82
0.9548,0.0452	-12210.82
0.9397,0.0603	-12211.26
0.9402,0.0598	-12216.75
0.9261,0.0739	-12216.92
0.9690,0.0310	-12214.20
0.9340,0.0660	-12208.84
0.9502,0.0498	-12210.92
0.9474,0.0526	-12208.11
0.9449,0.0551	-12211.08
0.9243,0.0757	-12211.95
0.9754,0.0246	-12207.24
0.9439,0.0561	-12213.93
0.9539,0.0461	-12207.80
0.9401,0.0599	-12222.26
0.9264,0.0736	-12216.91
0.9177,0.0823	-12224.37
0.9728,0.0272	-12207.26
0.9088,0.0912	-12219.73
0.9410,0.0590	-12208.44
0.9273,0.0727	-12214.35
0.9142,0.0858	-12219.61
0.9025,0.0975	-12211.00
0.9678,0.0322	-12203.94
0.9106,0.0894	-12217.36
0.9390,0.0610	-12216.76
0.9270,0.0730	-12209.28
0.8981,0.1019	-12211.34
0.9190,0.0810	-12214.67
0.9740,0.0260	-12207.25
0.8977,0.1023	-12222.23
0.9543,0.0457	-12213.87
0.9063,0.0937	-12217.52
0.9047,0.0953	-12213.09
0.9220,0.0780	-12217.01
0.9701,0.0299	-12214.25
0.8905,0.1095	-12222.42
0.9574,0.0426	-12210.77
0.9112,0.0888	-12215.01
0.8983,0.1017	-12222.21
0.9365,0.0635	-12214.08
0.9659,0.0341	-12204.04
0.8605,0.1395	-12216.34
0.9589,0.0411	-12210.76
0.9287,0.0713	-12222.00
0.9119,0.0881	-12219.65
0.9444,0.0556	-12211.09
0.9567,0.0433	-12207.69
0.8519,0.1481	-12231.07
0.9515,0.0485	-12210.89
0.9280,0.0720	-12219.44
0.9091,0.0909	-12217.42
0.9579,0.0421	-12210.77
0.9593,0.0407	-12210.75
0.8366,0.1634	-12228.24
0.9578,0.0422	-12204.52
0.9371,0.0629	-12208.66
0.9004,0.0996	-12215.56
0.9505,0.0495	-12210.91
0.9617,0.0383	-12207.51
0.8382,0.1618	-12223.23
0.9495,0.0505	-12216.81
0.9149,0.0851	-12219.59
0.8918,0.1082	-12218.16
0.9435,0.0565	-12211.12
0.9618,0.0382	-12207.51
0.8408,0.1592	-12229.71
0.9476,0.0524	-12210.99
0.9100,0.0900	-12219.70
0.9113,0.0887	-12212.68
0.9377,0.0623	-12219.47
0.9598,0.0402	-12207.57
0.8752,0.1248	-12222.95
0.9491,0.0509	-12210.95
0.9126,0.0874	-12212.60
0.9021,0.0979	-12217.69
0.9386,0.0614	-12219.48
0.9660,0.0340	-12210.73
0.8535,0.1465	-12218.70
0.9570,0.0430	-12207.68
0.9272,0.0728	-12214.35
0.9146,0.0854	-12219.60
0.9244,0.0756	-12224.47
0.9612,0.0388	-12210.73
0.8608,0.1392	-12227.25
0.9517,0.0483	-12213.86
0.9525,0.0475	-12204.87
0.9150,0.0850	-12217.21
0.9272,0.0728	-12219.44
0.9618,0.0382	-12220.41
0.8552,0.1448	-12227.44
0.9561,0.0439	-12213.88
0.9594,0.0406	-12204.43
0.9009,0.0991	-12219.95
0.9326,0.0674	-12216.81
0.9591,0.0409	-12210.75
0.8817,0.1183	-12222.70
0.9607,0.0393	-12210.74
0.9552,0.0448	-12210.81
0.9152,0.0848	-12210.07
0.9372,0.0628	-12211.36
0.9507,0.0493	-12222.75
0.8936,0.1064	-12220.20
0.9572,0.0428	-12213.89
0.9544,0.0456	-12207.78
0.9070,0.0930	-12222.05
0.9385,0.0615	-12208.58
0.9500,0.0500	-12210.93
0.8605,0.1395	-12223.62
0.9495,0.0505	-12225.61
0.9525,0.0475	-12207.87
0.9096,0.0904	-12217.40
0.9417,0.0583	-12216.75
0.9443,0.0557	-12219.59
0.8514,0.1486	-12229.34
0.9526,0.0474	-12213.86
0.9510,0.0490	-12219.80
0.9086,0.0914	-12222.03
0.9228,0.0772	-12212.03
0.9510,0.0490	-12210.90
0.8659,0.1341	-12232.69
0.9424,0.0576	-12216.75
0.9489,0.0511	-12208.04
0.9188,0.0812	-12214.67
0.9163,0.0837	-12214.78
0.9475,0.0525	-12219.67
0.8502,0.1498	-12224.16
0.9261,0.0739	-12214.39
0.9593,0.0407	-12210.75
0.9335,0.0665	-12214.16
0.9151,0.0849	-12212.46
0.9323,0.0677	-12211.57
0.8509,0.1491	-12224.12
0.9260,0.0740	-12219.45
0.9553,0.0447	-12210.81
0.9474,0.0526	-12213.89
0.9172,0.0828	-12217.14
0.9231,0.0769	-12216.99
0.8583,0.1417	-12230.94
0.9425,0.0575	-12219.55
0.9555,0.0445	-12207.74
0.9489,0.0511	-12216.80
0.9143,0.0857	-12219.60
0.9229,0.0771	-12214.51
0.8346,0.1654	-12229.95
0.9427,0.0573	-12211.15
0.9547,0.0453	-12210.82
0.9426,0.0574	-12213.95
0.9135,0.0865	-12217.26
0.9248,0.0752	-12232.01
0.8470,0.1530	-12229.48
0.9280,0.0720	-12214.33
0.9562,0.0438	-12207.71
0.9360,0.0640	-12214.09
0.9195,0.0805	-12214.65
0.9217,0.0783	-12214.55
0.8691,0.1309	-12228.89
0.9335,0.0665	-12216.80
0.9586,0.0414	-12207.62
0.9472,0.0528	-12211.01
0.8938,0.1062	-12220.19
0.9393,0.0607	-12211.28
0.8675,0.1325	-12234.56
0.9323,0.0677	-12211.57
0.9526,0.0474	-12216.86
0.9485,0.0515	-12219.71
0.9047,0.0953	-12219.83
0.9292,0.0708	-12224.58
0.8514,0.1486	-12220.60
0.9395,0.0605	-12211.27
0.9570,0.0430	-12210.78
0.9486,0.0514	-12210.96
0.9005,0.0995	-12219.96
0.9351,0.0649	-12224.78
0.8084,0.1916	-12235.58
0.9329,0.0671	-12219.44
0.9537,0.0463	-12210.84
0.9446,0.0554	-12219.59
0.9036,0.0964	-12217.63
0.9324,0.0676	-12219.44
0.8371,0.1629	-12223.30
0.9468,0.0532	-12208.14
0.9568,0.0432	-12210.78
0.9448,0.0552	-12213.92
0.9081,0.0919	-12212.87
0.9264,0.0736	-12214.38
0.8284,0.1716	-12228.65
0.9408,0.0592	-12213.99
0.9337,0.0663	-12216.80
0.9408,0.0592	-12227.81
0.9019,0.0981	-12222.14
0.9236,0.0764	-12221.96
0.8306,0.1694	-12230.13
0.9388,0.0612	-12219.49
0.9379,0.0621	-12224.91
0.9381,0.0619	-12211.32
0.8942,0.1058	-12222.31
0.9172,0.0828	-12224.36
0.8504,0.1496	-12225.89
0.9302,0.0698	-12216.85
0.9250,0.0750	-12211.92
0.9496,0.0504	-12210.94
0.9099,0.0901	-12219.70
0.9278,0.0722	-12214.33
0.8322,0.1678	-12234.86
0.9192,0.0808	-12217.09
0.9235,0.0765	-12209.50
0.9448,0.0552	-12211.08
0.9106,0.0894	-12212.72
0.9221,0.0779	-12214.54
0.8545,0.1455	-12232.78
0.9257,0.0743	-12211.89
0.9265,0.0735	-12216.91
0.9458,0.0542	-12213.91
0.9202,0.0798	-12214.61
0.9293,0.0707	-12227.16
0.8832,0.1168	-12220.63
0.9326,0.0674	-12208.93
0.9247,0.0753	-12211.94
0.9272,0.0728	-12209.27
0.8978,0.1022	-12213.54
0.9409,0.0591	-12216.75
0.8434,0.1566	-12229.60
0.9267,0.0733	-12211.83
0.9369,0.0631	-12211.37
0.9221,0.0779	-12214.54
0.8906,0.1094	-12214.03
0.9429,0.0571	-12216.75
0.8621,0.1379	-12236.37
0.9192,0.0808	-12212.23
0.9453,0.0547	-12211.06
0.9370,0.0630	-12208.67
0.8794,0.1206	-12228.75
0.9552,0.0448	-12204.69
0.8488,0.1512	-12232.87
0.9096,0.0904	-12217.40
0.9373,0.0627	-12216.76
0.9478,0.0522	-12219.68
0.8847,0.1153	-12220.56
0.9565,0.0435	-12216.97
0.8675,0.1325	-12217.65
0.9225,0.0775	-12219.48
0.9333,0.0667	-12222.08
0.9473,0.0527	-12208.12
0.8892,0.1108	-12218.29
0.9568,0.0432	-12204.59
0.8815,0.1185	-12222.71
0.9311,0.0689	-12211.62
0.9366,0.0634	-12214.08
0.9519,0.0481	-12216.85
0.8881,0.1119	-12222.49
0.9592,0.0408	-12210.75
0.8856,0.1144	-12218.48
0.9316,0.0684	-12214.21
0.9205,0.0795	-12207.26
0.9408,0.0592	-12216.75
0.8918,0.1082	-12218.16
0.9542,0.0458	-12213.87
0.8943,0.1057	-12220.18
0.9238,0.0762	-12214.47
0.9198,0.0802	-12214.63
0.9474,0.0526	-12216.78
0.8919,0.1081	-12216.04
0.9497,0.0503	-12213.87
0.8979,0.1021	-12222.22
0.9339,0.0661	-12211.50
0.9325,0.0675	-12211.56
0.9420,0.0580	-12222.33
0.9128,0.0872	-12224.33
0.9431,0.0569	-12211.14
0.9028,0.0972	-12226.58
0.9365,0.0635	-12216.77
0.9389,0.0611	-12214.02
0.9402,0.0598	-12216.75
0.9283,0.0717	-12224.56
0.9471,0.0529	-12208.12
0.9016,0.0984	-12215.50
0.9266,0.0734	-12211.84
0.9364,0.0636	-12208.70
0.9430,0.0570	-12213.95
0.9236,0.0764	-12216.98
0.9420,0.0580	-12213.96
0.8858,0.1142	-12218.47
0.9356,0.0644	-12214.10
0.9365,0.0635	-12208.70
0.9464,0.0536	-12208.16
0.9102,0.0898	-12217.38
0.9500,0.0500	-12210.93
0.8933,0.1067	-12213.84
0.9310,0.0690	-12227.24
0.9248,0.0752	-12216.95
0.9593,0.0407	-12210.75
0.9196,0.0804	-12212.21
0.9487,0.0513	-12210.96
0.8871,0.1129	-12216.34
0.9226,0.0774	-12209.57
0.9057,0.0943	-12222.07
0.9552,0.0448	-12210.81
0.9201,0.0799	-12217.06
0.9579,0.0421	-12210.77
0.9257,0.0743	-12211.88
0.9139,0.0861	-12229.06
0.9181,0.0819	-12212.29
0.9564,0.0436	-12210.79
0.9294,0.0706	-12206.55
0.9535,0.0465	-12213.86
0.9164,0.0836	-12217.17
0.9236,0.0764	-12211.99
0.9117,0.0883	-12214.99
0.9558,0.0442	-12204.65
0.9268,0.0732	-12211.83
0.9552,0.0448	-12207.75
0.9147,0.0853	-12217.22
0.9160,0.0840	-12224.35
0.9201,0.0799	-12212.18
0.9568,0.0432	-12216.98
0.9360,0.0640	-12211.41
0.9606,0.0394	-12217.13
0.9263,0.0737	-12209.32
0.9193,0.0807	-12226.82
0.9213,0.0787	-12219.49
0.9595,0.0405	-12204.42
0.9267,0.0733	-12209.30
0.9529,0.0471	-12204.84
0.9171,0.0829	-12221.96
0.9162,0.0838	-12214.79
0.9374,0.0626	-12208.64
0.9668,0.0332	-12210.73
0.9303,0.0697	-12211.66
0.9489,0.0511	-12213.88
0.8984,0.1016	-12224.39
0.9183,0.0817	-12214.70
0.9393,0.0607	-12211.28
0.9739,0.0261	-12203.63
0.9287,0.0713	-12219.44
0.9462,0.0538	-12211.04
0.9060,0.0940	-12213.00
0.9331,0.0669	-12216.80
0.9465,0.0535	-12216.77
0.9736,0.0264	-12203.65
0.9317,0.0683	-12214.21
0.9519,0.0481	-12207.89
0.9207,0.0793	-12217.05
0.9189,0.0811	-12221.95
0.9547,0.0453	-12210.82
0.9712,0.0288	-12210.80
0.9000,0.1000	-12217.78
0.9407,0.0593	-12219.52
0.9190,0.0810	-12214.66
0.9062,0.0938	-12228.87
0.9556,0.0444	-12213.87
0.9778,0.0222	-12207.25
0.9164,0.0836	-12217.17
0.9421,0.0579	-12211.17
0.9173,0.0827	-12217.14
0.9118,0.0882	-12214.98
0.9548,0.0452	-12219.97
0.9765,0.0235	-12210.97
0.9389,0.0611	-12214.02
0.9413,0.0587	-12222.30
0.9209,0.0791	-12217.04
0.8898,0.1102	-12218.26
0.9583,0.0417	-12207.63
0.9784,0.0216	-12211.07
0.9584,0.0416	-12204.49
0.9529,0.0471	-12204.84
0.9156,0.0844	-12217.19
0.9123,0.0877	-12212.62
0.9548,0.0452	-12207.77
0.9805,0.0195	-12203.37
0.9645,0.0355	-12223.93
0.9649,0.0351	-12207.41
0.9145,0.0855	-12212.49
0.9213,0.0787	-12209.65
0.9542,0.0458	-12207.79
0.9775,0.0225	-12211.02
0.9637,0.0363	-12204.17
0.9668,0.0332	-12214.10
0.9103,0.0897	-12208.10
0.9120,0.0880	-12210.30
0.9534,0.0466	-12216.88
0.9772,0.0228	-12203.49
0.9608,0.0392	-12210.74
0.9626,0.0374	-12210.73
0.9131,0.0869	-12219.63
0.9067,0.0933	-12228.87
0.9503,0.0497	-12205.01
0.9790,0.0210	-12207.26
0.9582,0.0418	-12204.50
0.9654,0.0346	-12210.73
0.9119,0.0881	-12212.64
0.9046,0.0954	-12222.09
0.9541,0.0459	-12210.83
0.9789,0.0211	-12203.42
0.9522,0.0478	-12213.86
0.9710,0.0290	-12210.79
0.8689,0.1311	-12232.68
0.8912,0.1088	-12222.40
0.9611,0.0389	-12210.73
0.9791,0.0209	-12207.26
0.9387,0.0613	-12216.76
0.9728,0.0272	-12207.26
0.8811,0.1189	-12220.72
0.8923,0.1077	-12220.25
0.9649,0.0351	-12207.41
0.9765,0.0235	-12203.52
0.9453,0.0547	-12211.06
0.9688,0.0312	-12203.88
0.8802,0.1198	-12216.78
0.8818,0.1182	-12226.72
0.9672,0.0328	-12207.35
0.9782,0.0218	-12203.45
0.9440,0.0560	-12213.93
0.9770,0.0230	-12203.50
0.8944,0.1056	-12220.17
0.8817,0.1183	-12226.72
0.9597,0.0403	-12204.41
0.9790,0.0210	-12218.79
0.9510,0.0490	-12210.90
0.9753,0.0247	-12210.92
0.9005,0.0995	-12222.16
0.8539,0.1461	-12225.73
0.9598,0.0402	-12217.09
0.9782,0.0218	-12203.45
0.9467,0.0533	-12208.14
0.9782,0.0218	-12207.26
0.9111,0.0889	-12210.36
0.8669,0.1331	-12221.44
0.9574,0.0426	-12210.77
0.9811,0.0189	-12203.35
0.9444,0.0556	-12219.59
0.9836,0.0164	-12207.38
0.9106,0.0894	-12217.36
0.8515,0.1485	-12231.08
0.9568,0.0432	-12213.88
0.9819,0.0181	-12203.33
0.9415,0.0585	-12208.42
0.9844,0.0156	-12211.57
0.9158,0.0842	-12219.57
0.8628,0.1372	-12221.67
0.9565,0.0435	-12207.70
0.9833,0.0167	-12207.37
0.9417,0.0583	-12213.97
0.9871,0.0129	-12203.24
0.9117,0.0883	-12219.66
0.8773,0.1227	-12220.90
0.9489,0.0511	-12219.72
0.9846,0.0154	-12207.43
0.9435,0.0565	-12211.12
0.9851,0.0149	-12211.65
0.9132,0.0868	-12212.57
0.8597,0.1403	-12223.66
0.9479,0.0521	-12213.89
0.9864,0.0136	-12211.81
0.9410,0.0590	-12208.44
0.9881,0.0119	-12207.66
0.9318,0.0682	-12216.82
0.8740,0.1260	-12224.94
0.9631,0.0369	-12213.99
0.9876,0.0124	-12212.00
0.9436,0.0564	-12208.30
0.9853,0.0147	-12203.26
0.9306,0.0694	-12214.24
0.8882,0.1118	-12222.49
0.9643,0.0357	-12210.72
0.9828,0.0172	-12215.45
0.9269,0.0731	-12221.98
0.9865,0.0135	-12203.25
0.9181,0.0819	-12217.12
0.8823,0.1177	-12232.76
0.9667,0.0333	-12207.37
0.9852,0.0148	-12203.26
0.9305,0.0695	-12214.25
0.9875,0.0125	-12207.61
0.9044,0.0956	-12217.60
0.8995,0.1005	-12217.80
0.9714,0.0286	-12207.27
0.9826,0.0174	-12203.31
0.9432,0.0568	-12208.32
0.9875,0.0125	-12203.24
0.9137,0.0863	-12229.05
0.8669,0.1331	-12228.93
0.9649,0.0351	-12210.72
0.9793,0.0207	-12207.27
0.9415,0.0585	-12216.75
0.9845,0.0155	-12203.27
0.9335,0.0665	-12206.23
0.8661,0.1339	-12217.75
0.9600,0.0400	-12220.28
0.9813,0.0187	-12211.27
0.9376,0.0624	-12219.47
0.9830,0.0170	-12207.36
0.9378,0.0622	-12211.33
0.8486,0.1514	-12229.42
0.9673,0.0327	-12207.35
0.9792,0.0208	-12207.27
0.9379,0.0621	-12211.33
0.9810,0.0190	-12211.25
0.9365,0.0635	-12219.46
0.8569,0.1431	-12218.44
0.9656,0.0344	-12210.73
0.9842,0.0158	-12203.28
0.9311,0.0689	-12219.43
0.9794,0.0206	-12203.41
0.9158,0.0842	-12212.42
0.8663,0.1337	-12225.21
0.9656,0.0344	-12214.06
0.9814,0.0186	-12211.28
0.9318,0.0682	-12216.82
0.9836,0.0164	-12203.29
0.9161,0.0839	-12219.57
0.8649,0.1351	-12219.69
0.9641,0.0359	-12207.44
0.9672,0.0328	-12214.12
0.9330,0.0670	-12227.34
0.9816,0.0184	-12203.34
0.9103,0.0897	-12217.37
0.8663,0.1337	-12217.73
0.9700,0.0300	-12214.25
0.9706,0.0294	-12210.78
0.9199,0.0801	-12224.39
0.9813,0.0187	-12203.35
0.9113,0.0887	-12215.01
0.8566,0.1434	-12220.25
0.9597,0.0403	-12207.58
0.9721,0.0279	-12207.27
0.9172,0.0828	-12217.15
0.9797,0.0203	-12211.15
0.9118,0.0882	-12221.99
0.8708,0.1292	-12225.05
0.9609,0.0391	-12207.53
0.9733,0.0267	-12210.85
0.9142,0.0858	-12214.87
0.9812,0.0188	-12215.22
0.9000,0.1000	-12219.98
0.8550,0.1450	-12225.68
0.9585,0.0415	-12217.04
0.9635,0.0365	-12214.00
0.9153,0.0847	-12214.82
0.9854,0.0146	-12203.26
0.8876,0.1124	-12226.64
0.8561,0.1439	-12222.06
0.9386,0.0614	-12214.03
0.9683,0.0317	-12210.75
0.9154,0.0846	-12212.44
0.9856,0.0144	-12207.48
0.8985,0.1015	-12222.21
0.8604,0.1396	-12227.26
0.9492,0.0508	-12205.09
0.9697,0.0303	-12210.77
0.8985,0.1015	-12220.03
0.9829,0.0171	-12207.35
0.8968,0.1032	-12215.76
0.8788,0.1212	-12222.81
0.9443,0.0557	-12216.76
0.9675,0.0325	-12203.95
0.9121,0.0879	-12217.31
0.9823,0.0177	-12203.32
0.9122,0.0878	-12224.33
0.8744,0.1256	-12222.98
0.9370,0.0630	-12222.16
0.9663,0.0337	-12204.02
0.9163,0.0837	-12214.78
0.9809,0.0191	-12211.24
0.9354,0.0646	-12224.80
0.9004,0.0996	-12219.96
0.9477,0.0523	-12216.78
0.9680,0.0320	-12214.15
0.9027,0.0973	-12217.67
0.9822,0.0178	-12207.33
0.9240,0.0760	-12216.97
0.9013,0.0987	-12217.73
0.9538,0.0462	-12204.78
0.9722,0.0278	-12210.82
0.9272,0.0728	-12214.35
0.9808,0.0192	-12203.36
0.9282,0.0718	-12219.44
0.9015,0.0985	-12222.14
0.9543,0.0457	-12204.75
0.9669,0.0331	-12203.98
0.9292,0.0708	-12211.71
0.9785,0.0215	-12207.26
0.9384,0.0616	-12219.48
0.9081,0.0919	-12219.74
0.9556,0.0444	-12223.08
0.9604,0.0396	-12220.31
0.9196,0.0804	-12212.20
0.9746,0.0254	-12207.25
0.9402,0.0598	-12214.00
0.9128,0.0872	-12214.94
0.9453,0.0547	-12208.21
0.9613,0.0387	-12210.73
0.9237,0.0763	-12219.47
0.9788,0.0212	-12207.26
0.9441,0.0559	-12208.28
0.9074,0.0926	-12226.61
0.9463,0.0537	-12216.77
0.9622,0.0378	-12213.97
0.9327,0.0673	-12211.55
0.9795,0.0205	-12207.27
0.9469,0.0531	-12219.66
0.8913,0.1087	-12222.39
0.9309,0.0691	-12216.83
0.9638,0.0362	-12204.16
0.9411,0.0589	-12219.52
0.9801,0.0199	-12207.28
0.9523,0.0477	-12204.88
0.8941,0.1059	-12226.58
0.9453,0.0547	-12211.06
0.9577,0.0423	-12213.89
0.9361,0.0639	-12214.09
0.9783,0.0217	-12207.26
0.9531,0.0469	-12204.83
0.8756,0.1244	-12217.09
0.9571,0.0429	-12213.88
0.9545,0.0455	-12204.74
0.9322,0.0678	-12216.82
0.9775,0.0225	-12214.79
0.9553,0.0447	-12204.68
0.8641,0.1359	-12230.84
0.9587,0.0413	-12207.61
0.9511,0.0489	-12207.93
0.9328,0.0672	-12214.18
0.9742,0.0258	-12207.25
0.9546,0.0454	-12210.82
0.8838,0.1162	-12220.60
0.9564,0.0436	-12204.61
0.9574,0.0426	-12204.55
0.9376,0.0624	-12208.64
0.9727,0.0273	-12214.40
0.9600,0.0400	-12207.57
0.8872,0.1128	-12216.33
0.9531,0.0469	-12210.85
0.9736,0.0264	-12210.86
0.9513,0.0487	-12213.87
0.9678,0.0322	-12210.74
0.9589,0.0411	-12207.61
0.8838,0.1162	-12234.81
0.9484,0.0516	-12216.79
0.9719,0.0281	-12207.27
0.9442,0.0558	-12213.93
0.9665,0.0335	-12224.19
0.9527,0.0473	-12210.86
0.9033,0.0967	-12222.11
0.9450,0.0550	-12211.07
0.9757,0.0243	-12207.24
0.9384,0.0616	-12208.59
0.9686,0.0314	-12217.61
0.9411,0.0589	-12225.07
0.9102,0.0898	-12222.01
0.9372,0.0628	-12219.47
0.9755,0.0245	-12207.24
0.9305,0.0695	-12211.65
0.9670,0.0330	-12210.74
0.9346,0.0654	-12208.81
0.9167,0.0833	-12224.36
0.9524,0.0476	-12213.86
0.9671,0.0329	-12210.74
0.9264,0.0736	-12211.85
0.9677,0.0323	-12207.34
0.9413,0.0587	-12213.97
0.9217,0.0783	-12214.56
0.9503,0.0497	-12207.97
0.9713,0.0287	-12214.32
0.9064,0.0936	-12212.98
0.9671,0.0329	-12210.74
0.9249,0.0751	-12211.93
0.9341,0.0659	-12219.44
0.9495,0.0505	-12210.94
0.9681,0.0319	-12207.33
0.9258,0.0742	-12214.40
0.9642,0.0358	-12207.43
0.9225,0.0775	-12212.05
0.9207,0.0793	-12207.24
0.9486,0.0514	-12208.05
0.9714,0.0286	-12210.80
0.9378,0.0622	-12222.19
0.9678,0.0322	-12203.94
0.9360,0.0640	-12216.77
0.9183,0.0817	-12212.27
0.9666,0.0334	-12210.73
0.9686,0.0314	-12221.03
0.9483,0.0517	-12213.88
0.9635,0.0365	-12207.45
0.9498,0.0502	-12207.99
0.9065,0.0935	-12219.78
0.9706,0.0294	-12207.29
0.9636,0.0364	-12207.45
0.9417,0.0583	-12211.19
0.9687,0.0313	-12207.32
0.9608,0.0392	-12220.33
0.8945,0.1055	-12222.31
0.9682,0.0318	-12210.75
0.9604,0.0396	-12207.55
0.9540,0.0460	-12204.77
0.9626,0.0374	-12210.73
0.9668,0.0332	-12217.48
0.8874,0.1126	-12218.38
0.9643,0.0357	-12210.72
0.9553,0.0447	-12210.81
0.9624,0.0376	-12213.97
0.9683,0.0317	-12203.91
0.9608,0.0392	-12210.74
0.8977,0.1023	-12222.23
0.9618,0.0382	-12207.50
0.9561,0.0439	-12213.88
0.9621,0.0379	-12210.73
0.9704,0.0296	-12207.29
0.9630,0.0370	-12207.47
0.8854,0.1146	-12224.62
0.9511,0.0489	-12204.97
0.9518,0.0482	-12207.90
0.9589,0.0411	-12217.06
0.9665,0.0335	-12207.37
0.9607,0.0393	-12217.13
0.8813,0.1187	-12222.72
0.9699,0.0301	-12210.77
0.9499,0.0501	-12213.87
0.9610,0.0390	-12204.33
0.9549,0.0451	-12210.82
0.9662,0.0338	-12204.02
0.8746,0.1254	-12232.69
0.9726,0.0274	-12210.83
0.9561,0.0439	-12220.04
0.9684,0.0316	-12210.75
0.9607,0.0393	-12210.74
0.9663,0.0337	-12207.37
0.8753,0.1247	-12219.06
0.9692,0.0308	-12207.31
0.9656,0.0344	-12207.39
0.9706,0.0294	-12210.78
0.9569,0.0431	-12210.78
0.9651,0.0349	-12214.05
0.8621,0.1379	-12219.87
0.9741,0.0259	-12218.13
0.9606,0.0394	-12207.55
0.9771,0.0229	-12211.00
0.9611,0.0389	-12207.53
0.9609,0.0391	-12210.74
0.8407,0.1593	-12226.38
0.9776,0.0224	-12207.25
0.9649,0.0351	-12204.10
0.9682,0.0318	-12214.16
0.9589,0.0411	-12210.75
0.9580,0.0420	-12207.64
0.8657,0.1343	-12225.23
0.9685,0.0315	-12207.32
0.9524,0.0476	-12207.87
0.9742,0.0258	-12203.62
0.9633,0.0367	-12204.19
0.9663,0.0337	-12207.37
0.8615,0.1385	-12219.91
0.9588,0.0412	-12207.61
0.9544,0.0456	-12210.83
0.9739,0.0261	-12210.87
0.9703,0.0297	-12210.78
0.9624,0.0376	-12210.73
0.8665,0.1335	-12228.94
0.9537,0.0463	-12216.89
0.9636,0.0364	-12220.55
0.9735,0.0265	-12210.86
0.9708,0.0292	-12207.28
0.9606,0.0394	-12204.35
0.9076,0.0924	-12219.76
0.9486,0.0514	-12213.88
0.9641,0.0359	-12210.72
0.9750,0.0250	-12207.24
0.9724,0.0276	-12210.82
0.9471,0.0529	-12205.23
0.9102,0.0898	-12217.38
0.9330,0.0670	-12219.44
0.9587,0.0413	-12210.76
0.9743,0.0257	-12203.61
0.9752,0.0248	-12214.59
0.9374,0.0626	-12211.35
0.9076,0.0924	-12217.47
0.9293,0.0707	-12211.71
0.9537,0.0463	-12213.87
0.9751,0.0249	-12203.58
0.9772,0.0228	-12211.01
0.9461,0.0539	-12211.04
0.9118,0.0882	-12224.33
0.9173,0.0827	-12214.74
0.9446,0.0554	-12211.09
0.9732,0.0268	-12214.44
0.9758,0.0242	-12207.24
0.9379,0.0621	-12216.76
0.9011,0.0989	-12222.15
0.9069,0.0931	-12210.67
0.9473,0.0527	-12211.00
0.9771,0.0229	-12207.25
0.9760,0.0240	-12210.95
0.9450,0.0550	-12213.92
0.8941,0.1059	-12222.32
0.9021,0.0979	-12217.69
0.9530,0.0470	-12213.86
0.9718,0.0282	-12207.27
0.9732,0.0268	-12207.26
0.9413,0.0587	-12213.98
0.8832,0.1168	-12224.68
0.9099,0.0901	-12212.76
0.9525,0.0475	-12207.87
0.9699,0.0301	-12203.82
0.9729,0.0271	-12210.84
0.9452,0.0548	-12205.37
0.8728,0.1272	-12228.83
0.9218,0.0782	-12219.49
0.9478,0.0522	-12213.89
0.9713,0.0287	-12203.75
0.9752,0.0248	-12207.24
0.9422,0.0578	-12213.96
0.8690,0.1310	-12219.43
0.9350,0.0650	-12211.45
0.9556,0.0444	-12216.94
0.9751,0.0249	-12207.24
0.9664,0.0336	-12207.37
0.9455,0.0545	-12211.06
0.8668,0.1332	-12221.44
0.9437,0.0563	-12213.93
0.9565,0.0435	-12207.70
0.9737,0.0263	-12207.25
0.9651,0.0349	-12204.09
0.9549,0.0451	-12210.82
0.8818,0.1182	-12224.71
0.9527,0.0473	-12213.86
0.9601,0.0399	-12210.74
0.9755,0.0245	-12203.56
0.9508,0.0492	-12207.94
0.9592,0.0408	-12210.75
0.8890,0.1110	-12218.30
0.9565,0.0435	-12207.70
0.9546,0.0454	-12207.78
0.9795,0.0205	-12215.01
0.9469,0.0531	-12216.78
0.9426,0.0574	-12211.16
0.9024,0.0976	-12219.90
0.9588,0.0412	-12213.90
0.9430,0.0570	-12213.95
0.9744,0.0256	-12210.89
0.9486,0.0514	-12219.71
0.9400,0.0600	-12214.00
0.8947,0.1053	-12218.02
0.9617,0.0383	-12210.73
0.9541,0.0459	-12207.80
0.9734,0.0266	-12203.65
0.9566,0.0434	-12210.79
0.9375,0.0625	-12214.06
0.8963,0.1037	-12215.79
0.9592,0.0408	-12213.91
0.9573,0.0427	-12213.89
0.9691,0.0309	-12207.31
0.9507,0.0493	-12222.75
0.9377,0.0623	-12211.34
0.8959,0.1041	-12220.12
0.9656,0.0344	-12210.73
0.9632,0.0368	-12210.73
0.9627,0.0373	-12210.73
0.9559,0.0441	-12207.72
0.9149,0.0851	-12219.59
0.8868,0.1132	-12216.36
0.9723,0.0277	-12210.82
0.9537,0.0463	-12207.82
0.9669,0.0331	-12214.11
0.9676,0.0324	-12210.74
0.9185,0.0815	-12221.95
0.8928,0.1072	-12222.35
0.9778,0.0222	-12211.03
0.9555,0.0445	-12220.01
0.9656,0.0344	-12207.39
0.9677,0.0323	-12203.94
0.9204,0.0796	-12212.16
0.9113,0.0887	-12224.33
0.9810,0.0190	-12207.30
0.9618,0.0382	-12210.73
0.9589,0.0411	-12210.76
0.9639,0.0361	-12214.01
0.9161,0.0839	-12212.40
0.9109,0.0891	-12215.02
0.9826,0.0174	-12207.35
0.9706,0.0294	-12207.29
0.9509,0.0491	-12213.87
0.9644,0.0356	-12207.42
0.9134,0.0866	-12219.62
0.9190,0.0810	-12217.09
0.9789,0.0211	-12203.42
0.9672,0.0328	-12210.74
0.9499,0.0501	-12210.93
0.9549,0.0451	-12207.76
0.9109,0.0891	-12231.30
0.9263,0.0737	-12214.39
0.9794,0.0206	-12218.86
0.9680,0.0320	-12203.93
0.9519,0.0481	-12216.85
0.9454,0.0546	-12205.36
0.9012,0.0988	-12222.15
0.9333,0.0667	-12216.80
0.9814,0.0186	-12207.31
0.9659,0.0341	-12214.07
0.9520,0.0480	-12207.89
0.9340,0.0660	-12208.84
0.9029,0.0971	-12217.66
0.9287,0.0713	-12216.87
0.9853,0.0147	-12215.87
0.9633,0.0367	-12207.46
0.9395,0.0605	-12211.27
0.9538,0.0462	-12204.78
0.9236,0.0764	-12221.96
0.9396,0.0604	-12214.01
0.9855,0.0145	-12207.47
0.9649,0.0351	-12210.73
0.9495,0.0505	-12210.94
0.9569,0.0431	-12213.88
0.9222,0.0778	-12221.95
0.9422,0.0578	-12213.96
0.9897,0.0103	-12203.25
0.9756,0.0244	-12210.93
0.9405,0.0595	-12211.23
0.9614,0.0386	-12204.30
0.9301,0.0699	-12211.67
0.9442,0.0558	-12213.93
0.9902,0.0098	-12207.88
0.9785,0.0215	-12211.08
0.9301,0.0699	-12211.67
0.9464,0.0536	-12211.03
0.9286,0.0714	-12211.74
0.9496,0.0504	-12210.94
0.9891,0.0109	-12207.75
0.9828,0.0172	-12207.35
0.9044,0.0956	-12231.08
0.9307,0.0693	-12214.24
0.9157,0.0843	-12221.96
0.9527,0.0473	-12216.87
0.9886,0.0114	-12203.24
0.9834,0.0166	-12203.29
0.9199,0.0801	-12219.51
0.9232,0.0768	-12214.50
0.9111,0.0889	-12231.31
0.9603,0.0397	-12207.55
0.9884,0.0116	-12216.59
0.9863,0.0137	-12207.52
0.9393,0.0607	-12211.28
0.9462,0.0538	-12222.50
0.9182,0.0818	-12224.37
0.9533,0.0467	-12210.85
0.9910,0.0090	-12207.99
0.9881,0.0119	-12203.24
0.9292,0.0708	-12211.71
0.9446,0.0554	-12216.76
0.9274,0.0726	-12214.35
0.9500,0.0500	-12207.98
0.9914,0.0086	-12208.05
0.9880,0.0120	-12203.24
0.9157,0.0843	-12214.81
0.9403,0.0597	-12214.00
0.9270,0.0730	-12216.90
0.9576,0.0424	-12210.77
0.9914,0.0086	-12203.30
0.9862,0.0138	-12203.25
0.9268,0.0732	-12219.44
0.9510,0.0490	-12213.87
0.9355,0.0645	-12211.43
0.9506,0.0494	-12210.91
0.9913,0.0087	-12203.29
0.9862,0.0138	-12203.25
0.9176,0.0824	-12214.73
0.9230,0.0770	-12214.51
0.9548,0.0452	-12210.82
0.9577,0.0423	-12210.77
0.9915,0.0085	-12203.30
0.9901,0.0099	-12203.26
0.9175,0.0825	-12219.55
0.9224,0.0776	-12207.11
0.9579,0.0421	-12210.77
0.9623,0.0377	-12210.73
0.9914,0.0086	-12203.30
0.9916,0.0084	-12212.85
0.9117,0.0883	-12219.66
0.9281,0.0719	-12219.44
0.9574,0.0426	-12213.89
0.9616,0.0384	-12217.17
0.9887,0.0113	-12212.20
0.9933,0.0067	-12213.40
0.9334,0.0666	-12208.88
0.9418,0.0582	-12211.18
0.9687,0.0313	-12214.18
0.9610,0.0390	-12204.33
0.9901,0.0099	-12203.26
0.9931,0.0069	-12203.38
0.9481,0.0519	-12213.88
0.9404,0.0596	-12213.99
0.9674,0.0326	-12203.96
0.9533,0.0467	-12207.83
0.9887,0.0113	-12212.19
0.9941,0.0059	-12208.58
0.9589,0.0411	-12223.36
0.9358,0.0642	-12206.06
0.9619,0.0381	-12213.96
0.9581,0.0419	-12207.64
0.9890,0.0110	-12203.25
0.9938,0.0062	-12208.51
0.9535,0.0465	-12207.82
0.9342,0.0658	-12211.49
0.9520,0.0480	-12207.89
0.9572,0.0428	-12223.21
0.9891,0.0109	-12212.25
0.9928,0.0072	-12203.36
0.9380,0.0620	-12211.33
0.9091,0.0909	-12217.42
0.9600,0.0400	-12204.39
0.9418,0.0582	-12211.18
0.9876,0.0124	-12203.24
0.9899,0.0101	-12207.85
0.9329,0.0671	-12216.81
0.8854,0.1146	-12216.44
0.9607,0.0393	-12210.74
0.9334,0.0666	-12214.16
0.9889,0.0111	-12203.24
0.9900,0.0100	-12207.86
0.9394,0.0606	-12224.98
0.8765,0.1235	-12222.90
0.9543,0.0457	-12210.83
0.9277,0.0723	-12209.23
0.9890,0.0110	-12207.74
0.9900,0.0100	-12203.26
0.9241,0.0759	-12209.47
0.8620,0.1380	-12223.55
0.9582,0.0418	-12204.50
0.9427,0.0573	-12213.95
0.9875,0.0125	-12203.24
0.9915,0.0085	-12203.30
0.9393,0.0607	-12216.75
0.8523,0.1477	-12224.05
0.9633,0.0367	-12210.73
0.9325,0.0675	-12216.81
0.9888,0.0112	-12203.24
0.9888,0.0112	-12207.72
0.9232,0.0768	-12221.96
0.8670,0.1330	-12223.31
0.9690,0.0310	-12214.20
0.9314,0.0686	-12222.04
0.9889,0.0111	-12207.73
0.9839,0.0161	-12207.40
0.9372,0.0628	-12222.17
0.8814,0.1186	-12224.72
0.9708,0.0292	-12207.28
0.9257,0.0743	-12211.88
0.9896,0.0104	-12207.81
0.9837,0.0163	-12203.29
0.9329,0.0671	-12214.18
0.8875,0.1125	-12216.31
0.9736,0.0264	-12203.64
0.9405,0.0595	-12211.23
0.9903,0.0097	-12203.27
0.9832,0.0168	-12203.30
0.9345,0.0655	-12224.76
0.8934,0.1066	-12215.96
0.9693,0.0307	-12210.76
0.9499,0.0501	-12213.87
0.9900,0.0100	-12212.45
0.9813,0.0187	-12207.31
0.9484,0.0516	-12208.06
0.9063,0.0937	-12212.98
0.9730,0.0270	-12203.67
0.9572,0.0428	-12207.67
0.9903,0.0097	-12207.89
0.9700,0.0300	-12214.25
0.9366,0.0634	-12216.77
0.9081,0.0919	-12212.87
0.9708,0.0292	-12210.79
0.9583,0.0417	-12210.76
0.9909,0.0091	-12207.96
0.9736,0.0264	-12203.64
0.9430,0.0570	-12213.95
0.9134,0.0866	-12219.62
0.9685,0.0315	-12210.75
0.9550,0.0450	-12213.87
0.9885,0.0115	-12207.70
0.9700,0.0300	-12207.30
0.9438,0.0562	-12216.75
0.9292,0.0708	-12222.01
0.9704,0.0296	-12207.29
0.9447,0.0553	-12208.25
0.9850,0.0150	-12207.44
0.9685,0.0315	-12207.32
0.9559,0.0441	-12213.87
0.9149,0.0851	-12219.59
0.9668,0.0332	-12207.36
0.9271,0.0729	-12221.99
0.9803,0.0197	-12203.38
0.9727,0.0273	-12225.13
0.9544,0.0456	-12204.74
0.9277,0.0723	-12211.79
0.9728,0.0272	-12210.84
0.9381,0.0619	-12214.04
0.9725,0.0275	-12203.70
0.9672,0.0328	-12217.51
0.9546,0.0454	-12207.78
0.9262,0.0738	-12214.39
0.9737,0.0263	-12203.64
0.9410,0.0590	-12208.44
0.9756,0.0244	-12210.93
0.9672,0.0328	-12207.35
0.9517,0.0483	-12207.90
0.9178,0.0822	-12217.13
0.9739,0.0261	-12207.25
0.9298,0.0702	-12216.85
0.9699,0.0301	-12210.77
0.9593,0.0407	-12204.43
0.9487,0.0513	-12213.88
0.8849,0.1151	-12216.48
0.9778,0.0222	-12207.25
0.9325,0.0675	-12214.19
0.9670,0.0330	-12203.98
0.9487,0.0513	-12216.80
0.9410,0.0590	-12216.75
0.8776,0.1224	-12224.83
0.9729,0.0271	-12207.26
0.9409,0.0591	-12213.98
0.9679,0.0321	-12203.93
0.9373,0.0627	-12216.76
0.9398,0.0602	-12211.26
0.8848,0.1152	-12220.56
0.9697,0.0303	-12203.83
0.9453,0.0547	-12205.36
0.9731,0.0269	-12207.26
0.9399,0.0601	-12211.25
0.9438,0.0562	-12213.93
0.8690,0.1310	-12221.33
0.9708,0.0292	-12214.29
0.9443,0.0557	-12222.42
0.9683,0.0317	-12207.33
0.9370,0.0630	-12224.87
0.9412,0.0588	-12211.20
0.8566,0.1434	-12225.60
0.9745,0.0255	-12210.89
0.9451,0.0549	-12211.07
0.9773,0.0227	-12207.25
0.9341,0.0659	-12222.10
0.9410,0.0590	-12208.44
0.8828,0.1172	-12222.67
0.9750,0.0250	-12203.58
0.9403,0.0597	-12208.48
0.9742,0.0258	-12207.25
0.9532,0.0468	-12210.85
0.9378,0.0622	-12214.05
0.8975,0.1025	-12222.23
0.9745,0.0255	-12210.89
0.9369,0.0631	-12216.77
0.9693,0.0307	-12207.31
0.9471,0.0529	-12208.12
0.9317,0.0683	-12222.05
0.8808,0.1192	-12230.74
0.9717,0.0283	-12207.27
0.9517,0.0483	-12216.85
0.9702,0.0298	-12214.26
0.9547,0.0453	-12216.92
0.9186,0.0814	-12221.95
0.8714,0.1286	-12225.03
0.9676,0.0324	-12207.34
0.9618,0.0382	-12207.50
0.9751,0.0249	-12207.24
0.9643,0.0357	-12210.72
0.9269,0.0731	-12216.90
0.8640,0.1360	-12227.15
0.9560,0.0440	-12220.03
0.9617,0.0383	-12210.73
0.9709,0.0291	-12210.79
0.9643,0.0357	-12207.43
0.9426,0.0574	-12216.75
0.8860,0.1140	-12226.66
0.9387,0.0613	-12211.30
0.9654,0.0346	-12214.05
0.9672,0.0328	-12203.97
0.9686,0.0314	-12207.32
0.9371,0.0629	-12211.36
0.9034,0.0966	-12226.58
0.9389,0.0611	-12216.76
0.9658,0.0342	-12207.39
0.9670,0.0330	-12207.36
0.9722,0.0278	-12207.27
0.9332,0.0668	-12216.80
0.8890,0.1110	-12216.22
0.9351,0.0649	-12208.78
0.9627,0.0373	-12207.48
0.9680,0.0320	-12207.33
0.9735,0.0265	-12207.25
0.9361,0.0639	-12222.14
0.8923,0.1077	-12226.59
0.9329,0.0671	-12214.17
0.9682,0.0318	-12203.91
0.9696,0.0304	-12214.23
0.9658,0.0342	-12207.39
0.9388,0.0612	-12208.57
0.8890,0.1110	-12228.70
0.9186,0.0814	-12217.11
0.9622,0.0378	-12213.96
0.9671,0.0329	-12210.74
0.9734,0.0266	-12210.85
0.9361,0.0639	-12219.46
0.9011,0.0989	-12226.57
0.9091,0.0909	-12215.11
0.9487,0.0513	-12210.96
0.9644,0.0356	-12210.72
0.9721,0.0279	-12217.92
0.9372,0.0628	-12208.66
0.9079,0.0921	-12217.46
0.8924,0.1076	-12226.59
0.9283,0.0717	-12216.88
0.9704,0.0296	-12210.78
0.9663,0.0337	-12204.02
0.9278,0.0722	-12216.89
0.9069,0.0931	-12212.95
0.8718,0.1282	-12223.10
0.8990,0.1010	-12220.01
0.9667,0.0333	-12207.36
0.9629,0.0371	-12204.21
0.9241,0.0759	-12221.96
0.9255,0.0745	-12219.45
0.8543,0.1457	-12220.41
0.8912,0.1088	-12224.50
0.9668,0.0332	-12207.36
0.9642,0.0358	-12214.02
0.9162,0.0838	-12224.35
0.9145,0.0855	-12221.97
0.8873,0.1127	-12218.39
0.9024,0.0976	-12226.58
0.9624,0.0376	-12217.21
0.9609,0.0391	-12207.54
0.9192,0.0808	-12214.66
0.8996,0.1004	-12219.99
0.8814,0.1186	-12224.72
0.8878,0.1122	-12218.36
0.9662,0.0338	-12204.02
0.9597,0.0403	-12217.09
0.9151,0.0849	-12217.21
0.9083,0.0917	-12217.44
0.8958,0.1042	-12222.27
0.8851,0.1149	-12220.55
0.9667,0.0333	-12210.73
0.9693,0.0307	-12207.31
0.8925,0.1075	-12222.36
0.8755,0.1245	-12220.99
0.9077,0.0923	-12222.04
0.8876,0.1124	-12222.51
0.9500,0.0500	-12213.87
0.9724,0.0276	-12207.26
0.8828,0.1172	-12216.61
0.8979,0.1021	-12217.88
0.9051,0.0949	-12226.59
0.9013,0.0987	-12222.15
0.9538,0.0462	-12213.87
0.9725,0.0275	-12207.26
0.8949,0.1051	-12222.30
0.9159,0.0841	-12212.41
0.8982,0.1018	-12222.21
0.9042,0.0958	-12226.58
0.9572,0.0428	-12213.89
0.9729,0.0271	-12214.42
0.8904,0.1096	-12220.32
0.9221,0.0779	-12221.95
0.8713,0.1287	-12223.12
0.9337,0.0663	-12206.21
0.9600,0.0400	-12207.57
0.9646,0.0354	-12210.72
0.8968,0.1032	-12213.60
0.9225,0.0775	-12217.00
0.8863,0.1137	-12220.50
0.9442,0.0558	-12213.93
0.9503,0.0497	-12205.02
0.9613,0.0387	-12213.95
0.8931,0.1069	-12218.10
0.9099,0.0901	-12217.39
0.8730,0.1270	-12226.90
0.9342,0.0658	-12216.79
0.9566,0.0434	-12210.79
0.9566,0.0434	-12216.97
0.9110,0.0890	-12212.70
0.9277,0.0723	-12211.78
0.8682,0.1318	-12221.37
0.9415,0.0585	-12216.75
0.9446,0.0554	-12208.25
0.9645,0.0355	-12204.12
0.9078,0.0922	-12215.18
0.9342,0.0658	-12208.83
0.8880,0.1120	-12214.21
0.9303,0.0697	-12211.66
0.9424,0.0576	-12213.96
0.9565,0.0435	-12216.97
0.9348,0.0652	-12216.79
0.9439,0.0561	-12213.93
0.8838,0.1162	-12222.63
0.9330,0.0670	-12216.80
0.9464,0.0536	-12211.03
0.9589,0.0411	-12210.75
0.9406,0.0594	-12219.51
0.9385,0.0615	-12211.31
0.8796,0.1204	-12224.77
0.9324,0.0676	-12208.94
0.9575,0.0425	-12210.77
0.9607,0.0393	-12210.74
0.9477,0.0523	-12213.89
0.9326,0.0674	-12211.55
0.8873,0.1127	-12230.77
0.9268,0.0732	-12216.91
0.9541,0.0459	-12207.80
0.9555,0.0445	-12220.01
0.9324,0.0676	-12211.57
0.9111,0.0889	-12217.34
0.8965,0.1035	-12224.41
0.9353,0.0647	-12206.10
0.9490,0.0510	-12205.11
0.9682,0.0318	-12210.75
0.9443,0.0557	-12216.76
0.9058,0.0942	-12213.01
0.8799,0.1201	-12216.80
0.9383,0.0617	-12205.87
0.9563,0.0437	-12216.96
0.9668,0.0332	-12210.73
0.9433,0.0567	-12219.57
0.9134,0.0866	-12219.62
0.8846,0.1154	-12222.60
0.9379,0.0621	-12208.61
0.9615,0.0385	-12210.73
0.9702,0.0298	-12203.81
0.9541,0.0459	-12210.83
0.9166,0.0834	-12219.56
0.8912,0.1088	-12228.71
0.9391,0.0609	-12216.76
0.9701,0.0299	-12207.29
0.9743,0.0257	-12207.25
0.9412,0.0588	-12208.43
0.9255,0.0745	-12209.37
0.9109,0.0891	-12215.03
0.9395,0.0605	-12211.27
0.9668,0.0332	-12207.36
0.9752,0.0248	-12207.24
0.9212,0.0788	-12217.03
0.9160,0.0840	-12214.79
0.9241,0.0759	-12214.47
0.9519,0.0481	-12204.91
0.9665,0.0335	-12204.01
0.9735,0.0265	-12203.65
0.9271,0.0729	-12214.36
0.9083,0.0917	-12217.44
0.9071,0.0929	-12210.65
0.9474,0.0526	-12208.11
0.9603,0.0397	-12217.11
0.9731,0.0269	-12214.43
0.9188,0.0812	-12219.53
0.9218,0.0782	-12219.49
0.9153,0.0847	-12221.96
0.9537,0.0463	-12207.81
0.9526,0.0474	-12213.86
0.9678,0.0322	-12220.95
0.9150,0.0850	-12214.84
0.9416,0.0584	-12222.31
0.9166,0.0834	-12221.96
0.9599,0.0401	-12213.92
0.9533,0.0467	-12210.85
0.9678,0.0322	-12207.34
0.9049,0.0951	-12215.32
0.9425,0.0575	-12222.34
0.9264,0.0736	-12211.85
0.9544,0.0456	-12210.83
0.9579,0.0421	-12213.89
0.9678,0.0322	-12214.15
0.9108,0.0892	-12217.35
0.9455,0.0545	-12211.06
0.8965,0.1035	-12220.10
0.9583,0.0417	-12210.76
0.9488,0.0512	-12219.72
0.9708,0.0292	-12203.78
0.9190,0.0810	-12224.38
0.9550,0.0450	-12210.81
0.8987,0.1013	-12226.57
0.9534,0.0466	-12207.83
0.9589,0.0411	-12220.20
0.9758,0.0242	-12203.55
0.9104,0.0896	-12217.37
0.9565,0.0435	-12204.61
0.9060,0.0940	-12217.53
0.9523,0.0477	-12207.88
0.9694,0.0306	-12214.22
0.9742,0.0258	-12214.51
0.9106,0.0894	-12215.04
0.9664,0.0336	-12217.45
0.8910,0.1090	-12226.60
0.9565,0.0435	-12213.88
0.9712,0.0288	-12210.80
0.9783,0.0217	-12211.06
0.8979,0.1021	-12230.92
0.9593,0.0407	-12207.59
0.9070,0.0930	-12217.49
0.9627,0.0373	-12204.22
0.9720,0.0280	-12214.36
0.9797,0.0203	-12203.40
0.9072,0.0928	-12222.05
0.9661,0.0339	-12207.38
0.9142,0.0858	-12217.24
0.9689,0.0311	-12207.32
0.9708,0.0292	-12207.28
0.9784,0.0216	-12203.44
0.9213,0.0787	-12212.11
0.9682,0.0318	-12203.91
0.9339,0.0661	-12211.50
0.9689,0.0311	-12214.20
0.9646,0.0354	-12214.03
0.9818,0.0182	-12203.33
0.9246,0.0754	-12219.46
0.9613,0.0387	-12213.95
0.9304,0.0696	-12214.25
0.9598,0.0402	-12210.75
0.9669,0.0331	-12214.11
0.9799,0.0201	-12211.16
0.9285,0.0715	-12206.62
0.9632,0.0368	-12210.73
0.9438,0.0562	-12222.40
0.9598,0.0402	-12210.75
0.9726,0.0274	-12207.26
0.9818,0.0182	-12207.32
0.9170,0.0830	-12217.15
0.9525,0.0475	-12213.86
0.9550,0.0450	-12213.87
0.9668,0.0332	-12210.73
0.9693,0.0307	-12210.76
0.9848,0.0152	-12207.44
0.9359,0.0641	-12216.77
0.9492,0.0508	-12208.02
0.9668,0.0332	-12207.36
0.9623,0.0377	-12207.49
0.9627,0.0373	-12210.73
0.9874,0.0126	-12216.32
0.9233,0.0767	-12216.98
0.9467,0.0533	-12222.53
0.9731,0.0269	-12203.67
0.9651,0.0349	-12207.41
0.9694,0.0306	-12203.85
0.9892,0.0108	-12203.25
0.9250,0.0750	-12224.48
0.9519,0.0481	-12219.84
0.9736,0.0264	-12207.25
0.9637,0.0363	-12204.17
0.9706,0.0294	-12207.29
0.9888,0.0112	-12203.24
0.9198,0.0802	-12214.63
0.9469,0.0531	-12213.89
0.9750,0.0250	-12207.24
0.9670,0.0330	-12207.36
0.9739,0.0261	-12207.25
0.9895,0.0105	-12216.89
0.9279,0.0721	-12221.99
0.9454,0.0546	-12211.06
0.9756,0.0244	-12214.62
0.9604,0.0396	-12220.30
0.9701,0.0299	-12203.81
0.9889,0.0111	-12212.22
0.9269,0.0731	-12209.29
0.9523,0.0477	-12213.86
0.9764,0.0236	-12203.52
0.9642,0.0358	-12204.14
0.9741,0.0259	-12210.88
0.9865,0.0135	-12207.53
0.9371,0.0629	-12208.66
0.9438,0.0562	-12216.75
0.9822,0.0178	-12207.33
0.9676,0.0324	-12203.95
0.9728,0.0272	-12214.41
0.9882,0.0118	-12203.24
0.9316,0.0684	-12211.60
0.9354,0.0646	-12211.43
0.9821,0.0179	-12203.32
0.9616,0.0384	-12210.73
0.9703,0.0297	-12203.81
0.9884,0.0116	-12203.24
0.9337,0.0663	-12219.44
0.9304,0.0696	-12211.66
0.9765,0.0235	-12203.52
0.9619,0.0381	-12210.73
0.9689,0.0311	-12210.75
0.9903,0.0097	-12207.89
0.9309,0.0691	-12214.23
0.9061,0.0939	-12219.80
0.9762,0.0238	-12203.53
0.9635,0.0365	-12210.72
0.9705,0.0295	-12207.29
0.9885,0.0115	-12203.24
0.9400,0.0600	-12214.00
0.9182,0.0818	-12217.12
0.9752,0.0248	-12214.59
0.9712,0.0288	-12214.31
0.9687,0.0313	-12203.89
0.9881,0.0119	-12203.24
0.9443,0.0557	-12211.10
0.9205,0.0795	-12214.60
0.9787,0.0213	-12207.26
0.9703,0.0297	-12203.80
0.9668,0.0332	-12210.73
0.9868,0.0132	-12203.24
0.9490,0.0510	-12205.10
0.9264,0.0736	-12214.38
0.9760,0.0240	-12207.24
0.9756,0.0244	-12207.24
0.9610,0.0390	-12213.94
0.9892,0.0108	-12212.28
0.9487,0.0513	-12208.05
0.9164,0.0836	-12217.17
0.9711,0.0289	-12203.77
0.9703,0.0297	-12210.78
0.9593,0.0407	-12207.59
0.9861,0.0139	-12207.51
0.9308,0.0692	-12209.04
0.9348,0.0652	-12227.44
0.9751,0.0249	-12214.58
0.9678,0.0322	-12203.94
0.9593,0.0407	-12210.75
0.9819,0.0181	-12211.31
0.9371,0.0629	-12216.77
0.9473,0.0527	-12208.11
0.9767,0.0233	-12214.72
0.9646,0.0354	-12204.12
0.9592,0.0408	-12207.60
0.9846,0.0154	-12203.27
0.9431,0.0569	-12211.14
0.9464,0.0536	-12213.90
0.9749,0.0251	-12203.58
0.9704,0.0296	-12203.80
0.9534,0.0466	-12204.81
0.9825,0.0175	-12203.31
0.9378,0.0622	-12214.05
0.9350,0.0650	-12214.12
0.9674,0.0326	-12207.35
0.9688,0.0312	-12214.19
0.9562,0.0438	-12204.63
0.9820,0.0180	-12207.33
0.9474,0.0526	-12216.78
0.9312,0.0688	-12214.22
0.9638,0.0362	-12214.01
0.9730,0.0270	-12203.67
0.9560,0.0440	-12207.72
0.9854,0.0146	-12207.47
0.9469,0.0531	-12211.01
0.9271,0.0729	-12216.90
0.9641,0.0359	-12214.02
0.9686,0.0314	-12210.75
0.9712,0.0288	-12210.80
0.9864,0.0136	-12207.53
0.9529,0.0471	-12210.86
0.9216,0.0784	-12219.49
0.9704,0.0296	-12207.29
0.9561,0.0439	-12207.71
0.9762,0.0238	-12207.24
0.9846,0.0154	-12207.43
0.9379,0.0621	-12208.61
0.9390,0.0610	-12208.56
0.9701,0.0299	-12214.26
0.9619,0.0381	-12204.27
0.9763,0.0237	-12207.24
0.9810,0.0190	-12207.30
0.9381,0.0619	-12211.32
0.9450,0.0550	-12208.23
0.9713,0.0287	-12214.32
0.9607,0.0393	-12210.74
0.9793,0.0207	-12203.41
0.9796,0.0204	-12207.27
0.9394,0.0606	-12216.75
0.9484,0.0516	-12208.06
0.9694,0.0306	-12207.31
0.9678,0.0322	-12203.94
0.9799,0.0201	-12203.39
0.9701,0.0299	-12207.30
0.9379,0.0621	-12211.33
0.9500,0.0500	-12219.76
0.9670,0.0330	-12210.74
0.9642,0.0358	-12207.43
0.9772,0.0228	-12211.01
0.9660,0.0340	-12214.08
0.9453,0.0547	-12211.06
0.9563,0.0437	-12207.71
0.9689,0.0311	-12203.88
0.9600,0.0400	-12213.92
0.9819,0.0181	-12203.33
0.9682,0.0318	-12207.33
0.9472,0.0528	-12211.01
0.9601,0.0399	-12217.10
0.9658,0.0342	-12204.05
0.9535,0.0465	-12213.86
0.9807,0.0193	-12203.37
0.9707,0.0293	-12203.79
0.9442,0.0558	-12211.10
0.9697,0.0303	-12207.30
0.9720,0.0280	-12203.72
0.9641,0.0359	-12204.14
0.9778,0.0222	-12211.04
0.9702,0.0298	-12221.22
0.9536,0.0464	-12219.91
0.9649,0.0351	-12207.41
0.9680,0.0320	-12207.34
0.9743,0.0257	-12210.88
0.9745,0.0255	-12207.25
0.9710,0.0290	-12207.28
0.9535,0.0465	-12210.84
0.9600,0.0400	-12217.10
0.9736,0.0264	-12210.86
0.9744,0.0256	-12210.89
0.9657,0.0343	-12204.05
0.9702,0.0298	-12214.26
0.9549,0.0451	-12210.82
0.9562,0.0438	-12210.79
0.9771,0.0229	-12207.25
0.9743,0.0257	-12203.61
0.9596,0.0404	-12204.41
0.9682,0.0318	-12203.91
0.9589,0.0411	-12207.61
0.9426,0.0574	-12213.95
0.9737,0.0263	-12203.64
0.9731,0.0269	-12207.26
0.9619,0.0381	-12210.73
0.9633,0.0367	-12210.73
0.9595,0.0405	-12207.58
0.9483,0.0517	-12216.79
0.9738,0.0262	-12214.48
0.9726,0.0274	-12210.83
0.9574,0.0426	-12210.77
0.9643,0.0357	-12207.43
0.9624,0.0376	-12210.73
0.9510,0.0490	-12213.87
0.9781,0.0219	-12207.25
0.9738,0.0262	-12210.87
0.9411,0.0589	-12225.07
0.9676,0.0324	-12203.95
0.9680,0.0320	-12203.93
0.9543,0.0457	-12207.79
0.9796,0.0204	-12203.40
0.9727,0.0273	-12203.69
0.9353,0.0647	-12211.44
0.9637,0.0363	-12207.45
0.9613,0.0387	-12210.73
0.9539,0.0461	-12207.80
0.9799,0.0201	-12203.39
0.9719,0.0281	-12203.72
0.9379,0.0621	-12214.05
0.9557,0.0443	-12210.80
0.9561,0.0439	-12204.63
0.9493,0.0507	-12208.01
0.9811,0.0189	-12203.35
0.9693,0.0307	-12207.31
0.9257,0.0743	-12206.84
0.9689,0.0311	-12214.19
0.9549,0.0451	-12207.76
0.9535,0.0465	-12207.82
0.9826,0.0174	-12207.34
0.9744,0.0256	-12207.25
0.9347,0.0653	-12206.14
0.9689,0.0311	-12217.63
0.9398,0.0602	-12216.75
0.9514,0.0486	-12210.89
0.9842,0.0158	-12211.55
0.9735,0.0265	-12207.25
0.9376,0.0624	-12208.64
0.9634,0.0366	-12210.72
0.9446,0.0554	-12208.25
0.9491,0.0509	-12222.65
0.9836,0.0164	-12207.38
0.9716,0.0284	-12217.87
0.9363,0.0637	-12208.71
0.9614,0.0386	-12210.73
0.9258,0.0742	-12221.97
0.9506,0.0494	-12225.70
0.9829,0.0171	-12203.31
0.9750,0.0250	-12207.25
0.9304,0.0696	-12216.84
0.9660,0.0340	-12210.73
0.9384,0.0616	-12208.59
0.9407,0.0593	-12208.46
0.9791,0.0209	-12211.11
0.9751,0.0249	-12203.58
0.9450,0.0550	-12222.45
0.9713,0.0287	-12207.28
0.9432,0.0568	-12208.32
0.9454,0.0546	-12219.61
0.9777,0.0223	-12211.03
0.9706,0.0294	-12203.79
0.9437,0.0563	-12216.75
0.9747,0.0253	-12207.25
0.9554,0.0446	-12207.74
0.9557,0.0443	-12207.73
0.9778,0.0222	-12211.04
0.9690,0.0310	-12210.76
0.9293,0.0707	-12224.59
0.9719,0.0281	-12207.27
0.9525,0.0475	-12207.87
0.9495,0.0505	-12208.00
0.9796,0.0204	-12207.27
0.9608,0.0392	-12217.13
0.9416,0.0584	-12222.31
0.9721,0.0279	-12210.82
0.9551,0.0449	-12216.93
0.9519,0.0481	-12225.80
0.9847,0.0153	-12211.60
0.9533,0.0467	-12216.88
0.9433,0.0567	-12213.94
0.9707,0.0293	-12207.29
0.9503,0.0497	-12213.87
0.9473,0.0527	-12216.78
0.9856,0.0144	-12207.48
0.9595,0.0405	-12204.42
0.9544,0.0456	-12213.87
0.9705,0.0295	-12214.27
0.9476,0.0524	-12210.99
0.9448,0.0552	-12208.24
0.9821,0.0179	-12203.32
0.9511,0.0489	-12213.87
0.9521,0.0479	-12216.85
0.9640,0.0360	-12214.01
0.9458,0.0542	-12219.62
0.9527,0.0473	-12207.86
0.9862,0.0138	-12203.25
0.9336,0.0664	-12214.16
0.9432,0.0568	-12216.75
0.9608,0.0392	-12204.34
0.9411,0.0589	-12213.98
0.9500,0.0500	-12210.93
0.9869,0.0131	-12203.24
0.9521,0.0479	-12213.86
0.9299,0.0701	-12214.26
0.9583,0.0417	-12210.76
0.9424,0.0576	-12225.13
0.9631,0.0369	-12210.73
0.9909,0.0091	-12203.28
0.9488,0.0512	-12208.04
0.9368,0.0632	-12205.98
0.9709,0.0291	-12203.77
0.9377,0.0623	-12216.76
0.9660,0.0340	-12207.38
0.9927,0.0073	-12203.36
0.9458,0.0542	-12211.05
0.9472,0.0528	-12216.78
0.9693,0.0307	-12207.31
0.9492,0.0508	-12213.88
0.9589,0.0411	-12204.46
0.9900,0.0100	-12207.85
0.9500,0.0500	-12207.98
0.9500,0.0500	-12216.82
0.9726,0.0274	-12210.83
0.9407,0.0593	-12216.75
0.9612,0.0388	-12207.52
0.9908,0.0092	-12203.28
0.9456,0.0544	-12216.76
0.9516,0.0484	-12213.87
0.9713,0.0287	-12207.28
0.9395,0.0605	-12205.78
0.9561,0.0439	-12213.88
0.9915,0.0085	-12203.30
0.9460,0.0540	-12213.90
0.9570,0.0430	-12210.78
0.9707,0.0293	-12210.78
0.9354,0.0646	-12216.78
0.9439,0.0561	-12216.76
0.9921,0.0079	-12208.17
0.9447,0.0553	-12208.25
0.9572,0.0428	-12207.67
0.9715,0.0285	-12214.33
0.9347,0.0653	-12224.77
0.9351,0.0649	-12208.78
0.9920,0.0080	-12203.32
0.9413,0.0587	-12216.75
0.9529,0.0471	-12216.87
0.9711,0.0289	-12217.83
0.9271,0.0729	-12214.36
0.9175,0.0825	-12209.91
0.9918,0.0082	-12208.11
0.9614,0.0386	-12217.17
0.9610,0.0390	-12210.74
0.9711,0.0289	-12203.77
0.9050,0.0950	-12215.32
0.9260,0.0740	-12211.87
0.9923,0.0077	-12208.20
0.9671,0.0329	-12203.97
0.9594,0.0406	-12217.07
0.9663,0.0337	-12217.44
0.9084,0.0916	-12224.32
0.9135,0.0865	-12224.33
0.9919,0.0081	-12203.31
0.9713,0.0287	-12210.80
0.9636,0.0364	-12210.72
0.9625,0.0375	-12210.73
0.9188,0.0812	-12212.25
0.9327,0.0673	-12219.44
0.9921,0.0079	-12203.33
0.9700,0.0300	-12203.82
0.9666,0.0334	-12214.10
0.9592,0.0408	-12210.75
0.9344,0.0656	-12214.13
0.9341,0.0659	-12219.44
0.9909,0.0091	-12203.28
0.9724,0.0276	-12207.26
0.9574,0.0426	-12213.89
0.9469,0.0531	-12213.89
0.9450,0.0550	-12213.92
0.9467,0.0533	-12225.40
0.9911,0.0089	-12203.28
0.9714,0.0286	-12214.32
0.9558,0.0442	-12207.73
0.9378,0.0622	-12216.76
0.9258,0.0742	-12216.93
0.9513,0.0487	-12207.92
0.9908,0.0092	-12203.28
0.9720,0.0280	-12207.27
0.9579,0.0421	-12213.89
0.9436,0.0564	-12211.12
0.9345,0.0655	-12219.45
0.9435,0.0565	-12208.31
0.9914,0.0086	-12203.30
0.9670,0.0330	-12220.87
0.9570,0.0430	-12213.88
0.9391,0.0609	-12216.75
0.9378,0.0622	-12211.33
0.9348,0.0652	-12222.11
0.9924,0.0076	-12203.34
0.9622,0.0378	-12210.73
0.9507,0.0493	-12213.87
0.9395,0.0605	-12211.27
0.9397,0.0603	-12208.52
0.9373,0.0627	-12214.06
0.9906,0.0094	-12203.27
0.9378,0.0622	-12216.76
0.9425,0.0575	-12213.95
0.9326,0.0674	-12216.81
0.9423,0.0577	-12211.17
0.9544,0.0456	-12207.78
0.9906,0.0094	-12203.27
0.9296,0.0704	-12227.18
0.9380,0.0620	-12208.61
0.9289,0.0711	-12222.01
0.9485,0.0515	-12208.06
0.9474,0.0526	-12211.00
0.9912,0.0088	-12203.29
0.9194,0.0806	-12217.08
0.9296,0.0704	-12216.86
0.9209,0.0791	-12212.13
0.9482,0.0518	-12219.70
0.9573,0.0427	-12210.78
0.9896,0.0104	-12203.25
0.9203,0.0797	-12219.50
0.9320,0.0680	-12216.82
0.9097,0.0903	-12215.08
0.9551,0.0449	-12216.93
0.9579,0.0421	-12220.14
0.9907,0.0093	-12207.94
0.8937,0.1063	-12224.46
0.9350,0.0650	-12216.78
0.9178,0.0822	-12217.13
0.9600,0.0400	-12210.74
0.9676,0.0324	-12210.74
0.9901,0.0099	-12207.86
0.8729,0.1271	-12224.98
0.9334,0.0666	-12219.44
0.9118,0.0882	-12212.65
0.9576,0.0424	-12210.77
0.9722,0.0278	-12210.82
0.9889,0.0111	-12203.24
0.8793,0.1207	-12226.77
0.9344,0.0656	-12211.48
0.9008,0.0992	-12215.54
0.9375,0.0625	-12216.76
0.9775,0.0225	-12211.02
0.9881,0.0119	-12212.07
0.8568,0.1432	-12225.59
0.9396,0.0604	-12219.50
0.9293,0.0707	-12211.71
0.9502,0.0498	-12207.97
0.9722,0.0278	-12203.71
0.9850,0.0150	-12203.26
0.8522,0.1478	-12232.81
0.9406,0.0594	-12213.99
0.9322,0.0678	-12222.06
0.9554,0.0446	-12210.81
0.9715,0.0285	-12210.80
0.9855,0.0145	-12207.48
0.8586,0.1414	-12223.71
0.9538,0.0462	-12216.89
0.9309,0.0691	-12209.03
0.9577,0.0423	-12207.65
0.9714,0.0286	-12207.28
0.9868,0.0132	-12207.56
0.8785,0.1215	-12220.85
0.9572,0.0428	-12210.78
0.9328,0.0672	-12211.55
0.9632,0.0368	-12207.46
0.9686,0.0314	-12210.75
0.9863,0.0137	-12207.52
0.8629,0.1371	-12229.02
0.9480,0.0520	-12210.98
0.9298,0.0702	-12214.27
0.9592,0.0408	-12207.59
0.9597,0.0403	-12210.75
0.9836,0.0164	-12203.29
0.8488,0.1512	-12222.51
0.9523,0.0477	-12204.88
0.9147,0.0853	-12212.48
0.9610,0.0390	-12207.53
0.9632,0.0368	-12210.73
0.9841,0.0159	-12207.40
0.8567,0.1433	-12229.18
0.9508,0.0492	-12213.87
0.9237,0.0763	-12216.97
0.9561,0.0439	-12213.88
0.9640,0.0360	-12207.44
0.9843,0.0157	-12203.27
0.8693,0.1307	-12221.31
0.9614,0.0386	-12213.95
0.9269,0.0731	-12214.36
0.9516,0.0484	-12207.91
0.9745,0.0255	-12214.53
0.9806,0.0194	-12203.37
0.8595,0.1405	-12223.67
0.9664,0.0336	-12207.37
0.9267,0.0733	-12211.83
0.9406,0.0594	-12211.23
0.9724,0.0276	-12207.26
0.9831,0.0169	-12203.30
0.8448,0.1552	-12238.03
0.9712,0.0288	-12203.76
0.9296,0.0704	-12209.12
0.9396,0.0604	-12219.50
0.9740,0.0260	-12203.62
0.9840,0.0160	-12211.52
0.8534,0.1466	-12227.51
0.9669,0.0331	-12210.73
0.9264,0.0736	-12211.85
0.9403,0.0597	-12213.99
0.9727,0.0273	-12207.26
0.9861,0.0139	-12207.51
0.8759,0.1241	-12234.65
0.9637,0.0363	-12210.72
0.9371,0.0629	-12208.66
0.9423,0.0577	-12222.34
0.9683,0.0317	-12210.75
0.9872,0.0128	-12203.24
0.8814,0.1186	-12226.73
0.9645,0.0355	-12204.12
0.9378,0.0622	-12208.62
0.9425,0.0575	-12205.56
0.9605,0.0395	-12207.55
0.9847,0.0153	-12203.27
0.8843,0.1157	-12220.58
0.9651,0.0349	-12210.73
0.9340,0.0660	-12208.85
0.9504,0.0496	-12210.92
0.9571,0.0429	-12207.67
0.9853,0.0147	-12203.26
0.8991,0.1009	-12215.63
0.9536,0.0464	-12207.82
0.9431,0.0569	-12205.52
0.9535,0.0465	-12216.89
0.9534,0.0466	-12213.86
0.9878,0.0122	-12203.24
0.9103,0.0897	-12217.37
0.9458,0.0542	-12216.77
0.9416,0.0584	-12222.31
0.9567,0.0433	-12216.98
0.9520,0.0480	-12213.86
0.9869,0.0131	-12211.89
0.9100,0.0900	-12222.01
0.9436,0.0564	-12213.94
0.9429,0.0571	-12219.56
0.9598,0.0402	-12210.75
0.9472,0.0528	-12208.12
0.9872,0.0128	-12207.59
0.9311,0.0689	-12216.83
0.9331,0.0669	-12206.27
0.9416,0.0584	-12208.41
0.9602,0.0398	-12207.56
0.9556,0.0444	-12207.73
0.9845,0.0155	-12203.27
0.9255,0.0745	-12206.85
0.9238,0.0762	-12224.46
0.9395,0.0605	-12219.50
0.9661,0.0339	-12207.38
0.9560,0.0440	-12213.88
0.9853,0.0147	-12203.26
0.9267,0.0733	-12214.37
0.9269,0.0731	-12224.53
0.9462,0.0538	-12211.03
0.9602,0.0398	-12210.74
0.9539,0.0461	-12216.90
0.9842,0.0158	-12207.41
0.9287,0.0713	-12219.44
0.9333,0.0667	-12211.53
0.9317,0.0683	-12208.98
0.9625,0.0375	-12213.97
0.9539,0.0461	-12207.81
0.9852,0.0148	-12207.46
0.9241,0.0759	-12219.46
0.9244,0.0756	-12216.96
0.9259,0.0741	-12219.45
0.9627,0.0373	-12207.48
0.9525,0.0475	-12210.87
0.9899,0.0101	-12207.84
0.9119,0.0881	-12219.65
0.9313,0.0687	-12216.83
0.9253,0.0747	-12216.94
0.9672,0.0328	-12207.35
0.9506,0.0494	-12207.95
0.9868,0.0132	-12203.24
0.9173,0.0827	-12214.73
0.9142,0.0858	-12217.24
0.9136,0.0864	-12212.54
0.9630,0.0370	-12207.47
0.9543,0.0457	-12210.83
0.9845,0.0155	-12203.27
0.9031,0.0969	-12217.65
0.9287,0.0713	-12214.30
0.9130,0.0870	-12217.28
0.9592,0.0408	-12207.59
0.9519,0.0481	-12210.88
0.9820,0.0180	-12203.33
0.8856,0.1144	-12226.66
0.9222,0.0778	-12214.54
0.9052,0.0948	-12217.57
0.9655,0.0345	-12210.73
0.9409,0.0591	-12208.45
0.9835,0.0165	-12207.38
0.8901,0.1099	-12224.52
0.9268,0.0732	-12216.91
0.9128,0.0872	-12221.98
0.9659,0.0341	-12207.38
0.9506,0.0494	-12207.95
0.9812,0.0188	-12203.35
0.9109,0.0891	-12217.35
0.9225,0.0775	-12212.05
0.9192,0.0808	-12219.52
0.9689,0.0311	-12210.75
0.9530,0.0470	-12207.85
0.9838,0.0162	-12203.28
0.9213,0.0787	-12214.57
0.9258,0.0742	-12216.93
0.9319,0.0681	-12216.82
0.9623,0.0377	-12217.21
0.9410,0.0590	-12208.44
0.9848,0.0152	-12211.61
0.9270,0.0730	-12211.82
0.9166,0.0834	-12214.77
0.9351,0.0649	-12214.11
0.9524,0.0476	-12207.87
0.9475,0.0525	-12225.46
0.9851,0.0149	-12203.26
0.9161,0.0839	-12219.57
0.9167,0.0833	-12219.56
0.9384,0.0616	-12214.03
0.9621,0.0379	-12207.50
0.9451,0.0549	-12208.22
0.9885,0.0115	-12207.69
0.9296,0.0704	-12216.86
0.8987,0.1013	-12222.20
0.9347,0.0653	-12214.13
0.9627,0.0373	-12210.73
0.9438,0.0562	-12211.11
0.9886,0.0114	-12207.70
0.9301,0.0699	-12214.26
0.8977,0.1023	-12217.88
0.9472,0.0528	-12216.78
0.9714,0.0286	-12221.37
0.9404,0.0596	-12213.99
0.9907,0.0093	-12203.28
0.9398,0.0602	-12205.76
0.8837,0.1163	-12218.58
0.9490,0.0510	-12208.03
0.9758,0.0242	-12207.24
0.9470,0.0530	-12216.78
0.9911,0.0089	-12208.00
0.9313,0.0687	-12214.22
0.9030,0.0970	-12228.81
0.9488,0.0512	-12213.88
0.9690,0.0310	-12210.76
0.9304,0.0696	-12219.43
0.9901,0.0099	-12207.86
0.9454,0.0546	-12208.21
0.9055,0.0945	-12222.07
0.9512,0.0488	-12210.90
0.9727,0.0273	-12207.26
0.9438,0.0562	-12208.29
0.9890,0.0110	-12203.25
0.9265,0.0735	-12221.98
