#isoforms=['ENSG00000211445.SE.0.A.up_ENSG00000211445.SE.0.A.SE1_ENSG00000211445.SE.0.A.dn','ENSG00000211445.SE.0.B.up_ENSG00000211445.SE.0.B.dn']	exon_lens=('ENSG00000211445.SE.0.A.up',136),('ENSG00000211445.SE.0.A.SE1',426),('ENSG00000211445.SE.0.A.dn',154),('ENSG00000211445.SE.0.B.up',179),('ENSG00000211445.SE.0.B.dn',154)	iters=5000	burn_in=500	lag=10	percent_accept=92.90	proposal_type=drift	counts=(0,0):620,(0,1):734,(1,0):6,(1,1):407	assigned_counts=0:6,1:1141	chrom=chr5	strand=+	mRNA_starts=151020606,151020563	mRNA_ends=151025493,151025493
sampled_psi	log_score
0.0030,0.9970	-6302.10
0.0028,0.9972	-6307.82
0.0027,0.9973	-6313.72
0.0030,0.9970	-6307.90
0.0038,0.9962	-6297.26
0.0040,0.9960	-6308.58
0.0025,0.9975	-6301.84
0.0031,0.9969	-6307.92
0.0026,0.9974	-6295.93
0.0027,0.9973	-6313.74
0.0030,0.9970	-6302.04
0.0037,0.9963	-6302.69
0.0027,0.9973	-6307.82
0.0030,0.9970	-6302.08
0.0021,0.9979	-6314.19
0.0028,0.9972	-6296.03
0.0031,0.9969	-6296.37
0.0036,0.9964	-6308.27
0.0026,0.9974	-6313.78
0.0023,0.9977	-6301.82
0.0021,0.9979	-6295.69
0.0023,0.9977	-6301.82
0.0029,0.9971	-6301.99
0.0035,0.9965	-6296.89
0.0021,0.9979	-6301.84
0.0025,0.9975	-6295.82
0.0019,0.9981	-6301.95
0.0027,0.9973	-6307.82
0.0032,0.9968	-6302.25
0.0037,0.9963	-6302.68
0.0031,0.9969	-6296.35
0.0029,0.9971	-6319.51
0.0018,0.9982	-6302.00
0.0029,0.9971	-6302.01
0.0035,0.9965	-6296.79
0.0037,0.9963	-6297.07
0.0038,0.9962	-6308.40
0.0034,0.9966	-6319.45
0.0019,0.9981	-6295.68
0.0036,0.9964	-6302.56
0.0037,0.9963	-6313.91
0.0042,0.9958	-6303.39
0.0034,0.9966	-6302.43
0.0041,0.9959	-6308.72
0.0025,0.9975	-6301.85
0.0034,0.9966	-6308.08
0.0044,0.9956	-6303.60
0.0033,0.9967	-6308.05
0.0028,0.9972	-6307.83
0.0041,0.9959	-6308.69
0.0029,0.9971	-6307.84
0.0037,0.9963	-6319.52
0.0039,0.9961	-6297.34
0.0030,0.9970	-6302.06
0.0025,0.9975	-6301.83
0.0046,0.9954	-6309.30
0.0023,0.9977	-6301.82
0.0045,0.9955	-6314.51
0.0037,0.9963	-6308.34
0.0035,0.9965	-6302.50
0.0026,0.9974	-6307.82
0.0057,0.9943	-6316.04
0.0022,0.9978	-6307.97
0.0036,0.9964	-6302.64
0.0028,0.9972	-6313.69
0.0043,0.9957	-6308.87
0.0028,0.9972	-6307.82
0.0058,0.9942	-6311.01
0.0023,0.9977	-6307.89
0.0035,0.9965	-6302.55
0.0023,0.9977	-6301.82
0.0044,0.9956	-6319.85
0.0028,0.9972	-6301.95
0.0060,0.9940	-6306.23
0.0023,0.9977	-6295.75
0.0040,0.9960	-6303.08
0.0028,0.9972	-6301.97
0.0033,0.9967	-6296.58
0.0035,0.9965	-6302.53
0.0055,0.9945	-6310.64
0.0029,0.9971	-6302.00
0.0046,0.9954	-6303.86
0.0026,0.9974	-6319.72
0.0028,0.9972	-6307.82
0.0038,0.9962	-6308.40
0.0052,0.9948	-6310.11
0.0024,0.9976	-6295.78
0.0042,0.9958	-6303.35
0.0027,0.9973	-6296.00
0.0027,0.9973	-6301.89
0.0039,0.9961	-6308.49
0.0044,0.9956	-6314.45
0.0025,0.9975	-6301.83
0.0051,0.9949	-6304.63
0.0020,0.9980	-6301.89
0.0022,0.9978	-6295.71
0.0038,0.9962	-6302.79
0.0039,0.9961	-6297.47
0.0022,0.9978	-6295.70
0.0061,0.9939	-6326.87
0.0023,0.9977	-6295.74
0.0022,0.9978	-6295.71
0.0042,0.9958	-6314.26
0.0040,0.9960	-6314.10
0.0023,0.9977	-6301.82
0.0062,0.9938	-6301.47
0.0033,0.9967	-6296.55
0.0023,0.9977	-6307.88
0.0045,0.9955	-6309.15
0.0035,0.9965	-6302.46
0.0020,0.9980	-6308.07
0.0046,0.9954	-6320.06
0.0030,0.9970	-6307.88
0.0023,0.9977	-6295.76
0.0045,0.9955	-6298.33
0.0032,0.9968	-6302.27
0.0019,0.9981	-6295.69
0.0041,0.9959	-6303.25
0.0022,0.9978	-6295.72
0.0029,0.9971	-6296.15
0.0043,0.9957	-6298.01
0.0030,0.9970	-6307.87
0.0016,0.9984	-6295.81
0.0052,0.9948	-6320.58
0.0018,0.9982	-6302.03
0.0031,0.9969	-6296.32
0.0041,0.9959	-6308.66
0.0031,0.9969	-6302.11
0.0013,0.9987	-6302.79
0.0040,0.9960	-6303.14
0.0018,0.9982	-6308.39
0.0030,0.9970	-6296.23
0.0030,0.9970	-6307.87
0.0035,0.9965	-6302.47
0.0013,0.9987	-6302.75
0.0056,0.9944	-6300.45
0.0019,0.9981	-6295.68
0.0031,0.9969	-6296.34
0.0028,0.9972	-6313.69
0.0036,0.9964	-6308.20
0.0013,0.9987	-6296.11
0.0044,0.9956	-6303.67
0.0021,0.9979	-6301.85
0.0038,0.9962	-6297.30
0.0028,0.9972	-6301.96
0.0028,0.9972	-6313.70
0.0013,0.9987	-6302.90
0.0041,0.9959	-6303.27
0.0023,0.9977	-6307.89
0.0040,0.9960	-6314.10
0.0035,0.9965	-6319.46
0.0029,0.9971	-6301.98
0.0013,0.9987	-6296.14
0.0046,0.9954	-6303.90
0.0018,0.9982	-6302.04
0.0049,0.9951	-6309.62
0.0033,0.9967	-6302.36
0.0025,0.9975	-6307.82
0.0011,0.9989	-6303.38
0.0053,0.9947	-6315.54
0.0018,0.9982	-6295.71
0.0048,0.9952	-6320.21
0.0036,0.9964	-6296.94
0.0025,0.9975	-6295.85
0.0015,0.9985	-6295.87
0.0051,0.9949	-6304.74
0.0015,0.9985	-6295.86
0.0051,0.9949	-6309.97
0.0037,0.9963	-6308.30
0.0019,0.9981	-6295.68
0.0015,0.9985	-6302.48
0.0049,0.9951	-6309.70
0.0016,0.9984	-6295.78
0.0055,0.9945	-6310.65
0.0043,0.9957	-6303.51
0.0025,0.9975	-6301.84
0.0013,0.9987	-6302.72
0.0049,0.9951	-6309.63
0.0020,0.9980	-6301.89
0.0050,0.9950	-6299.26
0.0045,0.9955	-6314.55
0.0021,0.9979	-6295.69
0.0014,0.9986	-6315.61
0.0049,0.9951	-6299.10
0.0020,0.9980	-6301.88
0.0057,0.9943	-6300.52
0.0043,0.9957	-6308.98
0.0022,0.9978	-6301.82
0.0014,0.9986	-6309.28
0.0046,0.9954	-6309.34
0.0021,0.9979	-6301.84
0.0065,0.9935	-6307.21
0.0048,0.9952	-6304.17
0.0023,0.9977	-6307.88
0.0011,0.9989	-6296.65
0.0059,0.9941	-6316.39
0.0017,0.9983	-6314.78
0.0067,0.9933	-6322.58
0.0037,0.9963	-6297.18
0.0026,0.9974	-6295.91
0.0012,0.9988	-6303.02
0.0069,0.9931	-6312.97
0.0016,0.9984	-6302.19
0.0067,0.9933	-6322.54
0.0037,0.9963	-6313.93
0.0026,0.9974	-6307.81
0.0011,0.9989	-6296.63
0.0065,0.9935	-6327.31
0.0017,0.9983	-6295.74
0.0067,0.9933	-6312.60
0.0035,0.9965	-6308.15
0.0029,0.9971	-6319.55
0.0010,0.9990	-6296.93
0.0060,0.9940	-6316.51
0.0016,0.9984	-6295.83
0.0068,0.9932	-6312.79
0.0029,0.9971	-6313.69
0.0043,0.9957	-6303.44
0.0009,0.9991	-6297.23
0.0056,0.9944	-6305.59
0.0017,0.9983	-6295.76
0.0059,0.9941	-6300.96
0.0032,0.9968	-6296.49
0.0036,0.9964	-6302.61
0.0010,0.9990	-6310.44
0.0052,0.9948	-6304.84
0.0017,0.9983	-6302.09
0.0051,0.9949	-6304.77
0.0035,0.9965	-6308.15
0.0030,0.9970	-6302.05
0.0012,0.9988	-6296.37
0.0050,0.9950	-6309.85
0.0024,0.9976	-6301.83
0.0049,0.9951	-6320.29
0.0031,0.9969	-6296.32
0.0029,0.9971	-6302.04
0.0012,0.9988	-6303.14
0.0043,0.9957	-6308.89
0.0030,0.9970	-6296.30
0.0043,0.9957	-6303.44
0.0032,0.9968	-6296.51
0.0025,0.9975	-6295.87
0.0013,0.9987	-6296.08
0.0033,0.9967	-6296.62
0.0026,0.9974	-6313.78
0.0045,0.9955	-6309.11
0.0037,0.9963	-6302.74
0.0030,0.9970	-6302.05
0.0016,0.9984	-6302.25
0.0028,0.9972	-6307.82
0.0025,0.9975	-6301.84
0.0047,0.9953	-6314.72
0.0039,0.9961	-6308.45
0.0026,0.9974	-6295.89
0.0030,0.9970	-6296.29
0.0025,0.9975	-6301.84
0.0029,0.9971	-6301.99
0.0042,0.9958	-6303.36
0.0036,0.9964	-6308.26
0.0030,0.9970	-6319.49
0.0032,0.9968	-6307.96
0.0026,0.9974	-6301.87
0.0036,0.9964	-6302.62
0.0042,0.9958	-6303.29
0.0034,0.9966	-6308.08
0.0026,0.9974	-6307.81
0.0034,0.9966	-6302.45
0.0032,0.9968	-6296.46
0.0032,0.9968	-6313.71
0.0039,0.9961	-6308.54
0.0034,0.9966	-6308.06
0.0027,0.9973	-6295.96
0.0037,0.9963	-6319.49
0.0038,0.9962	-6313.97
0.0025,0.9975	-6307.83
0.0036,0.9964	-6308.27
0.0037,0.9963	-6297.17
0.0028,0.9972	-6307.82
0.0033,0.9967	-6308.04
0.0051,0.9949	-6304.66
0.0023,0.9977	-6295.77
0.0035,0.9965	-6308.14
0.0045,0.9955	-6314.57
0.0024,0.9976	-6301.82
0.0041,0.9959	-6308.74
0.0052,0.9948	-6304.83
0.0020,0.9980	-6295.68
0.0033,0.9967	-6302.31
0.0043,0.9957	-6308.94
0.0023,0.9977	-6313.95
0.0044,0.9956	-6303.59
0.0038,0.9962	-6314.00
0.0019,0.9981	-6295.68
0.0033,0.9967	-6302.32
0.0043,0.9957	-6303.54
0.0025,0.9975	-6307.82
0.0041,0.9959	-6325.18
0.0032,0.9968	-6307.98
0.0020,0.9980	-6295.68
0.0038,0.9962	-6302.81
0.0041,0.9959	-6330.67
0.0027,0.9973	-6301.92
0.0038,0.9962	-6302.87
0.0026,0.9974	-6301.88
0.0022,0.9978	-6301.82
0.0036,0.9964	-6296.93
0.0040,0.9960	-6314.10
0.0028,0.9972	-6301.96
0.0029,0.9971	-6296.18
0.0030,0.9970	-6307.88
0.0019,0.9981	-6301.94
0.0029,0.9971	-6307.84
0.0032,0.9968	-6307.96
0.0026,0.9974	-6313.77
0.0033,0.9967	-6302.28
0.0024,0.9976	-6313.87
0.0016,0.9984	-6308.65
0.0025,0.9975	-6295.88
0.0031,0.9969	-6302.17
0.0025,0.9975	-6295.86
0.0029,0.9971	-6313.69
0.0023,0.9977	-6307.89
0.0018,0.9982	-6302.06
0.0021,0.9979	-6295.69
0.0029,0.9971	-6301.99
0.0025,0.9975	-6301.84
0.0037,0.9963	-6313.93
0.0019,0.9981	-6301.92
0.0017,0.9983	-6302.17
0.0027,0.9973	-6307.82
0.0032,0.9968	-6307.96
0.0022,0.9978	-6314.09
0.0031,0.9969	-6313.69
0.0015,0.9985	-6308.91
0.0014,0.9986	-6302.57
0.0032,0.9968	-6307.95
0.0030,0.9970	-6307.87
0.0020,0.9980	-6295.68
0.0029,0.9971	-6296.21
0.0013,0.9987	-6296.16
0.0016,0.9984	-6295.84
0.0033,0.9967	-6302.33
0.0038,0.9962	-6297.23
0.0020,0.9980	-6295.68
0.0036,0.9964	-6302.61
0.0013,0.9987	-6296.20
0.0016,0.9984	-6295.79
0.0033,0.9967	-6307.99
0.0037,0.9963	-6302.71
0.0021,0.9979	-6308.01
0.0033,0.9967	-6302.33
0.0013,0.9987	-6302.86
0.0020,0.9980	-6301.88
0.0042,0.9958	-6303.38
0.0034,0.9966	-6302.41
0.0021,0.9979	-6295.69
0.0031,0.9969	-6307.94
0.0016,0.9984	-6295.79
0.0027,0.9973	-6301.89
0.0040,0.9960	-6314.10
0.0028,0.9972	-6313.71
0.0019,0.9981	-6308.16
0.0029,0.9971	-6296.16
0.0016,0.9984	-6308.75
0.0027,0.9973	-6296.03
0.0041,0.9959	-6303.14
0.0026,0.9974	-6295.89
0.0023,0.9977	-6295.75
0.0031,0.9969	-6302.15
0.0019,0.9981	-6308.19
0.0027,0.9973	-6295.96
0.0039,0.9961	-6314.01
0.0026,0.9974	-6313.77
0.0020,0.9980	-6295.68
0.0029,0.9971	-6302.03
0.0018,0.9982	-6302.06
0.0030,0.9970	-6307.88
0.0032,0.9968	-6296.51
0.0029,0.9971	-6302.01
0.0022,0.9978	-6301.83
0.0028,0.9972	-6301.96
0.0016,0.9984	-6295.83
0.0035,0.9965	-6302.48
0.0032,0.9968	-6302.21
0.0035,0.9965	-6302.48
0.0018,0.9982	-6302.02
0.0028,0.9972	-6296.05
0.0015,0.9985	-6302.48
0.0036,0.9964	-6297.04
0.0036,0.9964	-6296.97
0.0025,0.9975	-6295.84
0.0018,0.9982	-6295.72
0.0025,0.9975	-6301.83
0.0011,0.9989	-6296.66
0.0035,0.9965	-6302.49
0.0032,0.9968	-6296.47
0.0025,0.9975	-6301.84
0.0017,0.9983	-6295.75
0.0027,0.9973	-6296.02
0.0008,0.9992	-6297.43
0.0030,0.9970	-6313.68
0.0031,0.9969	-6302.15
0.0022,0.9978	-6295.73
0.0019,0.9981	-6295.68
0.0034,0.9966	-6296.74
0.0009,0.9991	-6297.28
0.0029,0.9971	-6307.84
0.0034,0.9966	-6308.10
0.0022,0.9978	-6295.70
0.0018,0.9982	-6302.05
0.0037,0.9963	-6297.07
0.0010,0.9990	-6296.84
0.0020,0.9980	-6295.68
0.0035,0.9965	-6302.49
0.0022,0.9978	-6307.97
0.0018,0.9982	-6302.04
0.0031,0.9969	-6296.34
0.0010,0.9990	-6296.83
0.0020,0.9980	-6308.14
0.0033,0.9967	-6302.31
0.0022,0.9978	-6295.72
0.0018,0.9982	-6302.00
0.0030,0.9970	-6302.04
0.0009,0.9991	-6297.11
0.0016,0.9984	-6302.27
0.0032,0.9968	-6307.97
0.0025,0.9975	-6307.82
0.0021,0.9979	-6295.68
0.0031,0.9969	-6296.33
0.0008,0.9992	-6297.36
0.0015,0.9985	-6295.87
0.0032,0.9968	-6296.53
0.0029,0.9971	-6302.04
0.0024,0.9976	-6301.82
0.0029,0.9971	-6301.99
0.0009,0.9991	-6304.13
0.0014,0.9986	-6309.20
0.0037,0.9963	-6313.91
0.0040,0.9960	-6297.59
0.0025,0.9975	-6295.82
0.0031,0.9969	-6296.32
0.0011,0.9989	-6296.46
0.0012,0.9988	-6296.43
0.0032,0.9968	-6296.50
0.0046,0.9954	-6309.24
0.0027,0.9973	-6313.73
0.0031,0.9969	-6302.18
0.0013,0.9987	-6296.14
0.0013,0.9987	-6296.21
0.0034,0.9966	-6296.70
0.0041,0.9959	-6319.71
0.0032,0.9968	-6313.72
0.0031,0.9969	-6296.33
0.0013,0.9987	-6302.91
0.0013,0.9987	-6302.77
0.0036,0.9964	-6302.58
0.0040,0.9960	-6319.61
0.0029,0.9971	-6307.84
0.0028,0.9972	-6296.10
0.0014,0.9986	-6295.99
0.0013,0.9987	-6296.21
0.0031,0.9969	-6302.13
0.0034,0.9966	-6302.40
0.0027,0.9973	-6301.91
0.0029,0.9971	-6296.14
0.0019,0.9981	-6301.98
0.0013,0.9987	-6309.29
0.0034,0.9966	-6313.76
0.0032,0.9968	-6302.21
0.0026,0.9974	-6307.82
0.0029,0.9971	-6307.85
0.0015,0.9985	-6302.44
0.0010,0.9990	-6296.73
0.0033,0.9967	-6302.32
0.0029,0.9971	-6307.84
0.0029,0.9971	-6307.84
0.0028,0.9972	-6307.83
0.0016,0.9984	-6295.83
0.0012,0.9988	-6296.42
0.0027,0.9973	-6301.93
0.0032,0.9968	-6319.45
0.0027,0.9973	-6296.02
0.0028,0.9972	-6296.07
0.0015,0.9985	-6295.91
0.0012,0.9988	-6316.61
0.0031,0.9969	-6296.38
0.0028,0.9972	-6307.83
0.0021,0.9979	-6295.68
0.0030,0.9970	-6307.87
0.0014,0.9986	-6296.06
0.0010,0.9990	-6296.70
0.0031,0.9969	-6302.12
0.0028,0.9972	-6296.04
0.0019,0.9981	-6301.94
0.0023,0.9977	-6301.82
0.0013,0.9987	-6296.14
0.0010,0.9990	-6296.72
0.0029,0.9971	-6302.01
0.0030,0.9970	-6296.23
0.0016,0.9984	-6295.78
0.0021,0.9979	-6295.69
0.0012,0.9988	-6302.96
0.0012,0.9988	-6303.04
0.0036,0.9964	-6308.22
0.0032,0.9968	-6302.23
0.0019,0.9981	-6301.94
0.0028,0.9972	-6307.82
0.0011,0.9989	-6296.63
0.0010,0.9990	-6296.83
0.0038,0.9962	-6297.27
0.0039,0.9961	-6308.54
0.0021,0.9979	-6301.86
0.0025,0.9975	-6301.84
0.0011,0.9989	-6303.53
0.0009,0.9991	-6297.27
0.0043,0.9957	-6319.78
0.0042,0.9958	-6308.82
0.0029,0.9971	-6302.02
0.0031,0.9969	-6296.39
0.0012,0.9988	-6302.94
0.0010,0.9990	-6296.92
0.0042,0.9958	-6303.39
0.0045,0.9955	-6309.20
0.0031,0.9969	-6302.12
0.0037,0.9963	-6325.10
0.0011,0.9989	-6296.60
0.0012,0.9988	-6296.34
0.0049,0.9951	-6309.74
0.0049,0.9951	-6304.32
0.0037,0.9963	-6297.14
0.0038,0.9962	-6308.39
0.0012,0.9988	-6316.72
0.0013,0.9987	-6296.08
0.0059,0.9941	-6311.21
0.0058,0.9942	-6305.94
0.0037,0.9963	-6302.73
0.0037,0.9963	-6313.91
0.0010,0.9990	-6303.56
0.0013,0.9987	-6296.14
0.0059,0.9941	-6311.29
0.0049,0.9951	-6320.28
0.0038,0.9962	-6302.85
0.0033,0.9967	-6296.61
0.0012,0.9988	-6309.76
0.0014,0.9986	-6309.19
0.0056,0.9944	-6300.42
0.0036,0.9964	-6302.56
0.0038,0.9962	-6308.40
0.0033,0.9967	-6296.60
0.0010,0.9990	-6296.69
0.0013,0.9987	-6296.09
0.0062,0.9938	-6301.64
0.0033,0.9967	-6308.00
0.0031,0.9969	-6313.70
0.0028,0.9972	-6301.97
0.0014,0.9986	-6309.23
0.0016,0.9984	-6308.64
0.0066,0.9934	-6312.47
0.0028,0.9972	-6301.94
0.0035,0.9965	-6302.48
0.0033,0.9967	-6302.30
0.0015,0.9985	-6302.34
0.0016,0.9984	-6302.22
0.0055,0.9945	-6315.70
0.0028,0.9972	-6301.95
0.0040,0.9960	-6314.10
0.0038,0.9962	-6297.25
0.0015,0.9985	-6315.27
0.0015,0.9985	-6302.43
0.0057,0.9943	-6321.16
0.0033,0.9967	-6302.35
0.0030,0.9970	-6307.89
0.0037,0.9963	-6302.71
0.0018,0.9982	-6308.33
0.0013,0.9987	-6302.72
0.0061,0.9939	-6311.49
0.0035,0.9965	-6296.87
0.0029,0.9971	-6313.69
0.0036,0.9964	-6302.63
0.0014,0.9986	-6302.55
0.0011,0.9989	-6296.49
0.0053,0.9947	-6304.97
0.0038,0.9962	-6297.27
0.0033,0.9967	-6308.00
0.0040,0.9960	-6308.57
0.0015,0.9985	-6295.94
0.0010,0.9990	-6303.60
0.0057,0.9943	-6310.90
0.0037,0.9963	-6302.77
0.0033,0.9967	-6302.28
0.0044,0.9956	-6308.98
0.0017,0.9983	-6302.16
0.0010,0.9990	-6296.91
0.0048,0.9952	-6304.24
0.0035,0.9965	-6313.79
0.0033,0.9967	-6302.31
0.0036,0.9964	-6319.49
0.0020,0.9980	-6295.68
0.0013,0.9987	-6302.87
0.0040,0.9960	-6308.64
0.0036,0.9964	-6308.21
0.0034,0.9966	-6302.38
0.0037,0.9963	-6308.31
0.0019,0.9981	-6308.26
0.0011,0.9989	-6310.07
0.0036,0.9964	-6319.47
0.0038,0.9962	-6319.53
0.0027,0.9973	-6301.92
0.0039,0.9961	-6314.02
0.0018,0.9982	-6302.03
0.0010,0.9990	-6296.72
0.0036,0.9964	-6313.83
0.0034,0.9966	-6313.76
0.0025,0.9975	-6295.84
0.0043,0.9957	-6308.87
0.0022,0.9978	-6295.70
0.0011,0.9989	-6303.43
0.0029,0.9971	-6296.13
0.0032,0.9968	-6307.97
0.0025,0.9975	-6319.83
0.0036,0.9964	-6319.48
0.0023,0.9977	-6295.75
0.0012,0.9988	-6296.42
0.0029,0.9971	-6301.99
0.0039,0.9961	-6302.90
0.0028,0.9972	-6301.98
0.0035,0.9965	-6313.81
0.0024,0.9976	-6295.79
0.0012,0.9988	-6302.92
0.0035,0.9965	-6308.12
0.0042,0.9958	-6308.79
0.0030,0.9970	-6302.07
0.0038,0.9962	-6313.99
0.0021,0.9979	-6295.69
0.0013,0.9987	-6302.72
0.0035,0.9965	-6296.81
0.0037,0.9963	-6302.74
0.0025,0.9975	-6307.82
0.0029,0.9971	-6302.03
0.0025,0.9975	-6295.84
0.0018,0.9982	-6295.72
0.0036,0.9964	-6297.01
0.0044,0.9956	-6319.86
0.0023,0.9977	-6295.75
0.0027,0.9973	-6296.03
0.0022,0.9978	-6314.04
0.0014,0.9986	-6295.97
0.0032,0.9968	-6296.50
0.0065,0.9935	-6322.26
0.0024,0.9976	-6307.85
0.0027,0.9973	-6296.02
0.0019,0.9981	-6295.68
0.0016,0.9984	-6302.19
0.0037,0.9963	-6297.14
0.0065,0.9935	-6307.18
0.0030,0.9970	-6307.88
0.0030,0.9970	-6319.51
0.0021,0.9979	-6308.00
0.0020,0.9980	-6301.88
0.0031,0.9969	-6307.91
0.0050,0.9950	-6315.09
0.0027,0.9973	-6301.91
0.0030,0.9970	-6307.89
0.0023,0.9977	-6301.82
0.0025,0.9975	-6301.83
0.0027,0.9973	-6319.62
0.0050,0.9950	-6309.88
0.0037,0.9963	-6302.77
0.0023,0.9977	-6301.82
0.0019,0.9981	-6308.18
0.0027,0.9973	-6313.72
0.0035,0.9965	-6308.13
0.0037,0.9963	-6325.10
0.0031,0.9969	-6302.15
0.0023,0.9977	-6307.90
0.0020,0.9980	-6301.87
0.0025,0.9975	-6295.82
0.0047,0.9953	-6314.82
0.0045,0.9955	-6303.69
0.0029,0.9971	-6302.03
0.0020,0.9980	-6295.68
0.0021,0.9979	-6301.87
0.0022,0.9978	-6301.82
0.0051,0.9949	-6309.94
0.0040,0.9960	-6314.10
0.0031,0.9969	-6302.15
0.0020,0.9980	-6301.90
0.0025,0.9975	-6301.83
0.0021,0.9979	-6308.04
0.0046,0.9954	-6303.96
0.0037,0.9963	-6297.15
0.0028,0.9972	-6307.83
0.0021,0.9979	-6308.00
0.0024,0.9976	-6295.80
0.0026,0.9974	-6295.92
0.0042,0.9958	-6303.34
0.0032,0.9968	-6296.46
0.0026,0.9974	-6307.82
0.0028,0.9972	-6307.83
0.0025,0.9975	-6301.84
0.0028,0.9972	-6296.10
0.0045,0.9955	-6309.18
0.0028,0.9972	-6301.93
0.0023,0.9977	-6295.74
0.0032,0.9968	-6302.23
0.0027,0.9973	-6295.96
0.0024,0.9976	-6295.81
0.0044,0.9956	-6303.57
0.0030,0.9970	-6302.05
0.0019,0.9981	-6301.94
0.0030,0.9970	-6307.88
0.0025,0.9975	-6301.84
0.0027,0.9973	-6301.91
0.0042,0.9958	-6308.78
0.0026,0.9974	-6301.86
0.0024,0.9976	-6307.85
0.0033,0.9967	-6302.32
0.0023,0.9977	-6301.82
0.0025,0.9975	-6307.82
0.0040,0.9960	-6303.02
0.0018,0.9982	-6308.34
0.0024,0.9976	-6295.80
0.0038,0.9962	-6297.20
0.0025,0.9975	-6307.83
0.0027,0.9973	-6301.92
0.0034,0.9966	-6302.44
0.0017,0.9983	-6295.73
0.0018,0.9982	-6295.71
0.0028,0.9972	-6307.83
0.0022,0.9978	-6295.70
0.0024,0.9976	-6307.85
0.0034,0.9966	-6313.75
0.0015,0.9985	-6315.41
0.0022,0.9978	-6295.71
0.0027,0.9973	-6307.81
0.0016,0.9984	-6302.23
0.0021,0.9979	-6295.68
0.0033,0.9967	-6308.00
0.0014,0.9986	-6309.22
0.0023,0.9977	-6307.92
0.0023,0.9977	-6295.75
0.0016,0.9984	-6302.20
0.0019,0.9981	-6295.69
0.0028,0.9972	-6301.96
0.0011,0.9989	-6296.46
0.0023,0.9977	-6307.87
0.0026,0.9974	-6295.95
0.0015,0.9985	-6295.89
0.0020,0.9980	-6295.68
0.0028,0.9972	-6301.93
0.0013,0.9987	-6296.16
0.0017,0.9983	-6308.51
0.0031,0.9969	-6302.17
0.0013,0.9987	-6296.09
0.0024,0.9976	-6295.77
0.0031,0.9969	-6307.90
0.0012,0.9988	-6296.25
0.0018,0.9982	-6314.65
0.0029,0.9971	-6296.15
0.0016,0.9984	-6295.84
0.0024,0.9976	-6307.86
0.0030,0.9970	-6296.23
0.0014,0.9986	-6295.97
0.0021,0.9979	-6301.85
0.0026,0.9974	-6295.93
0.0017,0.9983	-6302.17
0.0022,0.9978	-6307.95
0.0030,0.9970	-6313.68
0.0011,0.9989	-6296.47
0.0019,0.9981	-6295.68
0.0031,0.9969	-6302.15
0.0016,0.9984	-6302.23
0.0018,0.9982	-6302.02
0.0026,0.9974	-6307.81
0.0013,0.9987	-6296.15
0.0021,0.9979	-6295.68
0.0033,0.9967	-6302.29
0.0015,0.9985	-6295.86
0.0016,0.9984	-6315.01
0.0024,0.9976	-6301.82
0.0014,0.9986	-6296.07
0.0016,0.9984	-6302.27
0.0044,0.9956	-6298.20
0.0012,0.9988	-6302.96
0.0017,0.9983	-6295.73
0.0019,0.9981	-6295.68
0.0014,0.9986	-6309.01
0.0021,0.9979	-6308.04
0.0050,0.9950	-6320.40
0.0012,0.9988	-6296.27
0.0017,0.9983	-6295.73
0.0017,0.9983	-6314.82
0.0019,0.9981	-6295.69
0.0024,0.9976	-6295.79
0.0042,0.9958	-6308.76
0.0013,0.9987	-6296.21
0.0019,0.9981	-6301.95
0.0019,0.9981	-6301.95
0.0018,0.9982	-6302.05
0.0021,0.9979	-6295.70
0.0038,0.9962	-6308.37
0.0012,0.9988	-6303.11
0.0026,0.9974	-6307.81
0.0019,0.9981	-6295.68
0.0018,0.9982	-6295.72
0.0021,0.9979	-6301.85
0.0039,0.9961	-6308.51
0.0013,0.9987	-6302.89
0.0035,0.9965	-6302.47
0.0020,0.9980	-6295.68
0.0017,0.9983	-6295.73
0.0027,0.9973	-6301.90
0.0034,0.9966	-6296.73
0.0011,0.9989	-6310.29
0.0030,0.9970	-6302.09
0.0024,0.9976	-6313.87
0.0020,0.9980	-6295.68
0.0029,0.9971	-6296.19
0.0026,0.9974	-6295.90
0.0009,0.9991	-6303.96
0.0024,0.9976	-6295.77
0.0023,0.9977	-6295.75
0.0019,0.9981	-6295.68
0.0043,0.9957	-6297.98
0.0020,0.9980	-6301.89
0.0013,0.9987	-6296.09
0.0026,0.9974	-6301.85
0.0024,0.9976	-6301.82
0.0020,0.9980	-6295.68
0.0039,0.9961	-6314.01
0.0021,0.9979	-6308.05
0.0013,0.9987	-6296.18
0.0024,0.9976	-6301.82
0.0030,0.9970	-6319.50
0.0018,0.9982	-6302.02
0.0040,0.9960	-6325.14
0.0020,0.9980	-6314.39
0.0014,0.9986	-6295.99
0.0028,0.9972	-6301.96
0.0029,0.9971	-6296.22
0.0019,0.9981	-6308.27
0.0039,0.9961	-6297.34
0.0024,0.9976	-6301.82
0.0016,0.9984	-6295.82
0.0026,0.9974	-6307.82
0.0030,0.9970	-6296.31
0.0014,0.9986	-6295.96
0.0041,0.9959	-6319.66
0.0026,0.9974	-6295.93
0.0023,0.9977	-6301.82
0.0029,0.9971	-6296.19
0.0031,0.9969	-6302.12
0.0016,0.9984	-6302.18
0.0041,0.9959	-6297.66
0.0026,0.9974	-6325.63
0.0027,0.9973	-6301.90
0.0031,0.9969	-6307.90
0.0028,0.9972	-6307.82
0.0019,0.9981	-6295.68
0.0034,0.9966	-6308.07
0.0024,0.9976	-6295.80
0.0028,0.9972	-6313.70
0.0036,0.9964	-6302.56
0.0023,0.9977	-6307.91
0.0020,0.9980	-6308.08
0.0038,0.9962	-6297.21
0.0021,0.9979	-6301.84
0.0025,0.9975	-6295.87
0.0035,0.9965	-6302.55
0.0023,0.9977	-6301.82
0.0024,0.9976	-6301.82
0.0039,0.9961	-6308.49
0.0020,0.9980	-6295.68
0.0020,0.9980	-6301.89
0.0028,0.9972	-6307.82
0.0021,0.9979	-6295.69
0.0022,0.9978	-6301.84
0.0039,0.9961	-6302.99
0.0022,0.9978	-6295.71
0.0020,0.9980	-6308.15
0.0028,0.9972	-6301.95
0.0022,0.9978	-6301.82
0.0019,0.9981	-6308.16
0.0036,0.9964	-6308.24
0.0024,0.9976	-6295.79
0.0016,0.9984	-6295.82
0.0031,0.9969	-6313.69
0.0029,0.9971	-6301.98
0.0017,0.9983	-6308.43
0.0049,0.9951	-6314.97
0.0028,0.9972	-6296.03
0.0018,0.9982	-6295.71
0.0031,0.9969	-6296.42
0.0035,0.9965	-6319.45
0.0026,0.9974	-6295.93
0.0045,0.9955	-6298.42
0.0035,0.9965	-6308.15
0.0018,0.9982	-6308.34
0.0026,0.9974	-6295.95
0.0028,0.9972	-6301.93
0.0029,0.9971	-6319.52
0.0036,0.9964	-6302.60
0.0032,0.9968	-6296.50
0.0018,0.9982	-6302.00
0.0027,0.9973	-6307.82
0.0030,0.9970	-6296.23
0.0030,0.9970	-6302.07
0.0044,0.9956	-6325.30
0.0038,0.9962	-6308.45
0.0021,0.9979	-6301.85
0.0026,0.9974	-6295.90
0.0028,0.9972	-6313.70
0.0037,0.9963	-6297.07
0.0045,0.9955	-6303.73
0.0042,0.9958	-6297.81
0.0015,0.9985	-6302.39
0.0023,0.9977	-6295.75
0.0024,0.9976	-6295.77
0.0037,0.9963	-6297.08
0.0048,0.9952	-6298.96
0.0048,0.9952	-6314.93
0.0015,0.9985	-6295.85
0.0024,0.9976	-6295.81
0.0022,0.9978	-6301.84
0.0037,0.9963	-6308.35
0.0048,0.9952	-6298.96
0.0058,0.9942	-6321.30
0.0018,0.9982	-6302.04
0.0024,0.9976	-6307.85
0.0018,0.9982	-6295.71
0.0051,0.9949	-6320.54
0.0039,0.9961	-6302.96
0.0040,0.9960	-6303.09
0.0023,0.9977	-6301.82
0.0021,0.9979	-6308.04
0.0020,0.9980	-6301.90
0.0042,0.9958	-6308.83
0.0044,0.9956	-6319.85
0.0039,0.9961	-6308.48
0.0020,0.9980	-6308.13
0.0016,0.9984	-6295.81
0.0015,0.9985	-6302.35
0.0041,0.9959	-6297.79
0.0043,0.9957	-6308.87
0.0029,0.9971	-6307.84
0.0014,0.9986	-6296.01
0.0019,0.9981	-6301.95
0.0015,0.9985	-6295.86
0.0041,0.9959	-6303.17
0.0031,0.9969	-6313.70
0.0026,0.9974	-6295.92
0.0017,0.9983	-6295.75
0.0023,0.9977	-6301.82
0.0017,0.9983	-6295.73
0.0034,0.9966	-6296.67
0.0028,0.9972	-6307.82
0.0025,0.9975	-6301.84
0.0017,0.9983	-6295.74
0.0019,0.9981	-6314.43
0.0016,0.9984	-6302.23
0.0031,0.9969	-6313.69
0.0024,0.9976	-6295.80
0.0024,0.9976	-6301.83
0.0019,0.9981	-6295.68
0.0023,0.9977	-6295.73
0.0019,0.9981	-6308.16
0.0028,0.9972	-6301.94
0.0021,0.9979	-6308.01
0.0027,0.9973	-6301.92
0.0020,0.9980	-6295.68
0.0020,0.9980	-6295.68
0.0018,0.9982	-6302.06
0.0028,0.9972	-6296.06
0.0023,0.9977	-6295.76
0.0037,0.9963	-6308.32
0.0021,0.9979	-6308.01
0.0019,0.9981	-6301.95
0.0017,0.9983	-6295.73
0.0031,0.9969	-6307.94
0.0024,0.9976	-6295.79
0.0035,0.9965	-6313.82
0.0020,0.9980	-6295.68
0.0016,0.9984	-6302.23
0.0015,0.9985	-6308.97
0.0031,0.9969	-6319.47
0.0023,0.9977	-6295.74
0.0031,0.9969	-6307.90
0.0023,0.9977	-6307.90
0.0016,0.9984	-6295.80
0.0016,0.9984	-6302.25
0.0034,0.9966	-6302.39
0.0025,0.9975	-6295.83
0.0034,0.9966	-6302.39
0.0029,0.9971	-6296.12
0.0014,0.9986	-6296.01
0.0017,0.9983	-6302.12
0.0039,0.9961	-6314.02
0.0032,0.9968	-6302.24
0.0025,0.9975	-6295.86
0.0032,0.9968	-6296.44
0.0018,0.9982	-6295.70
0.0014,0.9986	-6296.05
0.0040,0.9960	-6308.57
0.0029,0.9971	-6296.17
0.0022,0.9978	-6295.70
0.0035,0.9965	-6308.13
0.0017,0.9983	-6295.73
0.0012,0.9988	-6309.72
0.0031,0.9969	-6307.93
0.0041,0.9959	-6314.22
0.0027,0.9973	-6295.98
0.0030,0.9970	-6307.89
0.0019,0.9981	-6301.98
0.0011,0.9989	-6296.58
0.0033,0.9967	-6302.33
0.0047,0.9953	-6314.78
0.0028,0.9972	-6301.94
0.0029,0.9971	-6307.86
0.0017,0.9983	-6295.73
0.0012,0.9988	-6296.37
0.0035,0.9965	-6308.15
0.0048,0.9952	-6314.83
0.0027,0.9973	-6307.82
0.0028,0.9972	-6296.07
0.0019,0.9981	-6301.92
0.0011,0.9989	-6303.45
0.0040,0.9960	-6314.09
0.0043,0.9957	-6314.32
0.0029,0.9971	-6307.84
0.0029,0.9971	-6313.69
0.0018,0.9982	-6302.00
0.0012,0.9988	-6303.16
0.0038,0.9962	-6302.78
0.0032,0.9968	-6302.18
0.0025,0.9975	-6313.79
0.0029,0.9971	-6296.18
0.0017,0.9983	-6295.74
0.0013,0.9987	-6302.75
0.0035,0.9965	-6302.49
0.0035,0.9965	-6319.45
0.0021,0.9979	-6295.69
0.0031,0.9969	-6302.16
0.0019,0.9981	-6308.25
0.0013,0.9987	-6302.74
0.0038,0.9962	-6302.82
0.0030,0.9970	-6296.29
0.0022,0.9978	-6301.83
0.0039,0.9961	-6308.46
0.0021,0.9979	-6295.69
0.0015,0.9985	-6295.94
0.0031,0.9969	-6302.16
0.0025,0.9975	-6295.86
0.0023,0.9977	-6295.74
0.0027,0.9973	-6295.99
0.0024,0.9976	-6307.86
0.0019,0.9981	-6295.68
0.0023,0.9977	-6295.75
0.0023,0.9977	-6301.82
0.0019,0.9981	-6301.93
0.0024,0.9976	-6301.82
0.0021,0.9979	-6295.68
0.0017,0.9983	-6295.72
0.0034,0.9966	-6308.08
0.0022,0.9978	-6295.71
0.0020,0.9980	-6301.88
0.0019,0.9981	-6295.68
0.0028,0.9972	-6301.96
0.0020,0.9980	-6301.90
0.0025,0.9975	-6295.85
0.0022,0.9978	-6314.02
0.0017,0.9983	-6295.77
0.0021,0.9979	-6301.84
0.0032,0.9968	-6302.23
0.0022,0.9978	-6295.70
0.0023,0.9977	-6307.91
0.0022,0.9978	-6301.82
0.0016,0.9984	-6302.21
0.0018,0.9982	-6302.06
0.0027,0.9973	-6307.82
0.0020,0.9980	-6295.68
0.0022,0.9978	-6295.70
0.0024,0.9976	-6307.85
0.0019,0.9981	-6295.69
0.0016,0.9984	-6295.79
0.0027,0.9973	-6301.92
0.0023,0.9977	-6295.76
0.0024,0.9976	-6295.82
0.0023,0.9977	-6295.73
0.0018,0.9982	-6320.88
0.0019,0.9981	-6308.17
0.0025,0.9975	-6307.82
0.0022,0.9978	-6307.96
0.0026,0.9974	-6301.87
0.0020,0.9980	-6301.87
0.0016,0.9984	-6302.28
0.0023,0.9977	-6301.82
0.0022,0.9978	-6301.82
0.0022,0.9978	-6301.83
0.0027,0.9973	-6301.89
0.0022,0.9978	-6301.82
0.0016,0.9984	-6302.24
0.0028,0.9972	-6307.84
0.0026,0.9974	-6301.86
0.0024,0.9976	-6301.82
0.0028,0.9972	-6301.97
0.0027,0.9973	-6301.89
0.0015,0.9985	-6295.94
0.0023,0.9977	-6307.90
0.0024,0.9976	-6301.82
0.0026,0.9974	-6301.87
0.0036,0.9964	-6297.01
0.0030,0.9970	-6296.30
0.0021,0.9979	-6301.84
0.0022,0.9978	-6301.83
0.0024,0.9976	-6301.83
0.0030,0.9970	-6296.30
0.0039,0.9961	-6297.42
0.0030,0.9970	-6296.28
0.0022,0.9978	-6301.82
0.0021,0.9979	-6301.85
0.0027,0.9973	-6295.98
0.0040,0.9960	-6314.12
0.0038,0.9962	-6319.54
0.0024,0.9976	-6307.84
0.0029,0.9971	-6313.69
0.0023,0.9977	-6301.82
0.0025,0.9975	-6295.88
0.0037,0.9963	-6319.52
0.0043,0.9957	-6303.43
0.0029,0.9971	-6307.84
0.0036,0.9964	-6297.02
0.0021,0.9979	-6295.69
0.0025,0.9975	-6295.84
0.0034,0.9966	-6313.77
0.0034,0.9966	-6308.06
0.0034,0.9966	-6308.08
0.0040,0.9960	-6297.56
0.0023,0.9977	-6295.75
0.0028,0.9972	-6313.70
0.0028,0.9972	-6301.93
0.0024,0.9976	-6295.79
0.0029,0.9971	-6307.84
0.0044,0.9956	-6298.14
0.0023,0.9977	-6332.09
0.0028,0.9972	-6319.56
0.0035,0.9965	-6302.53
0.0022,0.9978	-6295.73
0.0027,0.9973	-6307.82
0.0054,0.9946	-6315.62
0.0026,0.9974	-6307.82
0.0027,0.9973	-6307.82
0.0030,0.9970	-6302.05
0.0023,0.9977	-6313.93
0.0026,0.9974	-6295.95
0.0045,0.9955	-6303.83
0.0026,0.9974	-6307.82
0.0025,0.9975	-6301.84
0.0030,0.9970	-6313.68
0.0025,0.9975	-6301.84
0.0027,0.9973	-6301.92
0.0041,0.9959	-6303.18
0.0026,0.9974	-6307.81
0.0023,0.9977	-6295.74
0.0028,0.9972	-6296.06
0.0026,0.9974	-6319.72
0.0030,0.9970	-6296.28
0.0031,0.9969	-6307.91
0.0026,0.9974	-6295.90
0.0020,0.9980	-6308.14
0.0026,0.9974	-6295.94
0.0028,0.9972	-6301.93
0.0026,0.9974	-6325.69
0.0032,0.9968	-6307.95
0.0025,0.9975	-6301.84
0.0022,0.9978	-6307.95
0.0031,0.9969	-6296.33
0.0029,0.9971	-6296.21
0.0029,0.9971	-6302.02
0.0043,0.9957	-6303.51
0.0026,0.9974	-6301.87
0.0020,0.9980	-6301.88
0.0031,0.9969	-6302.12
0.0027,0.9973	-6296.00
0.0030,0.9970	-6313.68
0.0039,0.9961	-6302.98
0.0028,0.9972	-6307.83
0.0017,0.9983	-6302.14
0.0038,0.9962	-6302.80
0.0027,0.9973	-6295.99
0.0031,0.9969	-6302.16
0.0047,0.9953	-6298.78
0.0032,0.9968	-6307.98
0.0013,0.9987	-6302.86
0.0038,0.9962	-6302.80
0.0024,0.9976	-6301.82
0.0027,0.9973	-6296.00
0.0067,0.9933	-6302.51
0.0030,0.9970	-6296.28
0.0012,0.9988	-6296.28
0.0036,0.9964	-6325.10
0.0028,0.9972	-6301.94
0.0024,0.9976	-6313.85
0.0046,0.9954	-6309.33
0.0032,0.9968	-6307.98
0.0015,0.9985	-6295.93
0.0035,0.9965	-6302.52
0.0027,0.9973	-6296.03
0.0021,0.9979	-6295.69
0.0037,0.9963	-6297.18
0.0034,0.9966	-6302.44
0.0018,0.9982	-6295.72
0.0035,0.9965	-6296.85
0.0022,0.9978	-6301.82
0.0019,0.9981	-6308.16
0.0029,0.9971	-6296.21
0.0035,0.9965	-6308.13
0.0015,0.9985	-6295.86
0.0033,0.9967	-6302.33
0.0025,0.9975	-6301.84
0.0020,0.9980	-6301.90
0.0032,0.9968	-6296.45
0.0040,0.9960	-6303.13
0.0016,0.9984	-6295.84
0.0038,0.9962	-6302.78
0.0021,0.9979	-6295.69
0.0018,0.9982	-6308.41
0.0035,0.9965	-6319.46
0.0039,0.9961	-6297.42
0.0014,0.9986	-6295.97
0.0040,0.9960	-6319.62
0.0023,0.9977	-6295.74
0.0016,0.9984	-6295.81
0.0041,0.9959	-6303.24
0.0046,0.9954	-6303.90
0.0018,0.9982	-6302.04
0.0040,0.9960	-6303.09
0.0026,0.9974	-6301.86
0.0015,0.9985	-6295.85
0.0034,0.9966	-6302.41
0.0043,0.9957	-6308.94
0.0020,0.9980	-6308.08
0.0041,0.9959	-6297.65
0.0023,0.9977	-6301.82
0.0017,0.9983	-6302.10
0.0038,0.9962	-6313.96
0.0040,0.9960	-6314.14
0.0026,0.9974	-6301.86
0.0035,0.9965	-6308.15
0.0021,0.9979	-6301.84
0.0018,0.9982	-6295.69
0.0042,0.9958	-6303.37
0.0040,0.9960	-6297.53
0.0031,0.9969	-6307.93
0.0040,0.9960	-6303.03
0.0021,0.9979	-6301.85
0.0016,0.9984	-6302.28
0.0043,0.9957	-6303.48
0.0052,0.9948	-6304.85
0.0035,0.9965	-6296.85
0.0048,0.9952	-6309.55
0.0016,0.9984	-6308.61
0.0019,0.9981	-6295.68
0.0042,0.9958	-6314.29
0.0050,0.9950	-6309.85
0.0032,0.9968	-6307.99
0.0046,0.9954	-6309.34
0.0017,0.9983	-6295.74
0.0017,0.9983	-6302.14
0.0036,0.9964	-6302.59
0.0054,0.9946	-6320.82
0.0037,0.9963	-6302.72
0.0039,0.9961	-6314.03
0.0018,0.9982	-6295.70
0.0018,0.9982	-6302.03
0.0037,0.9963	-6308.33
0.0050,0.9950	-6309.85
0.0034,0.9966	-6313.76
0.0047,0.9953	-6309.36
0.0013,0.9987	-6296.08
0.0017,0.9983	-6302.13
0.0040,0.9960	-6314.10
0.0053,0.9947	-6315.51
0.0027,0.9973	-6301.90
0.0042,0.9958	-6308.78
0.0012,0.9988	-6302.95
0.0018,0.9982	-6295.71
0.0038,0.9962	-6319.56
0.0058,0.9942	-6316.18
0.0023,0.9977	-6295.74
0.0042,0.9958	-6303.37
0.0012,0.9988	-6309.76
0.0021,0.9979	-6295.68
0.0028,0.9972	-6307.83
0.0052,0.9948	-6304.93
0.0029,0.9971	-6302.03
0.0044,0.9956	-6308.99
0.0012,0.9988	-6296.24
0.0020,0.9980	-6308.06
0.0028,0.9972	-6301.93
0.0046,0.9954	-6303.92
0.0032,0.9968	-6313.70
0.0038,0.9962	-6308.43
0.0010,0.9990	-6310.70
0.0016,0.9984	-6302.25
0.0027,0.9973	-6301.90
0.0042,0.9958	-6303.40
0.0026,0.9974	-6301.86
0.0042,0.9958	-6303.32
0.0011,0.9989	-6296.66
0.0016,0.9984	-6295.83
0.0029,0.9971	-6313.69
0.0044,0.9956	-6298.22
0.0034,0.9966	-6302.43
0.0039,0.9961	-6302.96
0.0012,0.9988	-6296.33
0.0018,0.9982	-6302.05
0.0030,0.9970	-6296.31
0.0050,0.9950	-6304.53
0.0029,0.9971	-6296.16
0.0043,0.9957	-6308.92
0.0014,0.9986	-6302.50
0.0017,0.9983	-6302.09
0.0027,0.9973	-6295.95
0.0044,0.9956	-6303.69
0.0025,0.9975	-6319.78
0.0046,0.9954	-6309.22
0.0013,0.9987	-6302.83
0.0019,0.9981	-6295.69
0.0028,0.9972	-6301.96
0.0046,0.9954	-6298.55
0.0024,0.9976	-6295.79
0.0038,0.9962	-6302.78
0.0015,0.9985	-6295.88
0.0017,0.9983	-6295.77
0.0024,0.9976	-6295.77
0.0043,0.9957	-6314.36
0.0028,0.9972	-6307.83
0.0030,0.9970	-6313.69
0.0020,0.9980	-6301.88
0.0012,0.9988	-6296.31
0.0025,0.9975	-6301.83
0.0042,0.9958	-6303.32
0.0027,0.9973	-6301.90
0.0028,0.9972	-6307.83
0.0016,0.9984	-6295.82
0.0016,0.9984	-6295.80
0.0022,0.9978	-6301.83
0.0034,0.9966	-6296.66
0.0023,0.9977	-6295.73
0.0030,0.9970	-6302.10
0.0017,0.9983	-6302.13
0.0018,0.9982	-6302.02
0.0030,0.9970	-6296.26
0.0036,0.9964	-6308.21
0.0026,0.9974	-6295.94
0.0032,0.9968	-6302.24
0.0016,0.9984	-6302.20
0.0018,0.9982	-6295.71
0.0037,0.9963	-6308.32
0.0038,0.9962	-6313.98
0.0021,0.9979	-6301.85
0.0030,0.9970	-6302.06
0.0017,0.9983	-6295.73
0.0018,0.9982	-6295.70
0.0029,0.9971	-6302.01
0.0033,0.9967	-6302.27
0.0025,0.9975	-6307.83
0.0030,0.9970	-6302.06
0.0017,0.9983	-6295.73
0.0019,0.9981	-6314.45
0.0033,0.9967	-6308.02
0.0028,0.9972	-6313.70
0.0025,0.9975	-6301.84
0.0027,0.9973	-6301.89
0.0016,0.9984	-6295.80
0.0019,0.9981	-6301.92
0.0025,0.9975	-6313.79
0.0023,0.9977	-6307.88
0.0025,0.9975	-6301.84
0.0024,0.9976	-6301.82
0.0024,0.9976	-6301.83
0.0019,0.9981	-6295.68
0.0032,0.9968	-6296.43
0.0027,0.9973	-6301.88
0.0029,0.9971	-6296.15
0.0032,0.9968	-6302.19
0.0025,0.9975	-6295.84
0.0019,0.9981	-6295.69
0.0029,0.9971	-6301.99
0.0028,0.9972	-6301.96
0.0026,0.9974	-6301.87
0.0026,0.9974	-6307.82
0.0024,0.9976	-6295.79
0.0015,0.9985	-6295.94
0.0032,0.9968	-6302.26
0.0032,0.9968	-6302.20
0.0026,0.9974	-6295.90
0.0026,0.9974	-6295.88
0.0023,0.9977	-6295.73
0.0015,0.9985	-6295.91
0.0042,0.9958	-6308.81
0.0031,0.9969	-6307.90
0.0029,0.9971	-6307.86
0.0027,0.9973	-6307.82
0.0020,0.9980	-6301.88
0.0017,0.9983	-6302.13
0.0040,0.9960	-6303.10
0.0031,0.9969	-6302.14
0.0022,0.9978	-6295.70
0.0033,0.9967	-6296.66
0.0018,0.9982	-6295.69
0.0016,0.9984	-6295.78
0.0043,0.9957	-6308.90
0.0034,0.9966	-6296.67
0.0021,0.9979	-6295.69
0.0034,0.9966	-6302.45
0.0016,0.9984	-6302.23
0.0020,0.9980	-6301.89
0.0036,0.9964	-6302.63
0.0037,0.9963	-6302.75
0.0022,0.9978	-6301.82
0.0038,0.9962	-6308.43
0.0019,0.9981	-6314.45
0.0023,0.9977	-6301.82
0.0040,0.9960	-6314.11
0.0036,0.9964	-6313.84
0.0020,0.9980	-6314.32
0.0034,0.9966	-6296.68
0.0015,0.9985	-6295.87
0.0027,0.9973	-6295.99
0.0042,0.9958	-6308.85
0.0030,0.9970	-6296.23
0.0019,0.9981	-6295.69
0.0032,0.9968	-6313.71
0.0013,0.9987	-6302.70
0.0023,0.9977	-6307.89
0.0044,0.9956	-6298.26
0.0029,0.9971	-6302.03
0.0023,0.9977	-6301.82
0.0029,0.9971	-6296.18
0.0015,0.9985	-6302.42
0.0023,0.9977	-6295.73
0.0050,0.9950	-6304.55
0.0033,0.9967	-6313.75
0.0025,0.9975	-6295.85
0.0024,0.9976	-6313.88
0.0014,0.9986	-6296.03
0.0017,0.9983	-6295.73
0.0053,0.9947	-6315.52
0.0033,0.9967	-6302.31
0.0024,0.9976	-6307.86
0.0035,0.9965	-6313.79
0.0017,0.9983	-6295.75
0.0017,0.9983	-6302.11
0.0063,0.9937	-6327.05
0.0034,0.9966	-6302.44
0.0020,0.9980	-6301.88
0.0039,0.9961	-6308.54
0.0016,0.9984	-6308.61
0.0018,0.9982	-6295.70
0.0053,0.9947	-6315.51
0.0029,0.9971	-6307.85
0.0018,0.9982	-6302.07
0.0036,0.9964	-6296.94
0.0017,0.9983	-6295.75
0.0013,0.9987	-6296.23
0.0044,0.9956	-6298.25
0.0035,0.9965	-6296.88
0.0015,0.9985	-6302.44
0.0028,0.9972	-6307.83
0.0019,0.9981	-6295.69
0.0016,0.9984	-6302.26
0.0046,0.9954	-6309.30
0.0034,0.9966	-6296.75
0.0013,0.9987	-6296.21
0.0028,0.9972	-6296.10
0.0021,0.9979	-6301.85
0.0019,0.9981	-6295.69
0.0050,0.9950	-6331.03
0.0032,0.9968	-6296.45
0.0014,0.9986	-6302.52
0.0026,0.9974	-6301.85
0.0021,0.9979	-6295.69
0.0018,0.9982	-6295.70
0.0031,0.9969	-6302.13
0.0029,0.9971	-6302.03
0.0019,0.9981	-6295.68
0.0024,0.9976	-6295.82
0.0022,0.9978	-6295.71
0.0016,0.9984	-6302.19
0.0030,0.9970	-6307.88
0.0028,0.9972	-6301.95
0.0022,0.9978	-6301.83
0.0027,0.9973	-6296.01
0.0023,0.9977	-6301.82
0.0011,0.9989	-6296.65
0.0032,0.9968	-6319.45
0.0026,0.9974	-6301.87
0.0021,0.9979	-6308.02
0.0019,0.9981	-6295.69
0.0021,0.9979	-6301.86
0.0009,0.9991	-6304.06
0.0033,0.9967	-6296.55
0.0025,0.9975	-6301.83
0.0018,0.9982	-6301.98
0.0019,0.9981	-6301.92
0.0022,0.9978	-6301.82
0.0010,0.9990	-6296.97
0.0035,0.9965	-6308.15
0.0019,0.9981	-6308.24
0.0018,0.9982	-6295.71
0.0021,0.9979	-6295.68
0.0020,0.9980	-6295.68
0.0009,0.9991	-6297.01
0.0035,0.9965	-6313.80
0.0018,0.9982	-6295.71
0.0019,0.9981	-6308.21
0.0018,0.9982	-6295.71
0.0019,0.9981	-6301.95
0.0009,0.9991	-6297.01
0.0029,0.9971	-6307.84
0.0022,0.9978	-6301.83
0.0020,0.9980	-6295.68
0.0016,0.9984	-6295.78
0.0018,0.9982	-6302.06
0.0010,0.9990	-6317.57
0.0022,0.9978	-6301.83
0.0022,0.9978	-6295.71
0.0022,0.9978	-6307.97
0.0019,0.9981	-6301.98
0.0018,0.9982	-6295.70
0.0011,0.9989	-6296.66
0.0017,0.9983	-6302.15
0.0025,0.9975	-6295.85
0.0020,0.9980	-6295.68
0.0018,0.9982	-6295.69
0.0024,0.9976	-6295.78
0.0011,0.9989	-6303.32
0.0023,0.9977	-6295.74
0.0031,0.9969	-6307.91
0.0021,0.9979	-6301.85
0.0017,0.9983	-6295.76
0.0024,0.9976	-6301.83
0.0013,0.9987	-6296.08
0.0025,0.9975	-6295.88
0.0027,0.9973	-6307.82
0.0014,0.9986	-6309.19
0.0021,0.9979	-6301.87
0.0027,0.9973	-6295.96
0.0012,0.9988	-6296.38
0.0029,0.9971	-6302.01
0.0026,0.9974	-6307.82
0.0011,0.9989	-6296.51
0.0017,0.9983	-6314.88
0.0029,0.9971	-6296.16
0.0014,0.9986	-6302.57
0.0035,0.9965	-6302.55
0.0039,0.9961	-6308.51
0.0010,0.9990	-6303.82
0.0019,0.9981	-6301.95
0.0025,0.9975	-6301.83
0.0017,0.9983	-6302.10
0.0042,0.9958	-6314.30
0.0037,0.9963	-6297.19
0.0011,0.9989	-6303.36
0.0022,0.9978	-6301.82
0.0021,0.9979	-6301.87
0.0017,0.9983	-6295.73
0.0039,0.9961	-6308.49
0.0036,0.9964	-6296.93
0.0012,0.9988	-6296.36
0.0021,0.9979	-6301.86
0.0027,0.9973	-6295.97
0.0017,0.9983	-6295.77
0.0037,0.9963	-6313.88
0.0028,0.9972	-6313.70
0.0012,0.9988	-6302.98
0.0023,0.9977	-6301.82
0.0025,0.9975	-6301.83
0.0015,0.9985	-6302.36
0.0045,0.9955	-6303.82
0.0031,0.9969	-6313.69
0.0012,0.9988	-6296.41
0.0023,0.9977	-6307.90
0.0020,0.9980	-6308.14
0.0018,0.9982	-6295.72
0.0041,0.9959	-6319.69
0.0032,0.9968	-6302.19
0.0014,0.9986	-6302.52
0.0025,0.9975	-6301.84
0.0021,0.9979	-6308.01
0.0016,0.9984	-6295.78
0.0032,0.9968	-6302.19
0.0037,0.9963	-6302.69
0.0017,0.9983	-6295.77
0.0023,0.9977	-6295.75
0.0019,0.9981	-6308.22
0.0016,0.9984	-6295.85
0.0025,0.9975	-6301.84
0.0038,0.9962	-6313.95
0.0017,0.9983	-6295.73
0.0024,0.9976	-6313.90
0.0016,0.9984	-6295.78
0.0016,0.9984	-6302.26
0.0023,0.9977	-6307.88
0.0037,0.9963	-6302.71
0.0016,0.9984	-6302.20
0.0030,0.9970	-6307.89
0.0018,0.9982	-6314.73
0.0016,0.9984	-6302.25
0.0021,0.9979	-6314.20
0.0035,0.9965	-6313.80
0.0013,0.9987	-6302.72
0.0027,0.9973	-6313.73
0.0018,0.9982	-6302.00
0.0013,0.9987	-6296.19
0.0016,0.9984	-6302.28
0.0034,0.9966	-6302.45
0.0012,0.9988	-6296.28
0.0031,0.9969	-6302.14
0.0022,0.9978	-6295.71
0.0013,0.9987	-6296.14
0.0016,0.9984	-6308.74
0.0039,0.9961	-6302.95
0.0013,0.9987	-6309.59
0.0036,0.9964	-6302.58
0.0022,0.9978	-6295.71
0.0015,0.9985	-6302.41
0.0013,0.9987	-6296.11
0.0036,0.9964	-6296.94
0.0014,0.9986	-6295.97
0.0029,0.9971	-6296.19
0.0023,0.9977	-6307.91
0.0018,0.9982	-6302.03
0.0015,0.9985	-6295.88
0.0033,0.9967	-6296.56
0.0015,0.9985	-6295.92
0.0024,0.9976	-6301.82
0.0027,0.9973	-6295.97
0.0017,0.9983	-6295.72
0.0013,0.9987	-6309.39
0.0034,0.9966	-6313.75
0.0016,0.9984	-6302.27
0.0023,0.9977	-6295.74
0.0030,0.9970	-6302.07
0.0016,0.9984	-6295.78
0.0015,0.9985	-6308.96
0.0031,0.9969	-6307.91
0.0018,0.9982	-6302.00
0.0022,0.9978	-6314.04
0.0028,0.9972	-6296.09
0.0017,0.9983	-6302.12
0.0013,0.9987	-6296.13
0.0032,0.9968	-6302.20
0.0025,0.9975	-6295.83
0.0022,0.9978	-6301.84
0.0026,0.9974	-6301.86
0.0017,0.9983	-6295.76
0.0010,0.9990	-6296.78
0.0031,0.9969	-6296.42
0.0021,0.9979	-6301.84
0.0023,0.9977	-6307.90
0.0027,0.9973	-6296.02
0.0018,0.9982	-6295.70
0.0011,0.9989	-6296.57
0.0033,0.9967	-6308.02
0.0026,0.9974	-6307.81
0.0028,0.9972	-6301.96
0.0026,0.9974	-6295.94
0.0017,0.9983	-6295.77
0.0010,0.9990	-6296.97
0.0037,0.9963	-6313.93
0.0026,0.9974	-6307.82
0.0023,0.9977	-6307.88
0.0025,0.9975	-6301.85
0.0014,0.9986	-6302.57
0.0010,0.9990	-6296.85
0.0029,0.9971	-6296.15
0.0025,0.9975	-6301.83
0.0031,0.9969	-6307.93
0.0031,0.9969	-6302.14
0.0010,0.9990	-6303.70
0.0010,0.9990	-6296.94
0.0024,0.9976	-6301.82
0.0026,0.9974	-6301.86
0.0026,0.9974	-6301.86
0.0028,0.9972	-6301.94
0.0011,0.9989	-6296.58
0.0013,0.9987	-6316.02
0.0017,0.9983	-6302.11
0.0025,0.9975	-6301.84
0.0021,0.9979	-6301.87
0.0024,0.9976	-6295.77
0.0009,0.9991	-6304.04
0.0012,0.9988	-6303.14
0.0018,0.9982	-6302.04
0.0022,0.9978	-6301.83
0.0017,0.9983	-6302.15
0.0021,0.9979	-6314.17
0.0011,0.9989	-6303.52
0.0013,0.9987	-6302.84
0.0019,0.9981	-6301.97
0.0019,0.9981	-6301.93
0.0015,0.9985	-6295.85
0.0020,0.9980	-6295.68
0.0013,0.9987	-6309.55
0.0015,0.9985	-6295.90
0.0018,0.9982	-6295.72
0.0024,0.9976	-6295.81
0.0013,0.9987	-6302.87
0.0022,0.9978	-6295.71
0.0016,0.9984	-6302.29
0.0017,0.9983	-6302.12
0.0017,0.9983	-6295.75
0.0023,0.9977	-6301.82
0.0010,0.9990	-6296.90
0.0022,0.9978	-6301.83
0.0014,0.9986	-6296.03
0.0017,0.9983	-6295.73
0.0019,0.9981	-6295.68
0.0025,0.9975	-6301.83
0.0010,0.9990	-6296.69
0.0018,0.9982	-6302.04
0.0011,0.9989	-6303.48
0.0012,0.9988	-6296.30
0.0016,0.9984	-6295.79
0.0019,0.9981	-6295.68
0.0012,0.9988	-6296.27
0.0018,0.9982	-6295.71
0.0012,0.9988	-6303.17
0.0013,0.9987	-6309.42
0.0013,0.9987	-6302.79
0.0022,0.9978	-6301.83
0.0015,0.9985	-6295.94
0.0025,0.9975	-6307.84
0.0011,0.9989	-6296.53
0.0017,0.9983	-6295.75
0.0013,0.9987	-6296.17
0.0018,0.9982	-6302.00
0.0018,0.9982	-6302.05
0.0028,0.9972	-6301.94
0.0011,0.9989	-6303.52
0.0019,0.9981	-6301.95
0.0012,0.9988	-6302.99
0.0019,0.9981	-6295.69
0.0019,0.9981	-6295.68
0.0026,0.9974	-6307.82
0.0011,0.9989	-6317.12
0.0018,0.9982	-6295.70
0.0010,0.9990	-6296.71
0.0013,0.9987	-6302.79
0.0018,0.9982	-6302.05
0.0031,0.9969	-6302.15
0.0010,0.9990	-6296.68
0.0019,0.9981	-6295.69
0.0009,0.9991	-6297.00
0.0019,0.9981	-6301.94
0.0017,0.9983	-6302.12
0.0029,0.9971	-6296.17
0.0011,0.9989	-6296.53
0.0021,0.9979	-6308.00
0.0010,0.9990	-6303.77
0.0019,0.9981	-6301.92
0.0013,0.9987	-6302.71
0.0040,0.9960	-6297.56
0.0011,0.9989	-6303.35
0.0025,0.9975	-6301.83
0.0011,0.9989	-6296.57
0.0016,0.9984	-6308.75
0.0016,0.9984	-6302.27
0.0033,0.9967	-6313.74
0.0012,0.9988	-6309.73
0.0026,0.9974	-6307.82
0.0011,0.9989	-6296.51
0.0010,0.9990	-6296.69
0.0017,0.9983	-6295.74
0.0028,0.9972	-6301.93
0.0018,0.9982	-6308.35
0.0029,0.9971	-6302.00
0.0013,0.9987	-6296.18
0.0011,0.9989	-6296.62
0.0017,0.9983	-6295.76
0.0033,0.9967	-6302.33
0.0014,0.9986	-6295.98
0.0031,0.9969	-6302.13
0.0018,0.9982	-6301.99
0.0011,0.9989	-6296.53
0.0019,0.9981	-6295.69
0.0026,0.9974	-6301.87
0.0013,0.9987	-6296.17
0.0026,0.9974	-6295.91
0.0018,0.9982	-6301.98
0.0012,0.9988	-6296.23
0.0022,0.9978	-6301.83
0.0022,0.9978	-6301.82
0.0016,0.9984	-6308.72
0.0027,0.9973	-6296.00
0.0023,0.9977	-6301.82
0.0013,0.9987	-6296.12
0.0019,0.9981	-6301.94
0.0021,0.9979	-6301.85
0.0020,0.9980	-6295.68
0.0027,0.9973	-6295.96
0.0022,0.9978	-6301.83
0.0013,0.9987	-6296.08
0.0021,0.9979	-6301.86
0.0026,0.9974	-6319.75
0.0025,0.9975	-6301.83
0.0026,0.9974	-6295.94
0.0029,0.9971	-6307.85
0.0013,0.9987	-6309.54
0.0020,0.9980	-6308.14
0.0034,0.9966	-6319.44
0.0026,0.9974	-6301.87
0.0022,0.9978	-6295.72
0.0029,0.9971	-6307.84
0.0013,0.9987	-6302.88
0.0020,0.9980	-6295.68
0.0034,0.9966	-6302.39
0.0027,0.9973	-6301.89
0.0023,0.9977	-6295.76
0.0036,0.9964	-6302.63
0.0012,0.9988	-6296.40
0.0020,0.9980	-6301.90
0.0027,0.9973	-6296.03
0.0025,0.9975	-6307.84
0.0023,0.9977	-6295.73
0.0039,0.9961	-6302.99
0.0012,0.9988	-6296.40
0.0023,0.9977	-6301.82
0.0024,0.9976	-6295.81
0.0030,0.9970	-6296.25
0.0028,0.9972	-6307.83
0.0045,0.9955	-6303.79
0.0012,0.9988	-6296.30
0.0029,0.9971	-6296.18
0.0017,0.9983	-6308.53
0.0025,0.9975	-6295.87
0.0032,0.9968	-6302.22
0.0033,0.9967	-6296.63
0.0012,0.9988	-6296.33
0.0032,0.9968	-6313.71
0.0020,0.9980	-6301.90
0.0023,0.9977	-6295.75
0.0044,0.9956	-6319.90
0.0032,0.9968	-6296.53
0.0013,0.9987	-6302.87
0.0038,0.9962	-6308.39
0.0021,0.9979	-6301.85
0.0033,0.9967	-6308.04
0.0041,0.9959	-6297.73
0.0029,0.9971	-6301.99
0.0013,0.9987	-6296.09
0.0034,0.9966	-6296.71
0.0018,0.9982	-6295.70
0.0031,0.9969	-6313.69
0.0032,0.9968	-6296.51
0.0029,0.9971	-6307.86
0.0014,0.9986	-6296.01
0.0030,0.9970	-6302.05
0.0021,0.9979	-6295.68
0.0032,0.9968	-6302.20
0.0035,0.9965	-6302.51
0.0032,0.9968	-6307.98
0.0015,0.9985	-6295.86
0.0031,0.9969	-6302.12
0.0024,0.9976	-6313.87
0.0032,0.9968	-6296.52
0.0035,0.9965	-6302.47
0.0034,0.9966	-6308.12
0.0013,0.9987	-6302.80
0.0027,0.9973	-6295.98
0.0021,0.9979	-6308.00
0.0030,0.9970	-6302.10
0.0037,0.9963	-6308.32
0.0041,0.9959	-6308.70
0.0011,0.9989	-6296.57
0.0028,0.9972	-6313.71
0.0023,0.9977	-6295.74
0.0031,0.9969	-6296.35
0.0043,0.9957	-6297.99
0.0038,0.9962	-6302.81
0.0010,0.9990	-6296.72
0.0033,0.9967	-6296.58
0.0023,0.9977	-6295.75
0.0026,0.9974	-6295.89
0.0034,0.9966	-6308.09
0.0047,0.9953	-6298.66
0.0012,0.9988	-6303.11
0.0031,0.9969	-6302.17
0.0020,0.9980	-6301.87
0.0030,0.9970	-6296.23
0.0034,0.9966	-6302.45
0.0036,0.9964	-6319.48
0.0013,0.9987	-6302.68
0.0034,0.9966	-6308.05
0.0020,0.9980	-6301.90
0.0026,0.9974	-6295.88
0.0034,0.9966	-6313.76
0.0039,0.9961	-6341.73
0.0014,0.9986	-6296.05
0.0035,0.9965	-6302.51
0.0017,0.9983	-6302.09
0.0030,0.9970	-6307.86
0.0043,0.9957	-6308.87
0.0033,0.9967	-6296.56
0.0016,0.9984	-6302.31
0.0033,0.9967	-6302.33
0.0017,0.9983	-6295.77
0.0035,0.9965	-6302.51
0.0040,0.9960	-6308.56
0.0029,0.9971	-6296.16
0.0016,0.9984	-6302.25
0.0033,0.9967	-6302.29
0.0025,0.9975	-6301.84
0.0043,0.9957	-6308.95
0.0043,0.9957	-6308.95
0.0027,0.9973	-6301.90
0.0020,0.9980	-6295.68
0.0031,0.9969	-6307.92
0.0023,0.9977	-6301.82
0.0050,0.9950	-6304.53
0.0046,0.9954	-6303.97
0.0031,0.9969	-6302.16
0.0021,0.9979	-6314.22
0.0029,0.9971	-6301.98
0.0017,0.9983	-6308.48
0.0052,0.9948	-6315.40
0.0042,0.9958	-6303.37
0.0034,0.9966	-6308.08
0.0022,0.9978	-6307.96
0.0029,0.9971	-6307.84
0.0019,0.9981	-6295.68
0.0048,0.9952	-6304.19
0.0041,0.9959	-6303.20
0.0026,0.9974	-6301.86
0.0028,0.9972	-6296.11
0.0031,0.9969	-6296.37
0.0019,0.9981	-6301.95
0.0037,0.9963	-6313.90
0.0047,0.9953	-6304.07
0.0029,0.9971	-6296.15
0.0025,0.9975	-6295.87
0.0024,0.9976	-6301.82
0.0021,0.9979	-6295.69
0.0048,0.9952	-6298.94
0.0032,0.9968	-6302.22
0.0027,0.9973	-6295.96
0.0033,0.9967	-6302.33
0.0025,0.9975	-6319.84
0.0025,0.9975	-6301.83
0.0041,0.9959	-6303.15
0.0031,0.9969	-6302.14
0.0029,0.9971	-6301.98
0.0027,0.9973	-6319.62
0.0022,0.9978	-6307.95
0.0026,0.9974	-6295.92
0.0042,0.9958	-6303.40
0.0042,0.9958	-6303.30
0.0026,0.9974	-6301.88
0.0029,0.9971	-6307.85
0.0020,0.9980	-6295.68
0.0026,0.9974	-6301.86
0.0047,0.9953	-6304.04
0.0041,0.9959	-6303.19
0.0029,0.9971	-6296.16
0.0027,0.9973	-6301.90
0.0017,0.9983	-6302.10
0.0028,0.9972	-6296.06
0.0035,0.9965	-6296.79
0.0031,0.9969	-6307.92
0.0023,0.9977	-6295.75
0.0024,0.9976	-6319.88
0.0020,0.9980	-6320.47
0.0029,0.9971	-6302.03
0.0030,0.9970	-6296.31
0.0034,0.9966	-6302.41
0.0026,0.9974	-6295.93
0.0025,0.9975	-6301.83
0.0021,0.9979	-6301.85
0.0033,0.9967	-6308.01
0.0031,0.9969	-6302.16
0.0039,0.9961	-6297.42
0.0033,0.9967	-6308.02
0.0025,0.9975	-6295.88
0.0023,0.9977	-6301.82
0.0040,0.9960	-6303.13
0.0030,0.9970	-6307.89
0.0036,0.9964	-6302.59
0.0022,0.9978	-6301.82
0.0029,0.9971	-6307.84
0.0022,0.9978	-6295.70
0.0042,0.9958	-6303.28
0.0032,0.9968	-6296.47
0.0035,0.9965	-6308.14
0.0016,0.9984	-6295.81
0.0029,0.9971	-6296.18
0.0023,0.9977	-6307.89
0.0035,0.9965	-6302.49
0.0031,0.9969	-6296.39
0.0033,0.9967	-6296.55
0.0017,0.9983	-6302.09
0.0033,0.9967	-6302.35
0.0023,0.9977	-6301.82
0.0031,0.9969	-6296.42
0.0032,0.9968	-6302.19
0.0027,0.9973	-6296.01
0.0024,0.9976	-6307.84
0.0031,0.9969	-6302.12
0.0025,0.9975	-6307.83
0.0039,0.9961	-6308.53
0.0035,0.9965	-6302.54
0.0037,0.9963	-6302.67
0.0017,0.9983	-6295.73
0.0029,0.9971	-6302.04
0.0022,0.9978	-6295.71
0.0038,0.9962	-6308.43
0.0033,0.9967	-6308.01
0.0033,0.9967	-6313.74
0.0022,0.9978	-6307.97
0.0026,0.9974	-6295.95
0.0023,0.9977	-6313.95
0.0035,0.9965	-6296.90
0.0027,0.9973	-6301.92
0.0033,0.9967	-6302.35
0.0026,0.9974	-6301.85
0.0023,0.9977	-6295.73
0.0020,0.9980	-6295.68
0.0031,0.9969	-6302.13
0.0025,0.9975	-6301.83
0.0029,0.9971	-6296.15
0.0025,0.9975	-6301.83
0.0025,0.9975	-6301.83
0.0018,0.9982	-6295.72
0.0024,0.9976	-6313.89
0.0024,0.9976	-6307.85
0.0028,0.9972	-6301.97
0.0027,0.9973	-6295.96
0.0023,0.9977	-6307.90
0.0015,0.9985	-6295.89
0.0022,0.9978	-6295.70
0.0028,0.9972	-6307.83
0.0027,0.9973	-6301.91
0.0022,0.9978	-6301.83
0.0027,0.9973	-6295.98
0.0018,0.9982	-6295.71
0.0022,0.9978	-6301.83
0.0024,0.9976	-6307.84
0.0022,0.9978	-6295.72
0.0022,0.9978	-6307.97
0.0026,0.9974	-6295.94
0.0018,0.9982	-6314.74
0.0023,0.9977	-6295.73
0.0026,0.9974	-6301.87
0.0024,0.9976	-6295.79
0.0020,0.9980	-6301.88
0.0029,0.9971	-6301.99
0.0018,0.9982	-6308.33
0.0028,0.9972	-6307.83
0.0027,0.9973	-6295.97
0.0023,0.9977	-6295.75
0.0019,0.9981	-6295.69
0.0027,0.9973	-6307.82
0.0018,0.9982	-6295.71
0.0028,0.9972	-6296.11
0.0024,0.9976	-6295.79
0.0024,0.9976	-6307.84
0.0023,0.9977	-6313.98
0.0028,0.9972	-6307.82
0.0014,0.9986	-6295.99
0.0027,0.9973	-6301.89
0.0031,0.9969	-6302.17
0.0026,0.9974	-6295.93
0.0023,0.9977	-6295.73
0.0023,0.9977	-6295.76
0.0015,0.9985	-6295.91
0.0024,0.9976	-6301.83
0.0035,0.9965	-6308.14
0.0030,0.9970	-6302.07
0.0024,0.9976	-6295.81
0.0028,0.9972	-6301.93
0.0016,0.9984	-6295.81
0.0024,0.9976	-6295.80
0.0032,0.9968	-6296.46
0.0033,0.9967	-6296.60
0.0023,0.9977	-6295.76
0.0027,0.9973	-6313.73
0.0014,0.9986	-6295.95
0.0023,0.9977	-6295.74
0.0026,0.9974	-6307.82
0.0034,0.9966	-6313.75
0.0028,0.9972	-6296.04
0.0024,0.9976	-6301.83
0.0017,0.9983	-6295.76
0.0024,0.9976	-6295.79
0.0031,0.9969	-6302.11
0.0032,0.9968	-6296.52
0.0025,0.9975	-6295.84
0.0031,0.9969	-6302.11
0.0014,0.9986	-6295.97
0.0025,0.9975	-6301.84
0.0028,0.9972	-6296.12
0.0033,0.9967	-6313.73
0.0022,0.9978	-6314.06
0.0030,0.9970	-6313.69
0.0018,0.9982	-6302.06
0.0029,0.9971	-6302.00
0.0021,0.9979	-6301.86
0.0029,0.9971	-6302.02
0.0022,0.9978	-6295.72
0.0027,0.9973	-6301.92
0.0018,0.9982	-6295.72
0.0025,0.9975	-6301.83
0.0024,0.9976	-6307.85
0.0030,0.9970	-6307.88
0.0022,0.9978	-6301.83
0.0023,0.9977	-6301.82
0.0018,0.9982	-6295.71
0.0028,0.9972	-6307.82
0.0027,0.9973	-6307.81
0.0032,0.9968	-6307.99
0.0027,0.9973	-6301.91
0.0026,0.9974	-6295.90
0.0021,0.9979	-6295.68
0.0023,0.9977	-6295.76
0.0023,0.9977	-6307.88
0.0028,0.9972	-6319.57
0.0034,0.9966	-6296.73
0.0026,0.9974	-6295.92
0.0022,0.9978	-6295.72
0.0024,0.9976	-6325.96
0.0030,0.9970	-6302.05
0.0026,0.9974	-6301.86
0.0032,0.9968	-6302.25
0.0024,0.9976	-6307.85
0.0019,0.9981	-6314.54
0.0024,0.9976	-6307.86
0.0032,0.9968	-6302.21
0.0029,0.9971	-6301.99
0.0030,0.9970	-6296.29
0.0027,0.9973	-6295.97
0.0020,0.9980	-6301.88
0.0017,0.9983	-6295.76
0.0032,0.9968	-6302.19
0.0030,0.9970	-6302.10
0.0031,0.9969	-6313.69
0.0023,0.9977	-6295.75
0.0021,0.9979	-6301.86
0.0017,0.9983	-6302.09
0.0024,0.9976	-6295.80
0.0032,0.9968	-6319.45
0.0033,0.9967	-6313.75
0.0022,0.9978	-6307.93
0.0020,0.9980	-6295.68
0.0015,0.9985	-6295.85
0.0032,0.9968	-6302.26
0.0033,0.9967	-6308.05
0.0025,0.9975	-6295.86
0.0024,0.9976	-6301.83
0.0017,0.9983	-6308.43
0.0019,0.9981	-6295.69
0.0031,0.9969	-6302.14
0.0032,0.9968	-6296.47
0.0026,0.9974	-6301.87
0.0023,0.9977	-6301.82
0.0022,0.9978	-6314.03
0.0021,0.9979	-6308.01
0.0031,0.9969	-6302.16
0.0030,0.9970	-6302.05
0.0025,0.9975	-6295.84
0.0026,0.9974	-6307.82
0.0026,0.9974	-6301.88
0.0019,0.9981	-6308.23
0.0037,0.9963	-6297.15
0.0028,0.9972	-6307.83
0.0025,0.9975	-6301.83
0.0026,0.9974	-6301.86
0.0025,0.9975	-6301.85
0.0017,0.9983	-6302.14
0.0033,0.9967	-6308.03
0.0024,0.9976	-6295.78
0.0026,0.9974	-6295.94
0.0028,0.9972	-6301.93
0.0020,0.9980	-6301.91
0.0017,0.9983	-6295.76
0.0034,0.9966	-6319.44
0.0020,0.9980	-6295.68
0.0025,0.9975	-6307.82
0.0030,0.9970	-6296.26
0.0019,0.9981	-6295.68
0.0021,0.9979	-6295.68
0.0035,0.9965	-6319.46
0.0023,0.9977	-6295.73
0.0035,0.9965	-6302.53
0.0036,0.9964	-6302.56
0.0019,0.9981	-6308.16
0.0026,0.9974	-6295.95
0.0037,0.9963	-6302.69
0.0024,0.9976	-6295.82
0.0037,0.9963	-6302.75
0.0032,0.9968	-6307.98
0.0020,0.9980	-6295.68
0.0027,0.9973	-6296.00
0.0043,0.9957	-6314.33
0.0027,0.9973	-6296.02
0.0035,0.9965	-6302.54
0.0035,0.9965	-6308.16
0.0023,0.9977	-6295.73
0.0024,0.9976	-6301.83
0.0036,0.9964	-6302.60
0.0029,0.9971	-6302.00
0.0036,0.9964	-6308.25
0.0028,0.9972	-6301.97
0.0023,0.9977	-6301.82
0.0023,0.9977	-6295.75
0.0035,0.9965	-6308.19
0.0033,0.9967	-6308.03
0.0035,0.9965	-6302.51
0.0027,0.9973	-6296.01
0.0025,0.9975	-6301.84
0.0022,0.9978	-6295.71
0.0041,0.9959	-6308.67
0.0035,0.9965	-6308.18
0.0028,0.9972	-6307.83
0.0036,0.9964	-6297.00
0.0023,0.9977	-6295.77
0.0019,0.9981	-6301.97
0.0048,0.9952	-6309.61
0.0037,0.9963	-6313.89
0.0033,0.9967	-6302.30
0.0031,0.9969	-6313.69
0.0023,0.9977	-6301.82
0.0020,0.9980	-6301.89
0.0061,0.9939	-6306.38
0.0034,0.9966	-6296.70
0.0029,0.9971	-6301.99
0.0028,0.9972	-6307.84
0.0022,0.9978	-6301.83
0.0019,0.9981	-6301.96
0.0061,0.9939	-6316.64
0.0032,0.9968	-6302.24
0.0030,0.9970	-6307.89
0.0026,0.9974	-6307.82
0.0019,0.9981	-6301.94
0.0016,0.9984	-6295.84
0.0052,0.9948	-6310.09
0.0030,0.9970	-6296.27
0.0029,0.9971	-6296.14
0.0027,0.9973	-6301.89
0.0016,0.9984	-6302.30
0.0023,0.9977	-6301.82
0.0040,0.9960	-6297.53
0.0027,0.9973	-6307.81
0.0027,0.9973	-6301.92
0.0030,0.9970	-6302.08
0.0018,0.9982	-6295.71
0.0027,0.9973	-6301.89
0.0044,0.9956	-6314.42
0.0019,0.9981	-6295.68
0.0023,0.9977	-6295.76
0.0026,0.9974	-6295.90
0.0018,0.9982	-6302.00
0.0025,0.9975	-6307.82
0.0042,0.9958	-6308.83
0.0020,0.9980	-6301.89
0.0019,0.9981	-6301.98
0.0025,0.9975	-6295.84
0.0020,0.9980	-6295.68
0.0030,0.9970	-6302.08
0.0033,0.9967	-6308.02
0.0020,0.9980	-6295.68
0.0023,0.9977	-6301.82
0.0026,0.9974	-6295.90
0.0021,0.9979	-6295.69
0.0022,0.9978	-6295.71
0.0037,0.9963	-6302.68
0.0019,0.9981	-6301.95
0.0023,0.9977	-6301.82
0.0030,0.9970	-6302.07
0.0025,0.9975	-6313.82
0.0023,0.9977	-6301.82
0.0046,0.9954	-6303.88
0.0026,0.9974	-6295.90
0.0019,0.9981	-6295.69
0.0029,0.9971	-6302.03
0.0024,0.9976	-6307.84
0.0035,0.9965	-6308.18
0.0051,0.9949	-6315.28
0.0025,0.9975	-6295.86
0.0023,0.9977	-6301.82
0.0027,0.9973	-6296.02
0.0026,0.9974	-6301.87
0.0039,0.9961	-6297.47
0.0047,0.9953	-6298.63
0.0028,0.9972	-6296.11
0.0018,0.9982	-6302.06
0.0031,0.9969	-6296.36
0.0020,0.9980	-6301.87
0.0048,0.9952	-6309.59
0.0047,0.9953	-6314.82
0.0030,0.9970	-6296.27
0.0019,0.9981	-6308.19
0.0034,0.9966	-6296.74
0.0017,0.9983	-6295.77
0.0046,0.9954	-6303.85
0.0046,0.9954	-6303.84
0.0025,0.9975	-6295.87
0.0018,0.9982	-6302.00
0.0029,0.9971	-6302.00
0.0022,0.9978	-6295.70
0.0035,0.9965	-6302.53
0.0052,0.9948	-6299.64
0.0024,0.9976	-6313.89
0.0014,0.9986	-6309.07
0.0026,0.9974	-6295.93
0.0021,0.9979	-6295.68
0.0045,0.9955	-6298.30
0.0053,0.9947	-6305.04
0.0023,0.9977	-6307.89
0.0014,0.9986	-6296.04
0.0025,0.9975	-6307.83
0.0022,0.9978	-6295.70
0.0041,0.9959	-6303.20
0.0041,0.9959	-6308.74
0.0025,0.9975	-6295.88
0.0013,0.9987	-6296.21
0.0026,0.9974	-6295.93
0.0025,0.9975	-6301.83
0.0036,0.9964	-6296.95
0.0045,0.9955	-6303.76
0.0023,0.9977	-6301.82
0.0013,0.9987	-6309.50
0.0032,0.9968	-6302.19
0.0023,0.9977	-6307.90
0.0037,0.9963	-6302.67
0.0051,0.9949	-6309.93
0.0022,0.9978	-6295.72
0.0014,0.9986	-6296.04
0.0035,0.9965	-6302.46
0.0026,0.9974	-6295.91
0.0035,0.9965	-6302.48
0.0045,0.9955	-6314.55
0.0025,0.9975	-6301.85
0.0012,0.9988	-6296.23
0.0041,0.9959	-6303.16
0.0021,0.9979	-6301.85
0.0028,0.9972	-6296.12
0.0042,0.9958	-6308.81
0.0022,0.9978	-6307.96
0.0015,0.9985	-6295.93
0.0034,0.9966	-6308.06
0.0019,0.9981	-6295.69
0.0032,0.9968	-6313.72
0.0031,0.9969	-6296.43
0.0019,0.9981	-6301.95
0.0013,0.9987	-6296.12
0.0034,0.9966	-6308.11
0.0016,0.9984	-6295.84
0.0032,0.9968	-6302.21
0.0030,0.9970	-6302.07
0.0019,0.9981	-6295.69
0.0013,0.9987	-6296.12
0.0039,0.9961	-6308.48
0.0015,0.9985	-6302.37
0.0033,0.9967	-6308.00
0.0030,0.9970	-6296.24
0.0018,0.9982	-6295.70
0.0013,0.9987	-6296.14
0.0046,0.9954	-6330.81
0.0014,0.9986	-6315.56
0.0033,0.9967	-6308.04
0.0031,0.9969	-6313.70
0.0016,0.9984	-6295.82
0.0015,0.9985	-6302.38
0.0046,0.9954	-6320.06
0.0016,0.9984	-6308.63
0.0026,0.9974	-6295.89
0.0031,0.9969	-6313.69
0.0020,0.9980	-6295.68
0.0015,0.9985	-6302.46
0.0040,0.9960	-6319.61
0.0018,0.9982	-6302.01
0.0028,0.9972	-6301.94
0.0028,0.9972	-6301.96
0.0018,0.9982	-6295.71
0.0016,0.9984	-6295.81
0.0046,0.9954	-6314.68
0.0017,0.9983	-6295.75
0.0027,0.9973	-6296.03
0.0033,0.9967	-6313.72
0.0018,0.9982	-6295.70
0.0015,0.9985	-6302.33
0.0052,0.9948	-6315.35
0.0018,0.9982	-6302.05
0.0022,0.9978	-6295.71
0.0038,0.9962	-6308.44
0.0019,0.9981	-6295.68
0.0014,0.9986	-6295.95
0.0039,0.9961	-6302.94
0.0016,0.9984	-6295.79
0.0019,0.9981	-6308.24
0.0036,0.9964	-6302.62
0.0022,0.9978	-6301.83
0.0016,0.9984	-6302.24
0.0037,0.9963	-6297.12
0.0018,0.9982	-6301.99
0.0020,0.9980	-6295.68
0.0032,0.9968	-6319.45
0.0025,0.9975	-6319.82
0.0016,0.9984	-6295.78
0.0033,0.9967	-6296.65
0.0013,0.9987	-6296.18
0.0019,0.9981	-6301.97
0.0040,0.9960	-6308.59
0.0022,0.9978	-6314.04
0.0015,0.9985	-6302.45
0.0033,0.9967	-6302.31
0.0018,0.9982	-6302.00
0.0020,0.9980	-6314.31
0.0036,0.9964	-6308.21
0.0022,0.9978	-6301.83
0.0012,0.9988	-6296.29
0.0034,0.9966	-6302.39
0.0022,0.9978	-6301.83
0.0024,0.9976	-6295.80
0.0036,0.9964	-6296.93
0.0028,0.9972	-6301.95
0.0012,0.9988	-6303.13
0.0030,0.9970	-6302.04
0.0020,0.9980	-6301.89
0.0033,0.9967	-6308.03
0.0041,0.9959	-6319.69
0.0025,0.9975	-6307.82
0.0010,0.9990	-6296.91
0.0027,0.9973	-6301.90
0.0017,0.9983	-6295.75
0.0033,0.9967	-6325.15
0.0034,0.9966	-6296.67
0.0030,0.9970	-6296.31
0.0010,0.9990	-6296.90
0.0027,0.9973	-6307.82
0.0014,0.9986	-6295.96
0.0033,0.9967	-6302.33
0.0034,0.9966	-6296.73
0.0025,0.9975	-6307.83
0.0012,0.9988	-6309.61
0.0024,0.9976	-6313.87
0.0017,0.9983	-6295.76
0.0037,0.9963	-6313.88
0.0039,0.9961	-6302.90
0.0026,0.9974	-6295.91
0.0010,0.9990	-6303.65
0.0025,0.9975	-6295.87
0.0016,0.9984	-6308.68
0.0038,0.9962	-6302.81
0.0030,0.9970	-6319.49
0.0027,0.9973	-6307.81
0.0011,0.9989	-6303.46
0.0020,0.9980	-6308.08
0.0017,0.9983	-6302.12
0.0048,0.9952	-6320.19
0.0040,0.9960	-6314.09
0.0028,0.9972	-6301.94
0.0009,0.9991	-6297.02
0.0020,0.9980	-6301.87
0.0021,0.9979	-6307.99
0.0051,0.9949	-6299.51
0.0043,0.9957	-6314.35
0.0028,0.9972	-6307.82
0.0014,0.9986	-6296.05
0.0023,0.9977	-6295.76
0.0026,0.9974	-6301.88
0.0046,0.9954	-6303.97
0.0035,0.9965	-6302.50
0.0023,0.9977	-6301.82
0.0012,0.9988	-6296.40
0.0022,0.9978	-6301.82
0.0027,0.9973	-6295.95
0.0034,0.9966	-6296.76
0.0025,0.9975	-6301.84
0.0022,0.9978	-6295.71
0.0017,0.9983	-6308.47
0.0024,0.9976	-6295.81
0.0028,0.9972	-6307.83
0.0038,0.9962	-6308.43
0.0030,0.9970	-6302.08
0.0023,0.9977	-6295.75
0.0018,0.9982	-6301.98
0.0024,0.9976	-6295.80
0.0024,0.9976	-6295.81
0.0038,0.9962	-6302.86
0.0023,0.9977	-6307.87
0.0031,0.9969	-6307.94
0.0018,0.9982	-6301.99
0.0032,0.9968	-6296.50
0.0031,0.9969	-6307.94
0.0036,0.9964	-6296.97
0.0023,0.9977	-6301.82
0.0028,0.9972	-6301.95
0.0027,0.9973	-6307.82
0.0036,0.9964	-6308.25
0.0031,0.9969	-6302.13
0.0027,0.9973	-6295.99
0.0023,0.9977	-6301.82
0.0036,0.9964	-6308.21
0.0030,0.9970	-6319.48
0.0036,0.9964	-6296.93
0.0026,0.9974	-6307.82
0.0030,0.9970	-6302.05
0.0023,0.9977	-6313.94
0.0038,0.9962	-6297.20
0.0032,0.9968	-6302.25
0.0035,0.9965	-6302.49
0.0020,0.9980	-6314.28
0.0030,0.9970	-6296.32
0.0018,0.9982	-6302.07
0.0039,0.9961	-6314.03
0.0032,0.9968	-6296.53
0.0034,0.9966	-6302.43
0.0023,0.9977	-6301.82
0.0033,0.9967	-6308.04
0.0021,0.9979	-6301.84
0.0039,0.9961	-6308.45
0.0032,0.9968	-6313.70
0.0031,0.9969	-6296.35
0.0027,0.9973	-6295.99
0.0035,0.9965	-6308.13
0.0020,0.9980	-6301.88
0.0037,0.9963	-6308.29
0.0039,0.9961	-6303.00
0.0033,0.9967	-6308.05
0.0038,0.9962	-6297.25
0.0040,0.9960	-6308.59
0.0025,0.9975	-6295.83
0.0042,0.9958	-6314.27
0.0041,0.9959	-6297.65
0.0038,0.9962	-6302.87
0.0044,0.9956	-6303.67
0.0044,0.9956	-6309.02
0.0022,0.9978	-6295.73
0.0041,0.9959	-6303.19
0.0044,0.9956	-6309.08
0.0037,0.9963	-6308.33
0.0044,0.9956	-6314.46
0.0047,0.9953	-6304.11
0.0024,0.9976	-6295.82
0.0033,0.9967	-6302.27
0.0034,0.9966	-6308.10
0.0034,0.9966	-6302.41
0.0039,0.9961	-6302.91
0.0039,0.9961	-6314.05
0.0028,0.9972	-6296.07
0.0028,0.9972	-6296.03
0.0038,0.9962	-6313.97
0.0034,0.9966	-6308.11
0.0035,0.9965	-6302.52
0.0037,0.9963	-6308.30
0.0029,0.9971	-6296.20
0.0032,0.9968	-6307.96
0.0044,0.9956	-6314.46
0.0034,0.9966	-6296.70
0.0032,0.9968	-6307.98
0.0035,0.9965	-6296.86
0.0030,0.9970	-6302.10
0.0042,0.9958	-6308.80
0.0053,0.9947	-6310.32
0.0030,0.9970	-6319.50
0.0024,0.9976	-6301.82
0.0031,0.9969	-6307.94
0.0031,0.9969	-6302.12
0.0034,0.9966	-6308.06
0.0040,0.9960	-6303.11
0.0029,0.9971	-6302.02
0.0026,0.9974	-6307.82
0.0038,0.9962	-6319.55
0.0035,0.9965	-6296.90
0.0033,0.9967	-6319.44
0.0040,0.9960	-6308.57
0.0030,0.9970	-6307.87
0.0030,0.9970	-6302.11
0.0039,0.9961	-6302.89
0.0036,0.9964	-6297.01
0.0028,0.9972	-6301.96
0.0039,0.9961	-6308.47
0.0030,0.9970	-6296.28
0.0031,0.9969	-6307.91
0.0027,0.9973	-6295.98
0.0033,0.9967	-6296.66
0.0030,0.9970	-6307.88
0.0041,0.9959	-6325.18
0.0029,0.9971	-6313.69
0.0030,0.9970	-6302.08
0.0026,0.9974	-6295.95
0.0040,0.9960	-6308.57
0.0028,0.9972	-6307.84
0.0034,0.9966	-6302.38
0.0028,0.9972	-6307.82
0.0030,0.9970	-6302.09
0.0023,0.9977	-6301.82
0.0042,0.9958	-6308.79
0.0019,0.9981	-6301.93
0.0032,0.9968	-6302.25
0.0026,0.9974	-6295.91
0.0032,0.9968	-6302.26
0.0027,0.9973	-6301.89
0.0047,0.9953	-6325.47
0.0019,0.9981	-6301.92
0.0035,0.9965	-6296.91
0.0024,0.9976	-6301.83
0.0028,0.9972	-6301.97
0.0021,0.9979	-6301.86
0.0048,0.9952	-6304.26
0.0021,0.9979	-6295.69
0.0039,0.9961	-6297.44
0.0030,0.9970	-6302.07
0.0028,0.9972	-6301.93
0.0019,0.9981	-6308.22
0.0043,0.9957	-6308.87
0.0020,0.9980	-6308.09
0.0041,0.9959	-6303.17
0.0035,0.9965	-6296.81
0.0026,0.9974	-6295.90
0.0022,0.9978	-6295.71
0.0035,0.9965	-6302.51
0.0017,0.9983	-6308.44
0.0039,0.9961	-6297.43
0.0034,0.9966	-6313.75
0.0022,0.9978	-6301.84
0.0021,0.9979	-6295.68
0.0034,0.9966	-6302.39
0.0016,0.9984	-6302.22
0.0037,0.9963	-6302.71
0.0034,0.9966	-6296.67
0.0020,0.9980	-6295.68
0.0019,0.9981	-6301.94
0.0032,0.9968	-6296.48
0.0018,0.9982	-6295.72
0.0041,0.9959	-6303.21
0.0025,0.9975	-6301.84
0.0025,0.9975	-6313.81
0.0015,0.9985	-6302.42
0.0025,0.9975	-6301.83
0.0018,0.9982	-6308.37
0.0048,0.9952	-6304.19
0.0024,0.9976	-6301.82
0.0020,0.9980	-6295.68
0.0022,0.9978	-6301.83
0.0026,0.9974	-6295.89
0.0019,0.9981	-6295.69
0.0043,0.9957	-6303.45
0.0029,0.9971	-6296.18
0.0023,0.9977	-6295.74
0.0021,0.9979	-6295.69
0.0022,0.9978	-6301.83
0.0018,0.9982	-6302.05
0.0048,0.9952	-6309.56
0.0032,0.9968	-6296.54
0.0020,0.9980	-6314.37
0.0023,0.9977	-6295.74
0.0017,0.9983	-6302.08
0.0017,0.9983	-6295.77
0.0047,0.9953	-6304.06
0.0027,0.9973	-6296.03
0.0022,0.9978	-6314.12
0.0018,0.9982	-6302.03
0.0022,0.9978	-6295.73
0.0014,0.9986	-6296.01
0.0044,0.9956	-6303.58
0.0032,0.9968	-6296.50
0.0021,0.9979	-6314.22
0.0018,0.9982	-6302.01
0.0026,0.9974	-6307.82
0.0016,0.9984	-6302.31
0.0043,0.9957	-6298.04
0.0029,0.9971	-6307.85
0.0017,0.9983	-6302.12
0.0018,0.9982	-6295.71
0.0019,0.9981	-6301.93
0.0017,0.9983	-6295.74
0.0038,0.9962	-6302.86
0.0029,0.9971	-6302.03
0.0022,0.9978	-6301.84
0.0021,0.9979	-6301.85
0.0019,0.9981	-6301.94
0.0019,0.9981	-6301.94
0.0046,0.9954	-6303.87
0.0024,0.9976	-6301.82
0.0026,0.9974	-6301.87
0.0021,0.9979	-6295.68
0.0021,0.9979	-6295.68
0.0018,0.9982	-6302.06
0.0038,0.9962	-6302.81
0.0023,0.9977	-6307.88
0.0028,0.9972	-6296.06
0.0020,0.9980	-6301.90
0.0024,0.9976	-6307.85
0.0020,0.9980	-6308.09
0.0043,0.9957	-6314.33
0.0028,0.9972	-6301.97
0.0033,0.9967	-6308.01
