#isoforms=['ENSG00000101294.SE.1.A.up_ENSG00000101294.SE.1.A.SE1_ENSG00000101294.SE.1.A.dn','ENSG00000101294.SE.1.B.up_ENSG00000101294.SE.1.B.dn']	exon_lens=('ENSG00000101294.SE.1.A.up',99),('ENSG00000101294.SE.1.A.SE1',376),('ENSG00000101294.SE.1.A.dn',89),('ENSG00000101294.SE.1.B.up',99),('ENSG00000101294.SE.1.B.dn',89)	iters=5000	burn_in=500	lag=10	percent_accept=86.88	proposal_type=drift	counts=(0,0):1128,(1,0):265,(1,1):188	assigned_counts=0:381,1:72	chrom=chr20	strand=+	mRNA_starts=31527484,31527484	mRNA_ends=31545035,31545035
sampled_psi	log_score
0.5423,0.4577	-2934.50
0.4913,0.5087	-2935.26
0.4584,0.5416	-2935.02
0.5890,0.4110	-2932.86
0.5478,0.4522	-2934.71
0.4871,0.5129	-2935.71
0.5586,0.4414	-2935.13
0.4352,0.5648	-2935.26
0.4526,0.5474	-2936.28
0.5519,0.4481	-2933.31
0.5531,0.4469	-2934.36
0.5055,0.4945	-2935.39
0.5978,0.4022	-2938.22
0.4625,0.5375	-2935.27
0.4806,0.5194	-2935.68
0.5365,0.4635	-2935.97
0.5255,0.4745	-2936.06
0.5109,0.4891	-2935.19
0.5436,0.4564	-2935.72
0.4683,0.5317	-2934.67
0.5220,0.4780	-2936.02
0.5511,0.4489	-2934.35
0.5700,0.4300	-2935.51
0.5107,0.4893	-2935.79
0.5461,0.4539	-2937.84
0.5427,0.4573	-2935.01
0.5005,0.4995	-2935.45
0.5281,0.4719	-2934.25
0.5549,0.4451	-2936.36
0.5224,0.4776	-2935.05
0.5903,0.4097	-2936.54
0.4784,0.5216	-2934.53
0.4934,0.5066	-2935.19
0.4971,0.5029	-2935.56
0.5551,0.4449	-2934.60
0.5444,0.4556	-2931.83
0.5960,0.4040	-2933.41
0.5045,0.4955	-2935.38
0.5053,0.4947	-2935.74
0.5159,0.4841	-2934.98
0.5689,0.4311	-2935.19
0.4903,0.5097	-2935.28
0.5671,0.4329	-2929.73
0.4728,0.5272	-2935.47
0.5485,0.4515	-2936.86
0.5903,0.4097	-2927.41
0.5137,0.4863	-2935.14
0.4511,0.5489	-2936.36
0.5342,0.4658	-2934.11
0.4719,0.5281	-2935.15
0.5187,0.4813	-2935.60
0.5360,0.4640	-2935.81
0.5783,0.4217	-2930.20
0.4666,0.5334	-2935.07
0.4999,0.5001	-2935.46
0.4749,0.5251	-2935.44
0.5516,0.4484	-2934.97
0.5557,0.4443	-2935.73
0.5719,0.4281	-2931.25
0.4351,0.5649	-2938.14
0.5192,0.4808	-2935.23
0.4348,0.5652	-2936.85
0.5393,0.4607	-2935.44
0.5678,0.4322	-2936.52
0.6430,0.3570	-2933.04
0.3999,0.6001	-2934.41
0.5411,0.4589	-2934.83
0.4679,0.5321	-2934.16
0.5583,0.4417	-2937.00
0.5940,0.4060	-2931.83
0.6340,0.3660	-2926.52
0.4277,0.5723	-2934.44
0.5562,0.4438	-2931.69
0.4932,0.5068	-2935.51
0.5698,0.4302	-2934.10
0.6124,0.3876	-2927.18
0.5993,0.4007	-2933.92
0.4223,0.5777	-2933.72
0.5411,0.4589	-2935.16
0.5509,0.4491	-2933.32
0.5254,0.4746	-2934.13
0.5686,0.4314	-2936.01
0.5850,0.4150	-2932.45
0.4371,0.5629	-2936.45
0.4990,0.5010	-2935.49
0.5233,0.4767	-2935.05
0.4965,0.5035	-2935.42
0.5638,0.4362	-2932.73
0.5987,0.4013	-2934.29
0.4421,0.5579	-2934.78
0.5074,0.4926	-2935.32
0.5247,0.4753	-2935.44
0.5604,0.4396	-2934.46
0.5550,0.4450	-2932.61
0.5851,0.4149	-2932.80
0.4660,0.5340	-2935.21
0.5349,0.4651	-2934.38
0.5455,0.4545	-2935.78
0.5819,0.4181	-2935.73
0.5825,0.4175	-2937.76
0.5780,0.4220	-2933.66
0.4689,0.5311	-2936.17
0.5649,0.4351	-2932.98
0.5410,0.4590	-2934.66
0.5926,0.4074	-2932.19
0.6227,0.3773	-2934.58
0.5785,0.4215	-2936.84
0.4594,0.5406	-2936.31
0.5299,0.4701	-2935.77
0.5830,0.4170	-2934.78
0.5915,0.4085	-2938.84
0.5438,0.4562	-2933.62
0.5605,0.4395	-2939.08
0.4696,0.5304	-2937.12
0.5480,0.4520	-2935.29
0.5671,0.4329	-2934.05
0.5398,0.4602	-2935.93
0.5489,0.4511	-2933.55
0.5227,0.4773	-2934.60
0.4783,0.5217	-2934.70
0.5089,0.4911	-2935.30
0.5710,0.4290	-2932.98
0.5276,0.4724	-2935.71
0.5609,0.4391	-2934.22
0.5147,0.4853	-2935.77
0.4446,0.5554	-2937.83
0.5228,0.4772	-2935.87
0.5900,0.4100	-2932.52
0.4459,0.5541	-2934.90
0.5423,0.4577	-2933.31
0.4749,0.5251	-2935.34
0.4833,0.5167	-2935.36
0.4761,0.5239	-2936.66
0.5566,0.4434	-2936.67
0.4847,0.5153	-2935.41
0.5158,0.4842	-2935.87
0.5200,0.4800	-2935.15
0.4733,0.5267	-2936.10
0.5087,0.4913	-2935.61
0.5000,0.5000	-2935.46
0.5641,0.4359	-2932.46
0.4994,0.5006	-2935.48
0.5483,0.4517	-2935.30
0.5069,0.4931	-2935.52
0.5227,0.4773	-2936.23
0.4980,0.5020	-2935.53
0.5530,0.4470	-2934.57
0.5430,0.4570	-2933.29
0.4717,0.5283	-2935.26
0.5105,0.4895	-2935.57
0.5059,0.4941	-2935.44
0.5092,0.4908	-2935.37
0.5633,0.4367	-2935.79
0.4866,0.5134	-2936.16
0.4771,0.5229	-2935.77
0.5369,0.4631	-2935.54
0.4891,0.5109	-2935.57
0.4823,0.5177	-2936.00
0.5346,0.4654	-2933.97
0.4991,0.5009	-2935.54
0.5045,0.4955	-2935.40
0.5557,0.4443	-2934.17
0.4692,0.5308	-2935.91
0.5300,0.4700	-2934.69
0.5057,0.4943	-2935.62
0.5090,0.4910	-2935.41
0.5202,0.4798	-2934.74
0.5210,0.4790	-2936.74
0.4799,0.5201	-2935.22
0.5238,0.4762	-2935.43
0.5177,0.4823	-2935.87
0.4709,0.5291	-2934.57
0.4927,0.5073	-2935.43
0.6080,0.3920	-2929.02
0.4321,0.5679	-2935.39
0.4967,0.5033	-2935.56
0.5309,0.4691	-2935.55
0.4494,0.5506	-2935.43
0.5464,0.4536	-2933.58
0.5864,0.4136	-2933.52
0.4780,0.5220	-2936.80
0.4785,0.5215	-2935.39
0.5000,0.5000	-2935.46
0.4787,0.5213	-2936.07
0.5149,0.4851	-2935.66
0.5494,0.4506	-2934.14
0.4480,0.5520	-2935.90
0.5032,0.4968	-2935.47
0.5002,0.4998	-2935.46
0.4572,0.5428	-2935.56
0.5165,0.4835	-2935.23
0.5719,0.4281	-2930.96
0.4235,0.5765	-2936.15
0.5303,0.4697	-2934.32
0.5204,0.4796	-2934.66
0.4937,0.5063	-2935.48
0.4612,0.5388	-2936.07
0.5367,0.4633	-2934.07
0.4978,0.5022	-2935.42
0.4822,0.5178	-2935.15
0.4877,0.5123	-2936.19
0.5101,0.4899	-2935.45
0.4474,0.5526	-2936.13
0.5767,0.4233	-2932.40
0.4941,0.5059	-2935.50
0.5167,0.4833	-2934.70
0.4818,0.5182	-2935.87
0.5024,0.4976	-2935.39
0.4469,0.5531	-2935.30
0.5661,0.4339	-2935.37
0.4618,0.5382	-2934.82
0.4853,0.5147	-2936.23
0.4689,0.5311	-2935.42
0.4878,0.5122	-2935.30
0.4475,0.5525	-2935.49
0.5722,0.4278	-2931.82
0.4534,0.5466	-2935.50
0.5044,0.4956	-2935.53
0.5371,0.4629	-2934.80
0.5491,0.4509	-2936.11
0.4979,0.5021	-2935.40
0.5196,0.4804	-2935.38
0.4490,0.5510	-2935.44
0.4935,0.5065	-2935.40
0.5308,0.4692	-2934.56
0.5414,0.4586	-2935.33
0.5080,0.4920	-2934.86
0.5497,0.4503	-2934.14
0.4800,0.5200	-2935.06
0.4804,0.5196	-2934.43
0.5330,0.4670	-2935.06
0.5208,0.4792	-2936.56
0.4750,0.5250	-2936.43
0.5398,0.4602	-2934.82
0.4867,0.5133	-2936.04
0.5226,0.4774	-2935.78
0.5051,0.4949	-2935.40
0.5614,0.4386	-2933.73
0.5185,0.4815	-2935.38
0.4915,0.5085	-2935.09
0.4835,0.5165	-2934.96
0.4578,0.5422	-2937.06
0.5214,0.4786	-2934.80
0.5549,0.4451	-2934.38
0.5636,0.4364	-2933.49
0.5039,0.4961	-2935.31
0.4373,0.5627	-2933.66
0.4669,0.5331	-2935.33
0.5210,0.4790	-2934.47
0.5286,0.4714	-2935.04
0.5203,0.4797	-2935.47
0.5517,0.4483	-2936.01
0.4819,0.5181	-2935.73
0.4703,0.5297	-2936.94
0.4695,0.5305	-2935.54
0.5387,0.4613	-2936.67
0.5260,0.4740	-2934.00
0.5251,0.4749	-2934.84
0.5875,0.4125	-2935.67
0.5406,0.4594	-2935.80
0.4473,0.5527	-2937.20
0.5326,0.4674	-2935.06
0.5570,0.4430	-2933.72
0.5226,0.4774	-2935.78
0.5142,0.4858	-2935.53
0.5878,0.4122	-2933.20
0.4775,0.5225	-2935.49
0.5081,0.4919	-2935.54
0.4857,0.5143	-2935.18
0.5534,0.4466	-2935.65
0.5279,0.4721	-2935.93
0.6209,0.3791	-2929.55
0.5195,0.4805	-2936.09
0.5220,0.4780	-2934.44
0.4792,0.5208	-2935.13
0.5440,0.4560	-2936.79
0.5204,0.4796	-2935.39
0.6083,0.3917	-2932.54
0.5149,0.4851	-2935.48
0.5083,0.4917	-2935.67
0.4701,0.5299	-2935.28
0.5133,0.4867	-2935.52
0.5261,0.4739	-2933.79
0.5906,0.4094	-2930.70
0.5018,0.4982	-2935.46
0.5138,0.4862	-2935.25
0.4919,0.5081	-2935.37
0.4679,0.5321	-2934.54
0.5837,0.4163	-2934.81
0.6281,0.3719	-2936.48
0.5155,0.4845	-2934.87
0.5287,0.4713	-2935.04
0.4741,0.5259	-2936.48
0.4852,0.5148	-2935.77
0.5389,0.4611	-2935.12
0.6273,0.3727	-2928.09
0.5063,0.4937	-2935.28
0.5185,0.4815	-2935.23
0.4953,0.5047	-2935.40
0.5550,0.4450	-2935.04
0.5604,0.4396	-2935.67
0.6168,0.3832	-2933.31
0.5318,0.4682	-2935.82
0.5235,0.4765	-2936.46
0.5034,0.4966	-2935.52
0.5569,0.4431	-2935.55
0.5597,0.4403	-2936.12
0.6162,0.3838	-2930.92
0.5607,0.4393	-2935.93
0.4974,0.5026	-2935.45
0.4718,0.5282	-2934.47
0.5514,0.4486	-2936.62
0.5653,0.4347	-2935.87
0.5870,0.4130	-2932.83
0.5909,0.4091	-2936.58
0.5198,0.4802	-2935.39
0.4750,0.5250	-2935.33
0.5548,0.4452	-2933.28
0.5277,0.4723	-2935.37
0.6197,0.3803	-2933.44
0.5850,0.4150	-2934.86
0.5385,0.4615	-2935.73
0.5079,0.4921	-2935.76
0.5461,0.4539	-2933.96
0.5707,0.4293	-2935.83
0.6442,0.3558	-2929.54
0.5454,0.4546	-2934.69
0.5185,0.4815	-2935.30
0.5251,0.4749	-2934.84
0.5448,0.4552	-2933.61
0.6220,0.3780	-2929.07
0.6338,0.3662	-2930.90
0.4934,0.5066	-2935.43
0.4980,0.5020	-2935.49
0.5455,0.4545	-2935.42
0.5646,0.4354	-2931.16
0.6584,0.3416	-2932.08
0.6177,0.3823	-2931.91
0.5089,0.4911	-2935.58
0.5292,0.4708	-2934.11
0.5387,0.4613	-2935.90
0.4980,0.5020	-2935.49
0.6414,0.3586	-2932.36
0.5778,0.4222	-2935.54
0.5591,0.4409	-2933.96
0.4747,0.5253	-2935.44
0.5296,0.4704	-2935.87
0.5082,0.4918	-2935.57
0.6262,0.3738	-2934.79
0.5696,0.4304	-2933.54
0.5765,0.4235	-2935.18
0.5107,0.4893	-2934.94
0.5333,0.4667	-2934.93
0.5001,0.4999	-2935.46
0.5685,0.4315	-2933.25
0.5874,0.4126	-2931.07
0.5140,0.4860	-2934.35
0.5008,0.4992	-2935.46
0.5142,0.4858	-2935.08
0.5373,0.4627	-2934.65
0.5542,0.4458	-2936.33
0.5586,0.4414	-2933.02
0.5022,0.4978	-2935.50
0.4965,0.5035	-2935.57
0.4475,0.5525	-2934.02
0.5715,0.4285	-2934.43
0.5430,0.4570	-2933.98
0.5147,0.4853	-2934.95
0.5301,0.4699	-2935.17
0.5156,0.4844	-2934.99
0.4953,0.5047	-2935.55
0.5606,0.4394	-2936.16
0.5014,0.4986	-2935.36
0.4656,0.5344	-2936.04
0.5858,0.4142	-2930.38
0.5138,0.4862	-2936.13
0.5537,0.4463	-2935.88
0.4970,0.5030	-2935.52
0.4986,0.5014	-2935.43
0.5074,0.4926	-2935.38
0.5849,0.4151	-2932.80
0.5311,0.4689	-2935.80
0.5782,0.4218	-2930.83
0.4784,0.5216	-2936.43
0.4818,0.5182	-2935.51
0.5683,0.4317	-2931.88
0.5552,0.4448	-2935.49
0.5123,0.4877	-2935.80
0.5596,0.4404	-2934.92
0.4743,0.5257	-2935.34
0.5077,0.4923	-2935.35
0.5753,0.4247	-2931.80
0.5664,0.4336	-2935.65
0.4857,0.5143	-2935.06
0.5325,0.4675	-2935.32
0.5546,0.4454	-2935.04
0.5160,0.4840	-2934.66
0.5240,0.4760	-2935.14
0.5874,0.4126	-2932.48
0.5399,0.4601	-2935.62
0.5256,0.4744	-2933.71
0.5827,0.4173	-2935.44
0.5379,0.4621	-2934.35
0.5293,0.4707	-2934.69
0.5787,0.4213	-2931.46
0.5777,0.4223	-2935.22
0.5180,0.4820	-2935.81
0.6031,0.3969	-2930.72
0.5477,0.4523	-2935.28
0.5372,0.4628	-2935.25
0.5473,0.4527	-2936.04
0.4962,0.5038	-2935.28
0.5569,0.4431	-2932.80
0.6209,0.3791	-2932.01
0.5396,0.4604	-2936.25
0.5009,0.4991	-2935.45
0.4980,0.5020	-2935.44
0.4978,0.5022	-2935.56
0.5945,0.4055	-2930.69
0.6584,0.3416	-2932.08
0.6037,0.3963	-2928.62
0.5248,0.4752	-2935.74
0.4712,0.5288	-2933.65
0.4888,0.5112	-2935.44
0.5714,0.4286	-2930.11
0.5840,0.4160	-2933.12
0.5616,0.4384	-2931.51
0.5273,0.4727	-2934.82
0.5117,0.4883	-2935.31
0.5160,0.4840	-2935.11
0.5544,0.4456	-2935.25
0.5858,0.4142	-2932.46
0.5439,0.4561	-2934.50
0.5593,0.4407	-2935.39
0.5944,0.4056	-2931.07
0.5516,0.4484	-2933.73
0.5461,0.4539	-2935.99
0.5875,0.4125	-2933.19
0.5263,0.4737	-2935.15
0.5927,0.4073	-2932.94
0.5801,0.4199	-2935.97
0.5354,0.4646	-2933.66
0.5838,0.4162	-2934.47
0.6158,0.3842	-2932.79
0.5488,0.4512	-2936.49
0.5650,0.4350	-2933.76
0.5752,0.4248	-2934.83
0.4658,0.5342	-2936.45
0.5568,0.4432	-2932.58
0.5987,0.4013	-2931.89
0.5423,0.4577	-2933.82
0.5338,0.4662	-2934.53
0.5642,0.4358	-2934.01
0.4664,0.5336	-2934.80
0.5357,0.4643	-2934.80
0.5510,0.4490	-2936.39
0.5732,0.4268	-2933.88
0.5248,0.4752	-2935.04
0.5297,0.4703	-2935.52
0.4556,0.5444	-2935.25
0.5074,0.4926	-2935.29
0.5605,0.4395	-2935.67
0.5735,0.4265	-2937.14
0.5424,0.4576	-2934.33
0.5519,0.4481	-2935.81
0.4641,0.5359	-2934.09
0.5016,0.4984	-2935.43
0.5439,0.4561	-2935.21
0.5887,0.4113	-2931.07
0.5407,0.4593	-2936.78
0.5685,0.4315	-2937.66
0.4357,0.5643	-2934.98
0.4727,0.5273	-2935.25
0.4713,0.5287	-2935.50
0.5998,0.4002	-2934.75
0.5118,0.4882	-2935.22
0.5812,0.4188	-2937.01
0.4307,0.5693	-2934.90
0.4341,0.5659	-2936.36
0.4913,0.5087	-2935.89
0.5906,0.4094	-2927.76
0.5458,0.4542	-2934.14
0.5860,0.4140	-2936.98
0.4409,0.5591	-2935.76
0.4660,0.5340	-2936.57
0.5214,0.4786	-2935.66
0.5915,0.4085	-2934.02
0.5601,0.4399	-2935.42
0.5859,0.4141	-2934.54
0.4861,0.5139	-2935.40
0.4880,0.5120	-2934.96
0.5396,0.4604	-2937.36
0.5674,0.4326	-2936.23
0.5151,0.4849	-2934.88
0.5565,0.4435	-2935.31
0.5510,0.4490	-2934.75
0.5181,0.4819	-2934.72
0.5635,0.4365	-2933.75
0.5500,0.4500	-2934.74
0.4976,0.5024	-2935.45
0.6318,0.3682	-2932.45
0.5088,0.4912	-2935.09
0.5465,0.4535	-2934.51
0.5532,0.4468	-2937.14
0.5093,0.4907	-2935.03
0.4918,0.5082	-2935.40
0.5983,0.4017	-2930.69
0.4988,0.5012	-2935.51
0.5355,0.4645	-2934.09
0.5952,0.4048	-2933.00
0.5351,0.4649	-2935.08
0.4954,0.5046	-2935.60
0.5807,0.4193	-2932.74
0.4343,0.5657	-2936.35
0.5631,0.4369	-2936.79
0.5900,0.4100	-2933.25
0.5043,0.4957	-2935.37
0.5180,0.4820	-2935.16
0.5735,0.4265	-2935.07
0.4094,0.5906	-2931.32
0.5731,0.4269	-2936.23
0.5895,0.4105	-2930.34
0.5047,0.4953	-2935.36
0.5026,0.4974	-2935.40
0.5911,0.4089	-2931.06
0.4325,0.5675	-2935.91
0.5719,0.4281	-2934.72
0.5565,0.4435	-2935.08
0.5416,0.4584	-2934.83
0.4917,0.5083	-2935.63
0.5138,0.4862	-2935.19
0.4618,0.5382	-2935.89
0.5414,0.4586	-2935.33
0.5197,0.4803	-2934.60
0.5423,0.4577	-2934.67
0.5071,0.4929	-2935.38
0.5670,0.4330	-2934.32
0.5060,0.4940	-2935.44
0.4814,0.5186	-2935.52
0.4839,0.5161	-2935.68
0.5187,0.4813	-2934.93
0.5025,0.4975	-2935.47
0.4947,0.5053	-2935.56
0.5012,0.4988	-2935.41
0.4888,0.5112	-2935.40
0.4845,0.5155	-2934.42
0.5327,0.4673	-2936.63
0.4816,0.5184	-2935.73
0.5221,0.4779	-2934.70
0.5519,0.4481	-2932.69
0.4818,0.5182	-2935.22
0.4613,0.5387	-2935.29
0.5421,0.4579	-2935.68
0.5265,0.4735	-2935.46
0.5043,0.4957	-2935.44
0.5132,0.4868	-2936.20
0.4865,0.5135	-2936.05
0.4828,0.5172	-2936.05
0.5088,0.4912	-2935.09
0.5170,0.4830	-2935.37
0.4930,0.5070	-2935.57
0.5306,0.4694	-2935.66
0.4918,0.5082	-2935.69
0.4453,0.5547	-2938.00
0.4799,0.5201	-2935.86
0.4868,0.5132	-2935.35
0.4649,0.5351	-2936.49
0.5293,0.4707	-2934.81
0.4993,0.5007	-2935.49
0.4671,0.5329	-2935.59
0.4643,0.5357	-2935.81
0.4835,0.5165	-2935.49
0.4230,0.5770	-2931.52
0.4919,0.5081	-2935.53
0.4657,0.5343	-2934.66
0.4753,0.5247	-2936.22
0.4684,0.5316	-2934.04
0.5204,0.4796	-2935.47
0.4104,0.5896	-2931.66
0.5182,0.4818	-2934.65
0.4918,0.5082	-2935.50
0.4622,0.5378	-2934.06
0.4936,0.5064	-2935.53
0.4431,0.5569	-2936.12
0.3988,0.6012	-2937.35
0.5349,0.4651	-2933.68
0.4830,0.5170	-2934.75
0.5221,0.4779	-2935.14
0.4743,0.5257	-2936.06
0.4529,0.5471	-2934.95
0.4358,0.5642	-2937.82
0.4838,0.5162	-2935.03
0.4762,0.5238	-2935.32
0.5144,0.4856	-2935.88
0.5064,0.4936	-2935.46
0.5090,0.4910	-2935.08
0.4526,0.5474	-2937.43
0.4874,0.5126	-2936.15
0.5071,0.4929	-2935.29
0.4543,0.5457	-2936.20
0.5531,0.4469	-2935.00
0.5397,0.4603	-2935.29
0.4859,0.5141	-2935.41
0.4929,0.5071	-2935.32
0.5211,0.4789	-2935.65
0.4745,0.5255	-2935.24
0.5538,0.4462	-2931.99
0.5700,0.4300	-2932.70
0.5395,0.4605	-2935.61
0.5045,0.4955	-2935.33
0.5712,0.4288	-2937.28
0.4852,0.5148	-2936.18
0.5559,0.4441	-2931.92
0.5760,0.4240	-2933.32
0.4872,0.5128	-2935.66
0.5496,0.4504	-2936.13
0.5895,0.4105	-2934.68
0.4842,0.5158	-2935.48
0.4858,0.5142	-2935.29
0.5581,0.4419	-2933.72
0.4846,0.5154	-2935.60
0.5072,0.4928	-2935.29
0.5424,0.4576	-2933.99
0.5262,0.4738	-2935.04
0.4530,0.5470	-2935.70
0.4858,0.5142	-2935.12
0.4757,0.5243	-2934.25
0.5164,0.4836	-2934.91
0.5110,0.4890	-2935.36
0.5123,0.4877	-2936.00
0.4587,0.5413	-2934.36
0.5150,0.4850	-2935.72
0.5119,0.4881	-2935.12
0.4564,0.5436	-2936.11
0.5214,0.4786	-2935.06
0.4656,0.5344	-2935.22
0.4510,0.5490	-2937.54
0.5106,0.4894	-2935.66
0.4961,0.5039	-2935.31
0.5005,0.4995	-2935.46
0.5654,0.4346	-2933.50
0.5051,0.4949	-2935.50
0.4571,0.5429	-2935.22
0.5469,0.4531	-2933.95
0.4645,0.5355	-2936.66
0.4591,0.5409	-2936.33
0.5742,0.4258	-2935.09
0.5139,0.4861	-2935.03
0.4807,0.5193	-2934.60
0.5435,0.4565	-2932.58
0.4338,0.5662	-2935.58
0.5164,0.4836	-2935.23
0.5420,0.4580	-2936.35
0.5051,0.4949	-2935.44
0.4736,0.5264	-2935.46
0.5651,0.4349	-2933.76
0.4556,0.5444	-2934.19
0.5204,0.4796	-2935.55
0.4909,0.5091	-2935.80
0.5674,0.4326	-2932.98
0.4960,0.5040	-2935.53
0.4978,0.5022	-2935.46
0.5036,0.4964	-2935.41
0.5302,0.4698	-2934.20
0.5170,0.4830	-2935.57
0.5927,0.4073	-2938.56
0.4683,0.5317	-2934.42
0.5179,0.4821	-2935.52
0.5297,0.4703	-2935.40
0.5693,0.4307	-2938.00
0.5137,0.4863	-2934.98
0.6275,0.3725	-2934.88
0.4618,0.5382	-2934.52
0.4989,0.5011	-2935.47
0.5275,0.4725	-2934.27
0.5243,0.4757	-2934.27
0.4816,0.5184	-2936.10
0.6180,0.3820	-2925.67
0.4949,0.5051	-2935.51
0.5230,0.4770	-2936.43
0.4992,0.5008	-2935.50
0.5386,0.4614	-2934.65
0.4421,0.5579	-2938.73
0.6121,0.3879	-2932.20
0.4660,0.5340	-2935.62
0.5056,0.4944	-2935.15
0.5001,0.4999	-2935.46
0.5347,0.4653	-2931.18
0.4656,0.5344	-2934.80
0.5966,0.4034	-2931.47
0.4681,0.5319	-2934.42
0.5377,0.4623	-2935.41
0.5350,0.4650	-2933.68
0.5527,0.4473	-2933.93
0.4699,0.5301	-2934.08
0.6499,0.3501	-2924.80
0.4784,0.5216	-2934.87
0.5174,0.4826	-2935.51
0.4981,0.5019	-2935.43
0.6053,0.3947	-2932.88
0.4693,0.5307	-2934.80
0.6586,0.3414	-2921.58
0.5105,0.4895	-2935.07
0.4882,0.5118	-2935.45
0.5266,0.4734	-2934.40
0.6135,0.3865	-2936.87
0.4711,0.5289	-2934.34
0.6687,0.3313	-2935.57
0.5226,0.4774	-2934.69
0.4745,0.5255	-2935.95
0.5572,0.4428	-2936.25
0.6003,0.3997	-2934.77
0.5252,0.4748	-2935.75
0.6583,0.3417	-2930.11
0.5338,0.4662	-2935.34
0.5171,0.4829	-2935.78
0.5845,0.4155	-2936.54
0.5170,0.4830	-2934.89
0.5137,0.4863	-2935.14
0.6113,0.3887	-2930.82
0.5471,0.4529	-2933.01
0.5071,0.4929	-2935.61
0.5604,0.4396	-2933.24
0.5506,0.4494	-2934.55
0.5358,0.4642	-2934.51
0.6194,0.3806	-2934.40
0.5590,0.4410	-2933.96
0.4828,0.5172	-2935.22
0.5622,0.4378	-2932.49
0.5935,0.4065	-2934.47
0.5609,0.4391	-2933.98
0.5670,0.4330	-2935.13
0.5450,0.4550	-2935.41
0.4724,0.5276	-2933.71
0.5742,0.4258	-2937.19
0.5407,0.4593	-2936.78
0.5492,0.4508	-2932.95
0.5379,0.4621	-2935.26
0.5455,0.4545	-2934.69
0.5064,0.4936	-2935.00
0.5987,0.4013	-2933.49
0.5647,0.4353	-2932.20
0.5251,0.4749	-2935.04
0.5183,0.4817	-2936.33
0.5466,0.4534	-2935.07
0.4647,0.5353	-2934.95
0.6121,0.3879	-2932.66
0.5537,0.4463	-2934.15
0.5402,0.4598	-2934.98
0.5522,0.4478	-2935.40
0.5757,0.4243	-2931.79
0.5152,0.4848	-2935.36
0.5835,0.4165	-2930.42
0.6010,0.3990	-2930.30
0.4707,0.5293	-2934.92
0.5756,0.4244	-2934.53
0.6127,0.3873	-2934.06
0.5001,0.4999	-2935.46
0.5833,0.4167	-2934.79
0.5158,0.4842	-2935.30
0.4463,0.5537	-2934.46
0.5451,0.4549	-2935.41
0.6210,0.3790	-2929.55
0.4844,0.5156	-2935.85
0.6019,0.3981	-2931.12
0.4471,0.5529	-2937.00
0.5077,0.4923	-2935.31
0.5329,0.4671	-2935.46
0.5727,0.4273	-2933.87
0.5558,0.4442	-2934.17
0.4890,0.5110	-2935.44
0.4589,0.5411	-2938.64
0.4701,0.5299	-2935.88
0.5556,0.4444	-2935.06
0.5172,0.4828	-2935.30
0.5660,0.4340	-2935.63
0.4802,0.5198	-2936.09
0.4497,0.5503	-2935.22
0.4310,0.5690	-2935.44
0.5516,0.4484	-2932.28
0.4906,0.5094	-2935.51
0.5078,0.4922	-2935.28
0.5008,0.4992	-2935.47
0.4387,0.5613	-2935.86
0.4369,0.5631	-2936.72
0.5798,0.4202	-2934.67
0.5168,0.4832	-2935.70
0.4995,0.5005	-2935.48
0.5514,0.4486	-2937.86
0.4504,0.5496	-2935.00
0.4590,0.5410	-2935.84
0.6322,0.3678	-2934.64
0.5334,0.4666	-2936.13
0.4755,0.5245	-2934.64
0.5907,0.4093	-2934.36
0.4861,0.5139	-2935.63
0.4779,0.5221	-2935.49
0.5840,0.4160	-2930.07
0.5297,0.4703	-2935.28
0.5103,0.4897	-2935.12
0.5707,0.4293	-2932.98
0.4727,0.5273	-2936.79
0.5062,0.4938	-2935.61
0.6236,0.3764	-2932.62
0.5741,0.4259	-2932.40
0.5023,0.4977	-2935.49
0.5946,0.4054	-2935.28
0.4635,0.5365	-2935.83
0.5248,0.4752	-2934.55
0.5782,0.4218	-2931.78
0.5674,0.4326	-2931.89
0.5147,0.4853	-2935.95
0.5803,0.4197	-2934.36
0.5232,0.4768	-2934.58
0.4762,0.5238	-2936.47
0.6076,0.3924	-2932.52
0.5650,0.4350	-2935.85
0.5663,0.4337	-2936.71
0.5562,0.4438	-2935.75
0.5199,0.4801	-2935.23
0.4812,0.5188	-2935.74
0.5892,0.4108	-2931.42
0.5133,0.4867	-2935.36
0.4957,0.5043	-2935.63
0.5500,0.4500	-2934.14
0.5277,0.4723	-2934.49
0.4380,0.5620	-2935.90
0.4955,0.5045	-2935.31
0.5026,0.4974	-2935.42
0.4763,0.5237	-2934.56
0.5970,0.4030	-2936.59
0.5712,0.4288	-2932.98
0.4505,0.5495	-2934.80
0.4808,0.5192	-2935.45
0.5450,0.4550	-2936.31
0.5063,0.4937	-2935.08
0.5738,0.4262	-2933.00
0.5406,0.4594	-2936.45
0.4295,0.5705	-2933.53
0.3999,0.6001	-2930.35
0.4815,0.5185	-2935.66
0.4895,0.5105	-2935.86
0.5474,0.4526	-2935.47
0.5579,0.4421	-2935.58
0.4470,0.5530	-2934.66
0.4145,0.5855	-2931.59
0.4691,0.5309	-2937.27
0.5071,0.4929	-2935.49
0.5097,0.4903	-2935.13
0.5353,0.4647	-2933.67
0.4531,0.5469	-2936.07
0.3943,0.6057	-2935.21
0.5316,0.4684	-2936.83
0.5119,0.4881	-2935.08
0.5195,0.4805	-2935.77
0.5656,0.4344	-2935.88
0.4843,0.5157	-2935.98
0.4434,0.5566	-2933.83
0.5568,0.4432	-2934.86
0.4504,0.5496	-2938.98
0.5590,0.4410	-2934.20
0.5709,0.4291	-2933.84
0.5211,0.4789	-2935.23
0.4228,0.5772	-2936.81
0.5181,0.4819	-2935.59
0.5013,0.4987	-2935.46
0.5399,0.4601	-2934.18
0.5645,0.4355	-2935.06
0.6016,0.3984	-2931.53
0.4557,0.5443	-2937.21
0.5561,0.4439	-2933.04
0.4504,0.5496	-2934.60
0.5368,0.4632	-2935.98
0.5066,0.4934	-2935.25
0.6568,0.3432	-2927.44
0.4426,0.5574	-2934.53
0.5392,0.4608	-2935.13
0.4753,0.5247	-2935.33
0.5140,0.4860	-2934.91
0.5162,0.4838	-2935.43
0.6225,0.3775	-2926.07
0.4791,0.5209	-2935.72
0.5581,0.4419	-2933.49
0.5557,0.4443	-2934.39
0.5178,0.4822	-2935.02
0.4925,0.5075	-2935.64
0.6360,0.3640	-2942.70
0.5638,0.4362	-2934.52
0.5089,0.4911	-2935.33
0.5187,0.4813	-2935.30
0.4647,0.5353	-2936.36
0.5295,0.4705	-2934.57
0.6705,0.3295	-2921.52
0.5575,0.4425	-2934.18
0.4669,0.5331	-2934.53
0.5603,0.4397	-2936.15
0.4756,0.5244	-2935.33
0.5535,0.4465	-2933.72
0.6905,0.3095	-2927.35
0.5112,0.4888	-2935.23
0.4551,0.5449	-2938.33
0.5430,0.4570	-2935.02
0.4208,0.5792	-2935.36
0.5746,0.4254	-2936.31
0.6432,0.3568	-2935.41
0.4746,0.5254	-2935.13
0.5004,0.4996	-2935.44
0.5878,0.4122	-2936.75
0.4762,0.5238	-2934.66
0.5698,0.4302	-2933.54
0.6778,0.3222	-2934.19
0.5111,0.4889	-2935.14
0.5375,0.4625	-2934.80
0.5235,0.4765	-2935.61
0.4840,0.5160	-2934.65
0.6237,0.3763	-2934.64
0.6021,0.3979	-2934.44
0.4917,0.5083	-2936.06
0.5073,0.4927	-2935.20
0.5411,0.4589	-2936.80
0.4814,0.5186	-2935.44
0.6399,0.3601	-2927.11
0.5639,0.4361	-2934.78
0.5103,0.4897	-2935.45
0.5554,0.4446	-2936.16
0.5414,0.4586	-2934.50
0.4914,0.5086	-2935.40
0.5882,0.4118	-2933.21
0.5763,0.4237	-2934.56
0.5243,0.4757	-2935.63
0.5576,0.4424	-2935.11
0.5334,0.4666	-2934.53
0.5280,0.4720	-2936.95
0.5734,0.4266	-2932.40
0.5693,0.4307	-2937.17
0.5332,0.4668	-2935.86
0.5758,0.4242	-2930.57
0.4915,0.5085	-2935.57
0.5518,0.4482	-2936.43
0.5300,0.4700	-2934.69
0.5505,0.4495	-2934.34
0.5904,0.4096	-2934.72
0.5658,0.4342	-2934.83
0.4420,0.5580	-2936.88
0.5829,0.4171	-2931.43
0.4740,0.5260	-2935.45
0.5404,0.4596	-2936.44
0.5213,0.4787	-2935.66
0.5471,0.4529	-2935.46
0.4531,0.5469	-2938.14
0.6025,0.3975	-2934.87
0.4660,0.5340	-2935.21
0.4822,0.5178	-2935.50
0.4914,0.5086	-2935.71
0.5043,0.4957	-2935.42
0.5021,0.4979	-2935.40
0.5643,0.4357	-2934.27
0.4845,0.5155	-2935.10
0.4593,0.5407	-2934.36
0.5181,0.4819	-2935.59
0.4903,0.5097	-2935.55
0.4836,0.5164	-2934.57
0.5358,0.4642	-2934.66
0.5187,0.4813	-2935.45
0.4387,0.5613	-2933.89
0.5201,0.4799	-2934.91
0.5282,0.4718	-2934.48
0.4955,0.5045	-2935.38
0.5422,0.4578	-2934.50
0.5306,0.4694	-2933.95
0.4324,0.5676	-2930.48
0.4999,0.5001	-2935.46
0.4904,0.5096	-2936.09
0.4848,0.5152	-2935.66
0.5216,0.4784	-2934.97
0.5641,0.4359	-2934.79
0.4455,0.5545	-2937.76
0.5358,0.4642	-2935.52
0.4671,0.5329	-2935.72
0.4888,0.5112	-2935.44
0.5305,0.4695	-2934.93
0.5321,0.4679	-2934.80
0.4683,0.5317	-2935.82
0.4767,0.5233	-2935.22
0.4435,0.5565	-2934.29
0.5090,0.4910	-2935.23
0.5068,0.4932	-2935.25
0.5439,0.4561	-2933.27
0.5073,0.4927	-2935.58
0.4902,0.5098	-2935.95
0.4114,0.5886	-2937.73
0.5138,0.4862	-2935.42
0.5260,0.4740	-2935.56
0.5561,0.4439	-2936.42
0.5527,0.4473	-2935.42
0.4988,0.5012	-2935.49
0.4241,0.5759	-2936.11
0.4996,0.5004	-2935.47
0.5515,0.4485	-2933.94
0.5998,0.4002	-2934.34
0.5052,0.4948	-2935.25
0.5365,0.4635	-2934.22
0.4567,0.5433	-2935.23
0.4835,0.5165	-2935.75
0.5556,0.4444	-2936.18
0.6222,0.3778	-2931.06
0.5073,0.4927	-2935.26
0.5535,0.4465	-2935.44
0.4725,0.5275	-2934.81
0.4708,0.5292	-2935.98
0.5476,0.4524	-2934.33
0.6467,0.3533	-2929.63
0.5425,0.4575	-2932.28
0.5031,0.4969	-2935.37
0.4543,0.5457	-2936.93
0.5105,0.4895	-2935.24
0.5763,0.4237	-2935.79
0.6640,0.3360	-2926.30
0.5098,0.4902	-2935.21
0.4665,0.5335	-2935.47
0.4737,0.5263	-2934.51
0.5037,0.4963	-2935.29
0.5510,0.4490	-2933.53
0.6249,0.3751	-2935.23
0.5223,0.4777	-2935.05
0.5077,0.4923	-2935.78
0.5248,0.4752	-2934.15
0.5121,0.4879	-2935.12
0.5223,0.4777	-2935.32
0.5575,0.4425	-2933.26
0.5358,0.4642	-2933.51
0.5571,0.4429	-2931.19
0.5492,0.4508	-2934.73
0.5295,0.4705	-2935.75
0.5241,0.4759	-2934.66
0.5805,0.4195	-2931.44
0.4956,0.5044	-2935.63
0.6018,0.3982	-2933.60
0.4817,0.5183	-2935.00
0.5273,0.4727	-2935.92
0.5585,0.4415	-2936.07
0.5450,0.4550	-2935.23
0.4987,0.5013	-2935.48
0.5481,0.4519	-2934.52
0.4950,0.5050	-2935.49
0.5303,0.4697	-2935.90
0.5365,0.4635	-2936.41
0.5694,0.4306	-2935.49
0.4832,0.5168	-2934.89
0.5429,0.4571	-2937.25
0.4708,0.5292	-2936.33
0.5281,0.4719	-2935.94
0.5706,0.4294	-2937.81
0.5680,0.4320	-2933.52
0.4853,0.5147	-2935.82
0.5257,0.4743	-2935.04
0.5515,0.4485	-2933.31
0.4946,0.5054	-2935.69
0.5607,0.4393	-2935.44
0.5119,0.4881	-2935.55
0.4488,0.5512	-2937.92
0.5634,0.4366	-2935.79
0.5456,0.4544	-2935.79
0.5577,0.4423	-2934.42
0.5645,0.4355	-2935.06
0.4772,0.5228	-2936.41
0.3906,0.6094	-2934.18
0.5925,0.4075	-2929.57
0.5327,0.4673	-2938.33
0.5149,0.4851	-2935.00
0.5513,0.4487	-2934.35
0.5027,0.4973	-2935.32
0.4039,0.5961	-2938.45
0.5674,0.4326	-2934.87
0.5219,0.4781	-2934.09
0.4835,0.5165	-2935.69
0.5414,0.4586	-2936.99
0.4803,0.5197	-2935.37
0.4737,0.5263	-2935.77
0.5203,0.4797	-2935.15
0.5034,0.4966	-2935.32
0.4219,0.5781	-2937.51
0.5451,0.4549	-2933.96
0.4606,0.5394	-2935.78
0.5218,0.4782	-2936.37
0.4720,0.5280	-2936.16
0.4906,0.5094	-2935.43
0.4613,0.5387	-2934.83
0.5502,0.4498	-2933.33
0.4881,0.5119	-2935.21
0.5081,0.4919	-2935.44
0.5173,0.4827	-2935.51
0.5210,0.4790	-2935.65
0.4264,0.5736	-2936.27
0.5610,0.4390	-2935.70
0.5409,0.4591	-2934.00
0.5275,0.4725	-2934.60
0.4863,0.5137	-2935.13
0.5127,0.4873	-2934.80
0.4208,0.5792	-2935.04
0.5269,0.4731	-2934.83
0.5681,0.4319	-2932.70
0.5192,0.4808	-2935.15
0.5098,0.4902	-2935.17
0.5132,0.4868	-2935.68
0.4136,0.5864	-2939.98
0.5316,0.4684	-2934.42
0.5541,0.4459	-2932.85
0.4422,0.5578	-2934.31
0.5574,0.4426	-2936.49
0.4790,0.5210	-2935.30
0.3924,0.6076	-2931.86
0.5686,0.4314	-2936.01
0.5342,0.4658	-2935.89
0.4459,0.5541	-2936.86
0.5659,0.4341	-2936.16
0.5175,0.4825	-2934.60
0.4131,0.5869	-2935.48
0.5672,0.4328	-2932.43
0.5152,0.4848	-2934.87
0.4377,0.5623	-2935.91
0.6075,0.3925	-2928.58
0.5110,0.4890	-2935.54
0.4678,0.5322	-2936.22
0.5267,0.4733	-2934.83
0.4680,0.5320	-2936.98
0.4364,0.5636	-2934.95
0.5677,0.4323	-2934.34
0.5087,0.4913	-2935.65
0.5260,0.4740	-2935.77
0.5578,0.4422	-2931.40
0.4994,0.5006	-2935.46
0.4768,0.5232	-2936.06
0.5707,0.4293	-2934.69
0.5263,0.4737	-2933.56
0.5169,0.4831	-2935.37
0.5366,0.4634	-2935.83
0.5095,0.4905	-2935.97
0.4834,0.5166	-2935.36
0.5814,0.4186	-2935.71
0.5237,0.4763	-2935.43
0.5412,0.4588	-2933.84
0.4983,0.5017	-2935.47
0.5073,0.4927	-2935.32
0.4851,0.5149	-2935.65
0.6010,0.3990	-2933.98
0.5957,0.4043	-2929.91
0.5853,0.4147	-2934.87
0.5393,0.4607	-2936.07
0.4748,0.5252	-2934.93
0.4957,0.5043	-2935.33
0.6088,0.3912	-2936.53
0.6152,0.3848	-2932.30
0.6628,0.3372	-2931.68
0.5497,0.4503	-2935.14
0.4820,0.5180	-2934.93
0.5199,0.4801	-2934.59
0.6174,0.3826	-2935.25
0.5728,0.4272	-2935.63
0.6587,0.3413	-2920.26
0.5516,0.4484	-2934.56
0.4903,0.5097	-2935.01
0.5054,0.4946	-2935.26
0.6608,0.3392	-2924.89
0.5179,0.4821	-2935.09
0.6920,0.3080	-2930.67
0.5277,0.4723	-2935.15
0.5279,0.4721	-2936.49
0.5399,0.4601	-2934.18
0.6083,0.3917	-2929.90
0.5465,0.4535	-2933.77
0.7091,0.2909	-2917.83
0.5387,0.4613	-2934.96
0.4650,0.5350	-2934.94
0.5431,0.4569	-2933.81
0.6010,0.3990	-2931.93
0.5992,0.4008	-2931.50
0.6609,0.3391	-2930.23
0.5563,0.4437	-2934.62
0.4202,0.5798	-2934.43
0.5579,0.4421	-2934.42
0.6133,0.3867	-2926.25
0.5816,0.4184	-2931.44
0.6473,0.3527	-2925.40
0.4938,0.5062	-2935.75
0.4456,0.5544	-2936.87
0.5516,0.4484	-2934.14
0.5739,0.4261	-2934.79
0.5323,0.4677	-2933.63
0.6127,0.3873	-2926.26
0.4625,0.5375	-2936.32
0.4937,0.5063	-2935.93
0.5401,0.4599	-2936.26
0.5696,0.4304	-2931.30
0.4955,0.5045	-2935.27
0.6159,0.3841	-2930.44
0.4873,0.5127	-2935.81
0.4707,0.5293	-2936.33
0.5638,0.4362	-2932.47
0.5296,0.4704	-2935.52
0.5514,0.4486	-2934.14
0.5505,0.4495	-2933.94
0.5152,0.4848	-2935.30
0.4778,0.5222	-2935.58
0.5213,0.4787	-2934.63
0.5008,0.4992	-2935.45
0.5759,0.4241	-2933.93
0.5886,0.4114	-2932.50
0.5393,0.4607	-2933.71
0.5176,0.4824	-2935.72
0.5534,0.4466	-2932.65
0.5058,0.4942	-2935.60
0.5309,0.4691	-2934.68
0.5425,0.4575	-2935.69
0.5366,0.4634	-2934.36
0.4771,0.5229	-2935.96
0.4864,0.5136	-2935.68
0.5355,0.4645	-2934.94
0.5166,0.4834	-2934.44
0.5730,0.4270	-2931.82
0.5600,0.4400	-2933.49
0.4266,0.5734	-2934.78
0.4982,0.5018	-2935.52
0.5266,0.4734	-2934.61
0.5438,0.4562	-2935.91
0.6074,0.3926	-2930.33
0.5065,0.4935	-2935.15
0.4118,0.5882	-2934.13
0.4897,0.5103	-2935.72
0.4895,0.5105	-2935.65
0.5232,0.4768	-2935.14
0.5325,0.4675	-2933.63
0.4696,0.5304	-2934.44
0.4911,0.5089	-2935.33
0.4992,0.5008	-2935.43
0.4653,0.5347	-2936.47
0.4730,0.5270	-2935.03
0.5161,0.4839	-2935.49
0.4863,0.5137	-2935.35
0.4652,0.5348	-2935.50
0.5120,0.4880	-2935.36
0.5093,0.4907	-2935.44
0.4815,0.5185	-2935.96
0.4760,0.5240	-2936.00
0.4632,0.5368	-2934.81
0.4436,0.5564	-2935.19
0.5328,0.4672	-2934.14
0.4869,0.5131	-2936.14
0.4802,0.5198	-2935.85
0.5366,0.4634	-2934.95
0.4552,0.5448	-2935.62
0.4027,0.5973	-2935.82
0.5189,0.4811	-2935.38
0.4910,0.5090	-2935.54
0.4683,0.5317	-2934.67
0.5568,0.4432	-2935.32
0.4765,0.5235	-2935.41
0.4586,0.5414	-2934.36
0.5199,0.4801	-2935.71
0.5173,0.4827	-2936.06
0.4999,0.5001	-2935.46
0.5430,0.4570	-2934.50
0.5494,0.4506	-2935.92
0.4496,0.5504	-2938.25
0.5279,0.4721	-2935.15
0.5577,0.4423	-2935.34
0.4908,0.5092	-2935.58
0.5853,0.4147	-2935.22
0.5243,0.4757	-2934.75
0.4790,0.5210	-2935.13
0.5142,0.4858	-2935.47
0.6380,0.3620	-2927.66
0.5069,0.4931	-2935.55
0.5825,0.4175	-2932.76
0.5089,0.4911	-2935.48
0.5869,0.4131	-2935.99
0.5428,0.4572	-2934.67
0.6595,0.3405	-2928.84
0.5151,0.4849	-2935.12
0.6357,0.3643	-2926.52
0.5035,0.4965	-2935.57
0.5934,0.4066	-2934.47
0.5332,0.4668	-2935.06
0.6301,0.3699	-2932.38
0.4986,0.5014	-2935.42
0.6504,0.3496	-2929.14
0.5028,0.4972	-2935.47
0.5965,0.4035	-2931.08
0.4950,0.5050	-2935.65
0.5935,0.4065	-2929.93
0.4819,0.5181	-2935.29
0.6178,0.3822	-2935.28
0.4857,0.5143	-2935.81
0.5833,0.4167	-2930.08
0.5473,0.4527	-2936.99
0.6134,0.3866	-2928.55
0.5031,0.4969	-2935.46
0.6094,0.3906	-2935.68
0.5240,0.4760	-2935.05
0.5495,0.4505	-2934.73
0.5623,0.4377	-2932.24
0.5782,0.4218	-2933.98
0.4972,0.5028	-2935.44
0.5830,0.4170	-2928.75
0.5813,0.4187	-2935.37
0.5244,0.4756	-2934.36
0.6025,0.3975	-2932.38
0.5816,0.4184	-2930.12
0.4884,0.5116	-2935.40
0.5680,0.4320	-2934.34
0.6468,0.3532	-2930.84
0.5638,0.4362	-2934.26
0.5772,0.4228	-2934.58
0.5927,0.4073	-2932.94
0.5072,0.4928	-2935.67
0.5963,0.4037	-2934.59
0.6320,0.3680	-2933.01
0.5974,0.4026	-2933.85
0.5252,0.4748	-2934.54
0.5808,0.4192	-2937.31
0.5258,0.4742	-2934.94
0.6119,0.3881	-2932.20
0.6256,0.3744	-2930.14
0.5342,0.4658	-2935.21
0.5307,0.4693	-2935.29
0.5597,0.4403	-2934.68
0.5594,0.4406	-2933.01
0.6728,0.3272	-2928.74
0.6119,0.3881	-2932.65
0.5183,0.4817	-2936.11
0.5339,0.4661	-2935.61
0.5331,0.4669	-2934.00
0.5303,0.4697	-2933.71
0.6916,0.3084	-2929.03
0.6434,0.3566	-2933.65
0.5253,0.4747	-2934.94
0.5356,0.4644	-2934.23
0.5378,0.4622	-2935.11
0.4784,0.5216	-2935.56
0.5534,0.4466	-2933.94
0.6003,0.3997	-2936.40
0.5177,0.4823	-2934.45
0.5785,0.4215	-2935.26
0.5066,0.4934	-2935.30
0.4645,0.5355	-2935.38
0.5040,0.4960	-2935.39
0.5804,0.4196	-2932.42
0.5570,0.4430	-2932.80
0.5408,0.4592	-2935.97
0.4992,0.5008	-2935.49
0.4776,0.5224	-2935.94
0.5248,0.4752	-2934.75
0.5712,0.4288	-2934.99
0.5736,0.4264	-2932.70
0.4999,0.5001	-2935.46
0.5106,0.4894	-2935.28
0.4770,0.5230	-2934.76
0.4641,0.5359	-2935.53
0.5889,0.4111	-2929.99
0.5811,0.4189	-2929.48
0.4918,0.5082	-2935.66
0.5065,0.4935	-2935.44
0.5017,0.4983	-2935.45
0.4988,0.5012	-2935.46
0.5369,0.4631	-2934.80
0.5411,0.4589	-2934.83
0.4849,0.5151	-2935.77
0.5402,0.4598	-2935.79
0.5615,0.4385	-2935.22
0.5645,0.4355	-2936.35
0.5771,0.4229	-2933.65
0.5809,0.4191	-2935.36
0.4646,0.5354	-2934.10
0.5171,0.4829	-2935.64
0.5788,0.4212	-2935.27
0.5386,0.4614	-2933.57
0.5559,0.4441	-2935.74
0.6004,0.3996	-2938.44
0.4200,0.5800	-2933.47
0.5270,0.4730	-2934.93
0.5683,0.4317	-2935.17
0.5663,0.4337	-2933.51
0.5866,0.4134	-2932.47
0.6451,0.3549	-2927.78
0.4140,0.5860	-2933.68
0.5163,0.4837	-2935.30
0.5668,0.4332	-2936.74
0.5369,0.4631	-2935.84
0.6290,0.3710	-2928.64
0.5917,0.4083	-2934.40
0.4121,0.5879	-2933.05
0.5799,0.4201	-2933.06
0.5928,0.4072	-2936.32
0.5783,0.4217	-2934.30
0.5837,0.4163	-2931.43
0.5709,0.4291	-2935.84
0.4133,0.5867	-2936.16
0.5587,0.4413	-2935.14
0.5680,0.4320	-2927.50
0.5508,0.4492	-2932.30
0.6116,0.3884	-2933.10
0.5718,0.4282	-2934.43
0.4473,0.5527	-2936.98
0.5493,0.4507	-2936.31
0.5112,0.4888	-2934.78
0.5400,0.4600	-2933.86
0.5962,0.4038	-2932.63
0.5034,0.4966	-2935.43
0.4854,0.5146	-2935.64
0.5972,0.4028	-2934.63
0.4951,0.5049	-2935.41
0.5295,0.4705	-2934.34
0.5738,0.4262	-2933.59
0.4766,0.5234	-2936.07
0.5117,0.4883	-2935.50
0.6034,0.3966	-2933.24
0.4668,0.5332	-2937.59
0.5606,0.4394	-2934.70
0.5682,0.4318	-2932.70
0.4195,0.5805	-2935.11
0.5343,0.4657	-2935.62
0.5360,0.4640	-2934.80
0.4796,0.5204	-2936.52
0.5514,0.4486	-2931.87
0.5454,0.4546	-2933.60
0.4315,0.5685	-2933.21
0.5302,0.4698	-2934.81
0.5169,0.4831	-2935.50
0.5156,0.4844	-2934.99
0.5440,0.4560	-2935.91
0.5300,0.4700	-2936.01
0.4822,0.5178	-2936.15
0.5469,0.4531	-2934.51
0.5551,0.4449	-2935.71
0.5352,0.4648	-2934.37
0.5693,0.4307	-2936.60
0.5298,0.4702	-2934.69
0.4977,0.5023	-2935.47
0.5347,0.4653	-2933.96
0.5853,0.4147	-2929.36
0.5563,0.4437	-2935.30
0.5407,0.4593	-2935.48
0.5445,0.4555	-2932.90
0.5349,0.4651	-2935.08
0.5413,0.4587	-2933.50
0.4985,0.5015	-2935.47
0.5487,0.4513	-2935.31
0.5301,0.4699	-2934.56
0.5252,0.4748	-2934.84
0.5036,0.4964	-2935.44
0.6062,0.3938	-2932.91
0.5176,0.4824	-2934.95
0.5298,0.4702	-2934.33
0.4995,0.5005	-2935.46
0.5242,0.4758	-2934.85
0.4808,0.5192	-2935.60
0.5854,0.4146	-2933.49
0.5329,0.4671	-2935.72
0.5235,0.4765	-2934.39
0.4896,0.5104	-2936.10
0.5016,0.4984	-2935.40
0.4908,0.5092	-2935.58
0.5957,0.4043	-2934.18
0.5229,0.4771	-2936.24
0.5578,0.4422	-2932.79
0.4212,0.5788	-2930.89
0.4921,0.5079	-2935.27
0.4503,0.5497	-2935.20
0.5401,0.4599	-2935.78
0.4647,0.5353	-2935.37
0.5676,0.4324	-2932.16
0.4797,0.5203	-2935.30
0.4602,0.5398	-2934.36
0.4895,0.5105	-2935.56
0.5536,0.4464	-2934.37
0.5250,0.4750	-2934.24
0.5880,0.4120	-2937.11
0.4663,0.5337	-2935.34
0.4686,0.5314	-2936.43
0.4664,0.5336	-2937.63
0.5891,0.4109	-2932.87
0.5538,0.4462	-2935.66
0.5869,0.4131	-2935.63
0.4735,0.5265	-2935.03
0.4927,0.5073	-2935.43
0.5304,0.4696	-2933.95
0.5928,0.4072	-2930.31
0.5609,0.4391	-2935.94
0.5196,0.4804	-2935.23
0.4932,0.5068	-2935.38
0.4871,0.5129	-2936.13
0.5473,0.4527	-2934.90
0.5202,0.4798	-2934.74
0.5441,0.4559	-2934.32
0.5145,0.4855	-2935.07
0.5251,0.4749	-2935.24
0.4600,0.5400	-2935.80
0.5546,0.4454	-2934.38
0.5446,0.4554	-2937.01
0.5124,0.4876	-2935.36
0.4808,0.5192	-2935.98
0.5346,0.4654	-2934.80
0.5015,0.4985	-2935.44
0.5784,0.4216	-2930.19
0.5231,0.4769	-2935.60
0.5006,0.4994	-2935.49
0.4664,0.5336	-2934.26
0.4909,0.5091	-2935.43
0.5028,0.4972	-2935.42
0.5765,0.4235	-2929.01
0.5137,0.4863	-2935.36
0.5081,0.4919	-2935.21
0.5205,0.4795	-2935.72
0.5582,0.4418	-2933.25
0.4932,0.5068	-2935.57
0.6071,0.3929	-2930.76
0.4835,0.5165	-2935.36
0.5037,0.4963	-2935.41
0.5425,0.4575	-2936.37
0.5420,0.4580	-2934.67
0.5528,0.4472	-2933.09
0.5806,0.4194	-2936.65
0.4953,0.5047	-2935.66
0.4705,0.5295	-2935.63
0.5478,0.4522	-2936.44
0.5510,0.4490	-2935.98
0.5578,0.4422	-2936.74
0.6446,0.3554	-2925.39
0.4628,0.5372	-2935.71
0.5165,0.4835	-2935.90
0.5524,0.4476	-2934.15
0.5822,0.4178	-2933.09
0.5782,0.4218	-2932.72
0.5416,0.4584	-2932.99
0.5223,0.4777	-2934.25
0.5159,0.4841	-2935.75
0.5265,0.4735	-2935.68
0.5992,0.4008	-2931.50
0.5914,0.4086	-2931.43
0.5108,0.4892	-2935.88
0.4667,0.5333	-2936.40
0.4990,0.5010	-2935.45
0.5131,0.4869	-2936.04
0.6291,0.3709	-2933.92
0.5582,0.4418	-2934.89
0.5065,0.4935	-2935.23
0.5071,0.4929	-2935.49
0.4975,0.5025	-2935.55
0.4794,0.5206	-2935.79
0.6245,0.3755	-2928.59
0.5814,0.4186	-2935.71
0.4764,0.5236	-2935.89
0.5664,0.4336	-2938.32
0.4791,0.5209	-2934.97
0.4686,0.5314	-2935.05
0.6102,0.3898	-2934.84
0.5804,0.4196	-2933.07
0.4886,0.5114	-2934.58
0.5858,0.4142	-2928.65
0.5102,0.4898	-2935.77
0.4754,0.5246	-2936.81
0.6024,0.3976	-2927.81
0.5446,0.4554	-2933.61
0.4967,0.5033	-2935.49
0.5771,0.4229	-2935.20
0.5034,0.4966	-2935.32
0.5295,0.4705	-2934.93
0.6243,0.3757	-2929.09
0.5454,0.4546	-2935.42
0.5393,0.4607	-2934.66
0.5443,0.4557	-2933.44
0.5162,0.4838	-2934.85
0.5441,0.4559	-2935.39
0.6420,0.3580	-2928.31
0.5398,0.4602	-2935.14
0.5006,0.4994	-2935.48
0.5369,0.4631	-2934.65
0.5208,0.4792	-2935.48
0.5265,0.4735	-2934.72
0.6325,0.3675	-2934.12
0.5183,0.4817	-2935.89
0.5530,0.4470	-2935.21
0.5096,0.4904	-2935.37
0.5486,0.4514	-2937.26
0.5378,0.4622	-2935.56
0.5992,0.4008	-2930.70
0.5099,0.4901	-2935.37
0.5429,0.4571	-2934.33
0.5028,0.4972	-2935.35
0.5247,0.4753	-2935.64
0.5337,0.4663	-2935.20
0.6239,0.3761	-2933.13
0.5537,0.4463	-2932.86
0.5465,0.4535	-2933.21
0.4661,0.5339	-2935.62
0.4544,0.5456	-2934.55
0.4600,0.5400	-2934.68
0.5484,0.4516	-2932.78
0.5505,0.4495	-2935.35
0.5190,0.4810	-2934.77
0.5489,0.4511	-2936.49
0.4622,0.5378	-2936.34
0.4038,0.5962	-2936.90
0.5360,0.4640	-2935.52
0.5613,0.4387	-2934.72
0.5089,0.4911	-2935.05
0.5368,0.4632	-2935.10
0.4686,0.5314	-2935.80
0.4441,0.5559	-2935.62
0.5271,0.4729	-2934.17
0.5061,0.4939	-2935.44
0.5095,0.4905	-2935.29
0.5652,0.4348	-2936.39
0.4405,0.5595	-2933.63
0.5336,0.4664	-2934.80
0.5154,0.4846	-2935.49
0.4863,0.5137	-2936.50
0.4780,0.5220	-2935.22
0.5750,0.4250	-2930.59
0.4627,0.5373	-2934.97
0.5055,0.4945	-2935.50
0.5913,0.4087	-2934.39
0.4936,0.5064	-2935.18
0.4654,0.5346	-2936.19
0.6263,0.3737	-2927.57
0.4852,0.5148	-2935.35
0.4995,0.5005	-2935.45
0.6224,0.3776	-2928.07
0.4920,0.5080	-2935.50
0.4459,0.5541	-2934.90
0.5570,0.4430	-2935.78
0.4796,0.5204	-2936.52
0.4675,0.5325	-2934.41
0.5859,0.4141	-2938.01
0.5233,0.4767	-2935.51
0.4589,0.5411	-2936.17
0.5481,0.4519	-2935.88
0.4746,0.5254	-2936.76
0.4686,0.5314	-2935.80
0.5832,0.4168	-2932.10
0.5115,0.4885	-2935.04
0.4294,0.5706	-2936.38
0.5449,0.4551	-2933.24
0.5248,0.4752	-2934.84
0.4840,0.5160	-2935.93
0.5460,0.4540	-2935.80
0.4940,0.5060	-2935.57
0.4714,0.5286	-2936.75
0.5791,0.4209	-2939.12
0.4871,0.5129	-2935.45
0.4768,0.5232	-2936.34
0.5326,0.4674	-2934.67
0.5069,0.4931	-2935.05
0.5098,0.4902	-2935.25
0.5731,0.4269	-2936.82
0.5131,0.4869	-2934.78
0.4796,0.5204	-2935.30
0.5446,0.4554	-2934.14
0.4949,0.5051	-2935.17
0.4437,0.5563	-2937.90
0.5728,0.4272	-2933.87
0.4812,0.5188	-2935.89
0.4514,0.5486	-2934.39
0.5441,0.4559	-2935.21
0.4615,0.5385	-2936.68
0.4484,0.5516	-2934.84
0.5630,0.4370	-2932.73
0.4808,0.5192	-2935.22
0.4415,0.5585	-2933.62
0.5470,0.4530	-2931.69
0.4641,0.5359	-2934.66
0.4565,0.5435	-2936.98
0.5537,0.4463	-2933.94
0.5406,0.4594	-2936.29
0.5098,0.4902	-2934.97
0.5236,0.4764	-2935.24
0.4811,0.5189	-2934.84
0.4501,0.5499	-2933.00
0.5725,0.4275	-2937.08
0.5610,0.4390	-2934.71
0.5299,0.4701	-2934.69
0.5311,0.4689	-2933.43
0.4463,0.5537	-2936.83
0.5055,0.4945	-2935.33
0.6284,0.3716	-2929.68
0.6020,0.3980	-2929.88
0.5658,0.4342	-2936.16
0.5081,0.4919	-2935.41
0.4394,0.5606	-2935.83
0.4598,0.5402	-2935.33
0.6279,0.3721	-2933.33
0.5328,0.4672	-2935.85
0.5847,0.4153	-2937.24
0.6146,0.3854	-2936.01
0.4656,0.5344	-2935.35
0.4587,0.5413	-2934.03
0.5942,0.4058	-2931.83
0.4978,0.5022	-2935.38
0.5898,0.4102	-2934.70
0.5909,0.4091	-2935.84
0.5251,0.4749	-2935.14
0.4546,0.5454	-2934.92
0.5852,0.4148	-2934.52
0.5260,0.4740	-2934.63
0.5601,0.4399	-2933.49
0.6211,0.3789	-2934.49
0.4729,0.5271	-2936.66
0.4531,0.5469	-2937.20
0.5460,0.4540	-2935.43
0.4952,0.5048	-2935.57
0.5310,0.4690	-2935.92
0.6113,0.3887	-2940.33
0.4631,0.5369	-2935.70
0.4778,0.5222	-2936.11
0.5854,0.4146	-2932.11
0.5145,0.4855	-2935.13
0.4966,0.5034	-2935.49
0.5801,0.4199	-2935.00
0.4487,0.5513	-2936.07
0.4476,0.5524	-2936.12
0.5725,0.4275	-2936.20
0.4893,0.5107	-2935.57
0.5151,0.4849	-2935.66
0.5841,0.4159	-2934.48
0.4812,0.5188	-2936.27
0.4413,0.5587	-2936.45
0.5434,0.4566	-2935.20
0.5170,0.4830	-2935.10
0.5705,0.4295	-2935.54
0.5882,0.4118	-2938.20
0.4651,0.5349	-2935.36
0.4411,0.5589	-2935.99
0.5927,0.4073	-2932.94
0.5850,0.4150	-2935.20
0.4865,0.5135	-2935.51
0.5817,0.4183	-2933.08
0.5060,0.4940	-2935.32
0.5151,0.4849	-2935.30
0.5742,0.4258	-2935.09
0.5577,0.4423	-2933.49
0.4834,0.5166	-2936.48
0.5831,0.4169	-2939.15
0.5118,0.4882	-2935.69
0.4970,0.5030	-2935.50
0.5242,0.4758	-2934.17
0.6062,0.3938	-2936.36
0.4829,0.5171	-2935.90
0.6106,0.3894	-2941.16
0.4957,0.5043	-2935.45
0.5393,0.4607	-2935.29
0.5035,0.4965	-2935.55
0.6162,0.3838	-2932.81
0.5100,0.4900	-2935.05
0.6495,0.3505	-2920.48
0.5270,0.4730	-2935.37
0.5630,0.4370	-2932.23
0.5102,0.4898	-2934.75
0.6371,0.3629	-2936.09
0.5388,0.4612	-2934.34
0.5488,0.4512	-2934.33
0.5114,0.4886	-2935.73
0.5630,0.4370	-2935.77
0.5191,0.4809	-2935.38
0.6355,0.3645	-2932.63
0.5670,0.4330	-2934.32
0.4967,0.5033	-2935.52
0.5174,0.4826	-2934.67
0.5498,0.4502	-2935.94
0.4736,0.5264	-2936.41
0.6122,0.3878	-2932.21
0.5900,0.4100	-2935.07
0.5012,0.4988	-2935.47
0.4979,0.5021	-2935.47
0.5422,0.4578	-2935.85
0.4924,0.5076	-2935.52
0.6160,0.3840	-2932.33
0.6139,0.3861	-2931.33
0.5174,0.4826	-2935.79
0.5320,0.4680	-2935.44
0.4960,0.5040	-2935.32
0.4539,0.5461	-2934.00
0.5984,0.4016	-2931.89
0.5800,0.4200	-2931.45
0.5231,0.4769	-2935.51
0.5367,0.4633	-2935.39
0.5294,0.4706	-2935.75
0.4734,0.5266	-2935.14
0.5924,0.4076	-2934.05
0.5396,0.4604	-2934.34
0.5292,0.4708	-2934.93
0.5307,0.4693	-2934.43
0.5184,0.4816	-2935.30
0.4549,0.5451	-2932.20
0.5779,0.4221	-2935.86
0.5752,0.4248	-2933.61
0.5257,0.4743	-2933.39
0.5705,0.4295	-2933.26
0.4833,0.5167	-2936.23
0.4511,0.5489	-2937.93
0.5756,0.4244	-2933.32
0.5277,0.4723	-2935.37
0.5356,0.4644	-2933.94
0.5941,0.4059	-2933.73
0.5142,0.4858	-2935.76
0.4472,0.5528	-2935.72
0.6282,0.3718	-2930.72
0.5083,0.4917	-2935.27
0.5102,0.4898	-2935.04
0.5887,0.4113	-2933.93
0.5169,0.4831	-2935.50
0.4828,0.5172	-2935.57
0.6330,0.3670	-2925.97
0.5020,0.4980	-2935.43
0.5227,0.4773	-2935.41
0.5940,0.4060	-2926.12
0.5119,0.4881	-2935.65
0.5014,0.4986	-2935.48
0.6625,0.3375	-2920.20
0.5579,0.4421	-2937.44
0.5229,0.4771	-2934.41
0.5891,0.4109	-2936.10
0.5037,0.4963	-2935.43
0.5092,0.4908	-2935.55
0.6650,0.3350	-2926.33
0.5286,0.4714	-2936.07
0.5203,0.4797	-2934.66
0.6062,0.3938	-2931.61
0.5056,0.4944	-2935.28
0.5112,0.4888	-2935.45
0.6229,0.3771	-2931.58
0.5113,0.4887	-2935.36
0.5157,0.4843	-2935.43
0.6270,0.3730	-2932.77
0.4999,0.5001	-2935.46
0.5007,0.4993	-2935.47
0.6122,0.3878	-2930.38
0.5168,0.4832	-2935.03
0.5144,0.4856	-2935.82
0.6075,0.3925	-2932.08
0.5044,0.4956	-2935.30
0.5115,0.4885	-2934.99
0.5863,0.4137	-2932.47
0.5127,0.4873	-2934.90
0.5165,0.4835	-2935.10
0.6216,0.3784	-2930.55
0.4910,0.5090	-2935.61
0.5270,0.4730	-2935.91
0.5713,0.4287	-2934.71
0.5130,0.4870	-2936.03
0.4994,0.5006	-2935.45
0.6329,0.3671	-2925.97
0.4938,0.5062	-2935.46
0.5196,0.4804	-2935.93
0.5817,0.4183	-2934.73
0.5359,0.4641	-2935.09
0.5391,0.4609	-2934.66
0.6585,0.3415	-2923.55
0.5543,0.4457	-2937.21
0.5249,0.4751	-2935.44
0.5755,0.4245	-2935.44
0.5215,0.4785	-2935.32
0.5117,0.4883	-2935.45
0.6309,0.3691	-2933.48
0.5261,0.4739	-2935.35
0.5015,0.4985	-2935.46
0.5522,0.4478	-2932.89
0.4962,0.5038	-2935.31
0.5420,0.4580	-2933.32
0.6009,0.3991	-2939.29
0.5435,0.4565	-2938.16
0.5133,0.4867	-2935.15
0.5175,0.4825	-2935.02
0.5363,0.4637	-2934.36
0.5522,0.4478	-2934.56
0.5736,0.4264	-2932.40
0.5084,0.4916	-2935.64
0.5758,0.4242	-2934.54
0.5683,0.4317	-2931.32
0.5800,0.4200	-2938.22
0.4959,0.5041	-2935.48
0.5469,0.4531	-2935.64
0.4665,0.5335	-2934.67
0.5350,0.4650	-2935.50
0.5763,0.4237	-2933.02
0.5295,0.4705	-2935.04
0.4572,0.5428	-2935.39
0.5346,0.4654	-2934.11
0.4692,0.5308	-2934.43
0.4284,0.5716	-2932.97
0.6014,0.3986	-2930.30
0.4982,0.5018	-2935.46
0.5045,0.4955	-2935.33
0.5430,0.4570	-2934.84
0.4816,0.5184	-2935.59
0.4853,0.5147	-2935.70
0.5459,0.4541	-2933.96
0.4875,0.5125	-2935.70
0.5403,0.4597	-2935.79
0.5654,0.4346	-2934.29
0.4677,0.5323	-2935.96
0.5490,0.4510	-2935.91
0.5574,0.4426	-2935.79
0.5241,0.4759	-2935.24
0.5422,0.4578	-2935.17
0.5606,0.4394	-2933.49
0.4368,0.5632	-2934.69
0.5390,0.4610	-2936.06
0.5470,0.4530	-2935.65
0.4512,0.5488	-2935.37
0.5222,0.4778	-2935.68
0.5175,0.4825	-2934.88
0.4824,0.5176	-2935.78
0.5284,0.4716	-2935.84
0.5535,0.4465	-2935.65
0.4703,0.5297	-2935.99
0.4247,0.5753	-2935.47
0.5592,0.4408	-2934.67
0.5516,0.4484	-2932.90
0.5215,0.4785	-2934.89
0.5217,0.4783	-2934.36
0.4162,0.5838	-2933.26
0.4732,0.5268	-2935.68
0.5758,0.4242	-2935.15
0.5292,0.4708	-2934.81
0.5501,0.4499	-2934.34
0.4741,0.5259	-2935.45
0.4323,0.5677	-2931.57
0.4721,0.5279	-2935.82
0.5234,0.4766	-2936.17
0.5317,0.4683	-2936.20
0.5547,0.4453	-2934.16
0.4267,0.5733	-2934.48
0.4630,0.5370	-2933.92
0.4671,0.5329	-2935.85
0.5220,0.4780	-2935.93
0.5336,0.4664	-2936.14
0.5419,0.4581	-2933.66
0.4434,0.5566	-2934.97
0.4491,0.5509	-2933.60
0.4734,0.5266	-2934.71
0.4923,0.5077	-2935.77
0.5128,0.4872	-2934.75
0.4930,0.5070	-2935.49
0.4694,0.5306	-2934.92
0.5461,0.4539	-2936.36
0.5063,0.4937	-2935.41
0.5107,0.4893	-2935.19
0.5167,0.4833	-2935.30
0.5332,0.4668	-2934.27
0.4857,0.5143	-2935.58
0.5673,0.4327	-2932.70
0.4825,0.5175	-2935.71
0.5542,0.4458	-2936.11
0.5069,0.4931	-2935.19
0.6053,0.3947	-2932.02
0.4528,0.5472	-2935.71
0.5598,0.4402	-2936.37
0.4915,0.5085	-2935.57
0.5047,0.4953	-2935.31
0.5909,0.4091	-2933.27
0.5649,0.4351	-2932.46
0.4680,0.5320	-2933.52
0.5087,0.4913	-2935.96
0.5011,0.4989	-2935.45
0.5137,0.4863	-2935.36
0.5729,0.4271	-2937.39
0.5637,0.4363	-2933.49
0.4955,0.5045	-2935.65
0.4721,0.5279	-2935.15
0.5416,0.4584	-2934.50
0.5206,0.4794	-2935.72
0.5403,0.4597	-2935.47
0.5574,0.4426	-2932.80
0.5088,0.4912	-2935.55
0.4743,0.5257	-2935.44
0.5408,0.4592	-2934.17
0.5136,0.4864	-2934.33
0.5654,0.4346	-2932.98
0.5976,0.4024	-2934.64
0.5115,0.4885	-2935.36
0.4904,0.5096	-2935.51
0.5696,0.4304	-2932.70
0.5239,0.4761	-2934.95
0.5883,0.4117	-2942.13
0.5834,0.4166	-2933.11
0.4424,0.5576	-2934.31
0.4854,0.5146	-2935.17
0.5623,0.4377	-2933.74
0.5072,0.4928	-2935.26
0.5798,0.4202	-2933.38
0.5491,0.4509	-2935.32
0.4444,0.5556	-2933.38
0.4685,0.5315	-2934.93
0.5738,0.4262	-2935.38
0.5354,0.4646	-2935.79
0.5485,0.4515	-2930.83
0.5338,0.4662	-2933.99
0.4260,0.5740	-2938.68
0.5486,0.4514	-2934.33
0.5472,0.4528	-2938.49
0.5376,0.4624	-2934.35
0.4970,0.5030	-2935.48
0.5678,0.4322	-2929.98
0.3880,0.6120	-2931.63
0.5875,0.4125	-2935.31
0.5571,0.4429	-2933.95
0.5145,0.4855	-2935.42
0.5470,0.4530	-2933.57
0.5532,0.4468	-2935.00
0.4266,0.5734	-2934.78
0.5849,0.4151	-2930.39
0.5183,0.4817	-2935.08
0.5591,0.4409	-2934.91
0.5321,0.4679	-2935.83
0.5520,0.4480	-2934.56
0.4400,0.5600	-2936.77
0.5779,0.4221	-2931.46
0.5368,0.4632	-2935.10
0.5223,0.4777	-2935.68
0.4972,0.5028	-2935.47
0.5484,0.4516	-2937.05
0.4605,0.5395	-2936.10
0.5469,0.4531	-2933.76
0.5999,0.4001	-2936.37
0.5372,0.4628	-2936.29
0.4926,0.5074	-2935.28
0.6102,0.3898	-2933.05
0.4574,0.5426	-2935.38
0.5533,0.4467	-2938.85
0.5913,0.4087	-2932.91
0.5091,0.4909	-2935.08
0.5087,0.4913	-2935.37
0.6323,0.3677	-2928.14
0.4951,0.5049	-2935.28
0.5309,0.4691	-2935.17
0.5811,0.4189	-2931.44
0.5086,0.4914	-2935.58
0.4693,0.5307	-2936.03
0.6573,0.3427	-2924.20
0.5302,0.4698	-2935.41
0.4828,0.5172	-2935.50
0.5704,0.4296	-2936.10
0.4965,0.5035	-2935.45
0.4805,0.5195	-2935.06
0.6484,0.3516	-2933.98
0.5198,0.4802	-2935.23
0.5207,0.4793	-2934.90
0.5815,0.4185	-2929.46
0.5309,0.4691	-2933.81
0.4810,0.5190	-2935.44
0.5968,0.4032	-2935.79
0.5394,0.4606	-2934.02
0.5185,0.4815	-2935.60
0.5872,0.4128	-2934.24
0.4996,0.5004	-2935.47
0.4934,0.5066	-2935.62
0.5868,0.4132	-2932.12
0.5902,0.4098	-2936.54
0.5643,0.4357	-2937.12
0.5919,0.4081	-2933.67
0.4649,0.5351	-2935.09
0.5356,0.4644	-2935.37
0.4887,0.5113	-2935.44
0.5587,0.4413	-2932.54
0.5550,0.4450	-2935.26
0.5013,0.4987	-2935.44
0.4856,0.5144	-2935.52
0.5190,0.4810	-2935.53
0.5251,0.4749	-2934.34
0.5466,0.4534	-2934.51
0.5171,0.4829	-2934.89
0.4388,0.5612	-2934.87
0.4615,0.5385	-2936.83
0.4566,0.5434	-2936.10
0.4886,0.5114	-2934.90
0.5137,0.4863	-2935.41
0.5624,0.4376	-2934.49
0.4633,0.5367	-2934.52
0.4759,0.5241	-2934.94
0.5113,0.4887	-2935.18
0.4940,0.5060	-2935.77
0.4724,0.5276	-2935.15
0.5775,0.4225	-2935.84
0.5143,0.4857	-2935.30
0.4740,0.5260	-2934.30
0.4851,0.5149	-2935.41
0.5417,0.4583	-2936.50
0.4773,0.5227	-2935.49
0.5660,0.4340	-2932.98
0.5223,0.4777	-2934.43
0.4812,0.5188	-2934.84
0.4850,0.5150	-2935.71
0.5588,0.4412	-2933.72
0.4914,0.5086	-2935.40
0.5952,0.4048	-2938.39
0.5314,0.4686	-2934.80
0.4457,0.5543	-2935.34
0.4906,0.5094	-2935.70
0.5392,0.4608	-2935.28
0.4429,0.5571	-2936.13
0.5947,0.4053	-2931.84
0.5486,0.4514	-2935.31
0.4689,0.5311	-2936.29
0.4858,0.5142	-2935.29
0.5459,0.4541	-2934.32
0.4617,0.5383	-2936.21
0.5991,0.4009	-2928.28
0.5592,0.4408	-2934.67
0.4778,0.5222	-2936.29
0.5296,0.4704	-2935.64
0.5925,0.4075	-2936.68
0.4242,0.5758	-2934.27
0.5953,0.4047	-2934.16
0.5952,0.4048	-2932.61
0.5017,0.4983	-2935.38
0.5144,0.4856	-2934.56
0.5551,0.4449	-2935.05
0.4426,0.5574	-2935.22
0.6387,0.3613	-2929.95
0.6333,0.3667	-2929.79
0.5722,0.4278	-2930.95
0.4864,0.5136	-2935.35
0.5197,0.4803	-2934.52
0.4294,0.5706	-2932.11
0.6327,0.3673	-2930.32
0.5786,0.4214	-2933.04
0.5358,0.4642	-2936.66
0.4823,0.5177	-2935.43
0.5426,0.4574	-2933.64
0.4307,0.5693	-2934.62
0.6385,0.3615	-2929.94
0.6085,0.3915	-2931.66
0.5016,0.4984	-2935.46
0.5054,0.4946	-2935.33
0.5557,0.4443	-2935.51
0.4323,0.5677	-2938.11
0.6308,0.3692	-2924.91
0.6662,0.3338	-2930.51
0.4880,0.5120	-2935.45
0.4538,0.5462	-2934.37
0.5438,0.4562	-2935.38
0.4587,0.5413	-2935.52
0.6549,0.3451	-2928.67
0.6550,0.3450	-2926.11
0.5103,0.4897	-2935.32
0.5011,0.4989	-2935.41
0.5362,0.4638	-2934.95
0.4606,0.5394	-2934.52
0.6160,0.3840	-2931.86
0.6468,0.3532	-2933.26
0.5156,0.4844	-2935.18
0.5275,0.4725	-2935.59
0.5617,0.4383	-2933.49
0.5404,0.4596	-2935.47
0.6296,0.3704	-2931.30
0.6348,0.3652	-2933.15
0.5118,0.4882	-2935.03
0.5720,0.4280	-2932.70
0.5502,0.4498	-2935.55
0.5637,0.4363	-2936.57
0.5708,0.4292	-2932.13
0.6310,0.3690	-2928.66
0.4750,0.5250	-2934.83
0.4879,0.5121	-2935.54
0.5269,0.4731	-2934.93
0.5417,0.4583	-2936.67
0.5661,0.4339	-2935.10
0.6141,0.3859	-2933.20
0.4873,0.5127	-2935.40
0.4837,0.5163	-2936.27
0.4862,0.5138	-2935.85
0.5824,0.4176	-2932.76
0.5471,0.4529	-2935.84
0.6182,0.3818	-2933.37
0.5577,0.4423	-2934.65
0.4495,0.5505	-2934.01
0.5391,0.4609	-2932.93
0.5998,0.4002	-2931.91
0.5542,0.4458	-2935.03
0.5864,0.4136	-2939.45
0.5528,0.4472	-2930.75
0.4573,0.5427	-2935.90
0.5256,0.4744	-2934.73
0.5804,0.4196	-2937.29
0.5385,0.4615	-2934.81
0.6413,0.3587	-2929.45
0.5721,0.4279	-2936.18
0.4542,0.5458	-2935.47
0.5100,0.4900	-2935.56
0.5136,0.4864	-2935.20
0.4916,0.5084	-2935.77
0.6822,0.3178	-2930.76
0.5357,0.4643	-2935.66
0.4925,0.5075	-2935.61
0.5043,0.4957	-2935.35
0.4628,0.5372	-2934.52
0.5236,0.4764	-2935.99
0.6351,0.3649	-2929.29
0.5274,0.4726	-2934.49
0.5130,0.4870	-2935.57
0.5424,0.4576	-2933.99
0.4844,0.5156	-2935.10
0.5189,0.4811	-2934.93
0.6292,0.3708	-2931.28
0.5371,0.4629	-2936.29
0.5126,0.4874	-2935.26
0.5377,0.4623	-2936.77
0.4544,0.5456	-2935.65
0.5067,0.4933	-2935.25
0.5989,0.4011	-2927.89
0.5558,0.4442	-2934.39
0.5543,0.4457	-2934.59
0.5378,0.4622	-2935.11
0.4656,0.5344	-2935.63
0.5175,0.4825	-2935.02
0.5860,0.4140	-2934.20
0.5766,0.4234	-2933.64
0.5411,0.4589	-2936.31
0.5479,0.4521	-2935.29
0.4993,0.5007	-2935.45
0.5028,0.4972	-2935.63
0.5525,0.4475	-2936.46
0.5657,0.4343	-2932.98
0.4852,0.5148	-2935.94
0.5320,0.4680	-2934.41
0.4890,0.5110	-2935.26
0.5004,0.4996	-2935.46
0.5445,0.4555	-2936.65
0.5890,0.4110	-2931.78
0.4834,0.5166	-2936.22
0.5581,0.4419	-2933.95
0.5131,0.4869	-2935.31
0.5214,0.4786	-2934.71
0.5458,0.4542	-2932.86
0.6032,0.3968	-2933.65
0.4726,0.5274	-2934.70
0.5070,0.4930	-2935.32
0.5024,0.4976	-2935.45
0.5417,0.4583	-2935.84
0.5208,0.4792	-2934.73
0.5650,0.4350	-2934.02
0.4899,0.5101	-2935.32
0.5086,0.4914	-2935.10
0.5184,0.4816	-2935.89
0.5539,0.4461	-2934.80
0.4882,0.5118	-2935.59
0.5895,0.4105	-2930.34
0.4669,0.5331	-2935.86
0.5163,0.4837	-2934.97
0.5148,0.4852	-2935.48
0.5833,0.4167	-2934.12
0.5379,0.4621	-2936.33
0.6176,0.3824	-2933.82
0.4915,0.5085	-2935.47
0.5347,0.4653	-2934.94
0.5213,0.4787	-2935.31
0.5537,0.4463	-2935.23
0.5245,0.4755	-2935.93
0.5739,0.4261	-2933.89
0.5121,0.4879	-2935.36
0.5306,0.4694	-2935.66
0.5102,0.4898	-2935.61
0.5568,0.4432	-2932.12
0.5078,0.4922	-2935.12
0.5557,0.4443	-2935.28
0.5185,0.4815	-2935.30
0.5712,0.4288	-2933.84
0.5249,0.4751	-2935.94
0.5430,0.4570	-2932.77
0.4544,0.5456	-2935.10
0.5900,0.4100	-2932.15
0.5456,0.4544	-2935.42
0.5608,0.4392	-2935.69
0.5635,0.4365	-2935.03
0.5329,0.4671	-2937.43
0.4982,0.5018	-2935.50
0.6059,0.3941	-2932.04
0.5516,0.4484	-2933.52
0.5987,0.4013	-2931.89
0.5652,0.4348	-2933.50
0.5785,0.4215	-2931.14
0.5159,0.4841	-2935.94
0.5813,0.4187	-2936.03
0.5067,0.4933	-2935.25
0.5956,0.4044	-2935.33
0.5201,0.4799	-2934.18
0.5658,0.4342	-2933.51
0.5337,0.4663	-2935.07
0.6016,0.3984	-2932.36
0.5338,0.4662	-2935.47
0.5689,0.4311	-2935.20
0.5303,0.4697	-2935.05
0.5690,0.4310	-2935.20
0.4891,0.5109	-2935.22
0.5962,0.4038	-2928.74
0.5079,0.4921	-2935.15
0.5405,0.4595	-2933.20
0.5343,0.4657	-2936.03
0.5690,0.4310	-2937.42
0.4803,0.5197	-2935.22
0.5532,0.4468	-2932.87
0.4829,0.5171	-2935.43
0.5620,0.4380	-2934.99
0.4941,0.5059	-2935.48
0.5586,0.4414	-2935.37
0.4464,0.5536	-2937.04
0.5196,0.4804	-2935.31
0.5033,0.4967	-2935.55
0.5558,0.4442	-2935.29
0.5040,0.4960	-2935.55
0.5607,0.4393	-2932.02
0.4717,0.5283	-2935.38
0.5396,0.4604	-2934.97
0.5289,0.4711	-2935.85
0.5255,0.4745	-2936.16
0.4943,0.5057	-2935.75
0.5433,0.4567	-2933.46
0.4846,0.5154	-2934.98
0.5390,0.4610	-2934.50
0.5523,0.4477	-2933.09
0.5222,0.4778	-2936.39
0.4477,0.5523	-2936.12
0.5646,0.4354	-2932.20
0.4753,0.5247	-2936.91
0.4626,0.5374	-2932.42
0.5802,0.4198	-2933.06
0.5244,0.4756	-2935.83
0.4776,0.5224	-2935.58
0.5297,0.4703	-2934.57
0.4467,0.5533	-2938.09
0.4549,0.5451	-2934.19
0.5999,0.4001	-2931.51
0.5467,0.4533	-2936.95
0.4695,0.5305	-2935.78
0.5004,0.4996	-2935.46
0.4839,0.5161	-2935.16
0.4867,0.5133	-2935.99
0.5695,0.4305	-2931.86
0.5723,0.4277	-2931.24
0.4176,0.5824	-2934.55
0.5252,0.4748	-2934.74
0.5260,0.4740	-2935.25
0.4525,0.5475	-2935.91
0.5344,0.4656	-2934.11
0.5879,0.4121	-2937.82
0.4478,0.5522	-2932.97
0.5078,0.4922	-2934.88
0.5307,0.4693	-2934.80
0.5007,0.4993	-2935.45
0.5322,0.4678	-2934.03
0.5875,0.4125	-2935.31
0.5024,0.4976	-2935.40
0.5237,0.4763	-2934.76
0.5348,0.4652	-2934.94
0.5037,0.4963	-2935.52
0.5023,0.4977	-2935.42
0.5702,0.4298	-2933.55
0.5126,0.4874	-2935.51
0.5290,0.4710	-2934.11
0.5151,0.4849	-2935.06
0.5099,0.4901	-2935.64
0.5432,0.4568	-2934.33
0.5184,0.4816	-2934.93
0.4845,0.5155	-2935.29
0.5769,0.4231	-2933.33
0.5564,0.4436	-2935.30
0.5281,0.4719	-2934.25
0.5383,0.4617	-2935.73
0.5798,0.4202	-2935.31
0.5447,0.4553	-2935.40
0.5419,0.4581	-2933.82
0.5263,0.4737	-2935.57
0.5226,0.4774	-2935.68
0.5112,0.4888	-2935.76
0.5233,0.4767	-2934.86
0.5500,0.4500	-2935.34
0.5332,0.4668	-2935.06
0.5196,0.4804	-2935.93
0.5502,0.4498	-2934.74
0.5035,0.4965	-2935.44
0.4870,0.5130	-2935.25
0.5298,0.4702	-2934.57
0.5541,0.4459	-2932.63
0.5625,0.4375	-2937.26
0.5603,0.4397	-2931.55
0.5412,0.4588	-2935.16
0.4640,0.5360	-2933.94
0.5254,0.4746	-2935.14
0.5371,0.4629	-2938.37
0.5648,0.4352	-2934.80
0.5610,0.4390	-2933.98
0.5586,0.4414	-2932.07
0.4655,0.5345	-2936.88
0.4941,0.5059	-2935.69
0.4797,0.5203	-2934.89
0.5669,0.4331	-2935.13
0.5172,0.4828	-2935.51
0.5309,0.4691	-2935.30
0.5314,0.4686	-2934.17
0.4492,0.5508	-2936.66
0.4413,0.5587	-2937.16
0.5795,0.4205	-2931.77
0.6021,0.3979	-2933.61
0.4884,0.5116	-2935.82
0.4967,0.5033	-2935.28
0.4434,0.5566	-2933.83
0.4472,0.5528	-2933.81
0.5609,0.4391	-2933.49
0.5769,0.4231	-2934.57
0.4930,0.5070	-2935.57
0.4787,0.5213	-2935.56
0.4761,0.5239	-2935.13
0.4919,0.5081	-2935.43
0.5070,0.4930	-2935.24
0.5918,0.4082	-2926.61
0.5075,0.4925	-2935.68
0.4746,0.5254	-2935.44
0.5148,0.4852	-2935.54
0.5400,0.4600	-2934.34
0.5067,0.4933	-2935.33
0.5405,0.4595	-2935.47
0.5180,0.4820	-2935.30
0.4547,0.5453	-2934.73
0.4739,0.5261	-2935.66
0.5902,0.4098	-2933.25
0.4828,0.5172	-2935.36
0.5230,0.4770	-2934.04
0.5684,0.4316	-2934.90
0.4980,0.5020	-2935.42
0.4437,0.5563	-2935.87
0.5896,0.4104	-2939.76
0.4871,0.5129	-2935.25
0.5629,0.4371	-2934.00
0.5988,0.4012	-2932.29
0.4919,0.5081	-2935.69
0.4751,0.5249	-2934.24
0.5648,0.4352	-2932.98
0.4682,0.5318	-2936.84
0.6051,0.3949	-2929.03
0.6067,0.3933	-2932.06
0.4710,0.5290	-2935.74
0.5160,0.4840	-2935.11
0.5567,0.4433	-2934.17
0.5025,0.4975	-2935.52
0.6031,0.3969	-2928.21
0.6171,0.3829	-2930.93
0.5207,0.4793	-2935.15
0.5132,0.4868	-2935.89
0.5544,0.4456	-2935.47
0.5041,0.4959	-2935.26
0.5978,0.4022	-2930.69
0.6079,0.3921	-2928.58
0.5363,0.4637	-2935.38
0.5167,0.4833	-2934.63
0.5247,0.4753	-2935.93
0.5476,0.4524	-2934.90
0.6019,0.3981	-2933.60
0.5275,0.4725	-2936.03
0.5493,0.4507	-2937.89
0.5165,0.4835	-2934.77
0.5362,0.4638	-2935.96
0.5210,0.4790	-2935.40
0.5946,0.4054	-2938.73
0.5278,0.4722	-2935.82
0.5189,0.4811	-2935.00
0.5069,0.4931	-2935.44
0.5156,0.4844	-2935.36
0.5320,0.4680	-2935.18
0.6066,0.3934	-2934.65
0.5758,0.4242	-2935.15
0.5439,0.4561	-2933.62
0.4797,0.5203	-2934.81
0.5081,0.4919	-2935.08
0.5397,0.4603	-2935.93
0.6164,0.3836	-2933.29
0.5999,0.4001	-2932.32
0.5713,0.4287	-2934.13
0.4707,0.5293	-2936.56
0.4608,0.5392	-2936.87
0.4924,0.5076	-2935.31
0.5963,0.4037	-2928.74
0.6076,0.3924	-2931.64
0.5419,0.4581	-2934.33
0.5060,0.4940	-2935.41
0.4288,0.5712	-2933.26
0.5162,0.4838	-2933.61
0.6501,0.3499	-2932.23
0.6673,0.3327	-2931.97
0.5341,0.4659	-2936.44
0.5398,0.4602	-2935.30
0.4289,0.5711	-2935.83
0.5419,0.4581	-2933.83
0.5558,0.4442	-2933.72
0.6442,0.3558	-2927.76
0.5213,0.4787	-2936.16
0.5325,0.4675	-2936.75
0.4757,0.5243	-2934.45
0.4990,0.5010	-2935.48
0.4989,0.5011	-2935.47
0.6431,0.3569	-2929.51
0.5229,0.4771	-2935.51
0.5180,0.4820	-2935.73
0.4894,0.5106	-2935.48
0.4957,0.5043	-2935.55
0.4861,0.5139	-2934.79
0.5989,0.4011	-2930.69
0.5431,0.4569	-2937.44
0.4730,0.5270	-2936.76
0.5169,0.4831	-2935.30
0.4995,0.5005	-2935.47
0.4816,0.5184	-2937.05
0.5875,0.4125	-2930.36
0.5348,0.4652	-2935.22
0.5103,0.4897	-2935.20
0.4755,0.5245	-2935.62
0.4830,0.5170	-2935.76
0.4756,0.5244	-2935.82
0.5513,0.4487	-2933.94
0.5625,0.4375	-2934.50
0.5819,0.4181	-2933.42
0.4983,0.5017	-2935.39
0.4814,0.5186	-2934.77
0.4864,0.5136	-2935.95
0.5356,0.4644	-2933.37
0.5723,0.4277	-2932.70
0.5728,0.4272	-2932.70
0.4254,0.5746	-2934.83
0.4792,0.5208	-2935.47
0.4667,0.5333	-2935.74
0.5153,0.4847	-2934.69
0.5402,0.4598	-2934.82
0.5585,0.4415	-2935.13
0.4524,0.5476	-2934.96
0.5168,0.4832	-2935.03
0.4866,0.5134	-2935.30
0.4804,0.5196	-2935.29
0.4998,0.5002	-2935.46
0.5548,0.4452	-2933.94
0.4854,0.5146	-2935.64
0.4687,0.5313	-2934.17
0.4234,0.5766	-2935.54
0.4479,0.5521	-2935.06
0.4914,0.5086	-2935.50
0.6160,0.3840	-2931.86
0.4798,0.5202	-2935.38
0.4559,0.5441	-2935.78
0.4295,0.5705	-2935.52
0.4978,0.5022	-2935.47
0.5153,0.4847	-2935.24
0.6058,0.3942	-2933.32
0.4820,0.5180	-2936.23
0.4728,0.5272	-2934.82
0.4895,0.5105	-2935.52
0.5054,0.4946	-2935.44
0.5397,0.4603	-2934.97
0.6886,0.3114	-2928.04
0.4897,0.5103	-2935.56
0.5773,0.4227	-2932.40
0.4983,0.5017	-2935.46
0.5068,0.4932	-2935.55
0.5040,0.4960	-2935.42
0.7257,0.2743	-2925.99
0.4896,0.5104	-2935.81
0.5799,0.4201	-2935.00
0.4919,0.5081	-2935.33
0.5480,0.4520	-2933.75
0.4875,0.5125	-2935.25
0.7436,0.2564	-2918.94
0.5157,0.4843	-2935.11
0.6077,0.3923	-2935.58
0.5274,0.4726	-2935.59
0.5242,0.4758	-2935.92
0.5003,0.4997	-2935.45
0.7803,0.2197	-2905.10
0.5535,0.4465	-2936.30
0.5692,0.4308	-2932.42
0.5294,0.4706	-2934.46
0.5407,0.4593	-2932.70
0.4783,0.5217	-2937.47
0.7642,0.2358	-2920.22
0.5389,0.4611	-2935.59
0.6392,0.3608	-2933.39
0.5128,0.4872	-2935.26
0.5708,0.4292	-2933.84
0.4621,0.5379	-2935.58
0.6863,0.3137	-2929.49
0.5034,0.4966	-2935.40
0.6511,0.3489	-2931.66
0.4632,0.5368	-2938.35
0.5413,0.4587	-2936.32
0.4653,0.5347	-2935.22
0.6610,0.3390	-2927.57
0.5576,0.4424	-2933.49
0.6503,0.3497	-2933.48
0.4489,0.5511	-2934.42
0.5241,0.4759	-2935.43
0.4715,0.5285	-2935.61
0.6675,0.3325	-2931.28
0.5006,0.4994	-2935.42
0.6176,0.3824	-2930.95
0.4726,0.5274	-2935.25
0.5592,0.4408	-2936.82
0.4886,0.5114	-2935.99
0.6625,0.3375	-2926.94
0.5033,0.4967	-2935.55
0.6159,0.3841	-2934.69
0.5297,0.4703	-2934.57
0.5728,0.4272	-2933.28
0.5178,0.4822	-2936.30
0.6928,0.3072	-2925.85
0.4886,0.5114	-2935.40
0.5671,0.4329	-2932.98
0.5048,0.4952	-2935.48
0.5762,0.4238	-2935.78
0.5761,0.4239	-2933.94
0.7200,0.2800	-2917.10
0.5156,0.4844	-2934.61
0.5424,0.4576	-2934.67
0.4820,0.5180	-2935.58
0.5237,0.4763	-2936.28
0.5543,0.4457	-2933.94
0.7303,0.2697	-2925.34
0.5644,0.4356	-2931.94
0.4890,0.5110	-2935.57
0.5317,0.4683	-2935.18
0.4814,0.5186	-2935.74
0.5415,0.4585	-2934.66
0.7331,0.2669	-2916.45
0.5082,0.4918	-2935.21
0.4782,0.5218	-2934.52
0.4958,0.5042	-2935.40
0.4714,0.5286	-2935.15
0.5366,0.4634	-2935.68
0.7004,0.2996	-2930.48
0.4849,0.5151	-2935.65
0.4865,0.5135	-2935.30
0.4672,0.5328	-2935.46
0.4479,0.5521	-2936.53
0.5523,0.4477	-2938.13
0.6900,0.3100	-2916.92
0.4994,0.5006	-2935.47
0.5259,0.4741	-2935.15
0.4751,0.5249	-2936.43
0.4627,0.5373	-2935.11
0.5333,0.4667	-2936.13
0.6352,0.3648	-2925.96
0.5029,0.4971	-2935.42
0.5264,0.4736	-2935.57
0.4922,0.5078	-2935.37
0.4829,0.5171	-2935.15
0.5653,0.4347	-2933.24
0.5987,0.4013	-2935.89
0.4864,0.5136	-2935.40
0.5461,0.4539	-2935.25
0.4999,0.5001	-2935.46
0.5017,0.4983	-2935.53
0.5898,0.4102	-2938.33
0.6204,0.3796	-2931.01
0.5008,0.4992	-2935.45
0.5464,0.4536	-2937.30
0.4794,0.5206	-2935.96
0.5243,0.4757	-2935.04
0.5625,0.4375	-2935.25
0.6105,0.3895	-2931.71
0.4885,0.5115	-2935.77
0.5327,0.4673	-2933.88
0.5085,0.4915	-2935.30
0.5296,0.4704	-2935.28
0.5184,0.4816	-2935.60
0.6341,0.3659	-2923.22
0.5092,0.4908	-2935.22
0.5008,0.4992	-2935.50
0.4881,0.5119	-2935.78
0.5194,0.4806	-2935.85
0.4864,0.5136	-2935.51
0.6196,0.3804	-2933.92
0.5247,0.4753	-2934.94
0.5211,0.4789	-2935.14
0.4703,0.5297	-2935.64
0.4499,0.5501	-2937.43
0.4799,0.5201	-2936.99
0.6139,0.3861	-2935.97
0.5645,0.4355	-2935.57
0.5215,0.4785	-2936.01
0.4482,0.5518	-2937.76
0.5006,0.4994	-2935.48
0.4592,0.5408	-2936.97
0.5916,0.4084	-2932.17
0.5996,0.4004	-2936.35
0.4689,0.5311	-2936.67
0.4970,0.5030	-2935.45
0.5385,0.4615	-2934.04
0.5394,0.4606	-2937.65
0.5778,0.4222	-2936.49
0.5865,0.4135	-2932.12
0.4736,0.5264	-2934.61
0.5539,0.4461	-2932.64
0.5020,0.4980	-2935.49
0.5288,0.4712	-2934.70
0.6148,0.3852	-2929.48
