#isoforms=['ENSG00000211445.SE.0.A.up_ENSG00000211445.SE.0.A.SE1_ENSG00000211445.SE.0.A.dn','ENSG00000211445.SE.0.B.up_ENSG00000211445.SE.0.B.dn']	exon_lens=('ENSG00000211445.SE.0.A.up',136),('ENSG00000211445.SE.0.A.SE1',426),('ENSG00000211445.SE.0.A.dn',154),('ENSG00000211445.SE.0.B.up',179),('ENSG00000211445.SE.0.B.dn',154)	iters=5000	burn_in=500	lag=10	percent_accept=97.24	proposal_type=drift	counts=(0,0):34,(0,1):15,(1,1):9	assigned_counts=0:0,1:24	chrom=chr5	strand=+	mRNA_starts=151020606,151020563	mRNA_ends=151025493,151025493
sampled_psi	log_score
0.0645,0.9355	-137.52
0.0219,0.9781	-132.21
0.0397,0.9603	-133.31
0.1639,0.8361	-142.47
0.0749,0.9251	-140.51
0.0799,0.9201	-135.79
0.0718,0.9282	-137.85
0.0195,0.9805	-132.06
0.0406,0.9594	-133.37
0.1455,0.8545	-141.52
0.1006,0.8994	-143.61
0.0810,0.9190	-138.28
0.0702,0.9298	-135.19
0.0206,0.9794	-135.98
0.0466,0.9534	-136.76
0.1289,0.8711	-142.57
0.0961,0.9039	-139.01
0.0718,0.9282	-135.29
0.0699,0.9301	-135.18
0.0158,0.9842	-131.82
0.0537,0.9463	-134.18
0.1401,0.8599	-141.24
0.0691,0.9309	-140.33
0.0707,0.9293	-137.80
0.0556,0.9444	-134.29
0.0164,0.9836	-135.95
0.0562,0.9438	-137.15
0.1462,0.8538	-141.55
0.0669,0.9331	-140.26
0.0896,0.9104	-136.38
0.0492,0.9508	-133.90
0.0140,0.9860	-131.71
0.0452,0.9548	-133.65
0.1560,0.8440	-142.06
0.0537,0.9463	-134.18
0.0765,0.9235	-135.58
0.0453,0.9547	-136.71
0.0134,0.9866	-131.67
0.0491,0.9509	-133.89
0.1148,0.8852	-137.90
0.0496,0.9504	-133.93
0.0720,0.9280	-135.30
0.0397,0.9603	-133.32
0.0149,0.9851	-131.76
0.0412,0.9588	-139.70
0.1338,0.8662	-142.78
0.0541,0.9459	-134.21
0.0737,0.9263	-137.94
0.0477,0.9523	-136.80
0.0191,0.9809	-135.97
0.0432,0.9568	-136.63
0.1192,0.8808	-138.17
0.0510,0.9490	-136.94
0.0982,0.9018	-139.12
0.0458,0.9542	-133.69
0.0144,0.9856	-140.19
0.0453,0.9547	-133.66
0.1351,0.8649	-139.12
0.0469,0.9531	-133.76
0.0927,0.9073	-138.84
0.0532,0.9468	-134.15
0.0141,0.9859	-131.72
0.0524,0.9476	-134.10
0.1216,0.8784	-138.31
0.0530,0.9470	-134.14
0.1143,0.8857	-141.96
0.0670,0.9330	-137.63
0.0179,0.9821	-131.95
0.0590,0.9410	-134.50
0.1117,0.8883	-139.79
0.0562,0.9438	-134.33
0.1162,0.8838	-137.98
0.0612,0.9388	-140.10
0.0166,0.9834	-131.87
0.0659,0.9341	-140.23
0.1202,0.8798	-140.22
0.0600,0.9400	-142.82
0.0950,0.9050	-136.70
0.0639,0.9361	-134.81
0.0157,0.9843	-131.81
0.0751,0.9249	-135.49
0.1446,0.8554	-145.02
0.0558,0.9442	-137.14
0.1013,0.8987	-141.45
0.0801,0.9199	-135.80
0.0141,0.9859	-135.96
0.0682,0.9318	-137.69
0.1302,0.8698	-140.73
0.0555,0.9445	-134.29
0.0973,0.9027	-136.85
0.0857,0.9143	-140.87
0.0149,0.9851	-131.77
0.0609,0.9391	-134.62
0.1349,0.8651	-142.83
0.0593,0.9407	-137.29
0.0852,0.9148	-136.11
0.0785,0.9215	-140.63
0.0134,0.9866	-131.67
0.0627,0.9373	-137.44
0.1520,0.8480	-141.86
0.0517,0.9483	-134.06
0.0684,0.9316	-137.69
0.0738,0.9262	-135.41
0.0128,0.9872	-131.64
0.0415,0.9585	-133.42
0.1578,0.8422	-143.83
0.0634,0.9366	-137.47
0.0687,0.9313	-137.71
0.0743,0.9257	-135.44
0.0111,0.9889	-131.53
0.0371,0.9629	-133.15
0.1706,0.8294	-142.83
0.0711,0.9289	-135.25
0.0683,0.9317	-135.07
0.0637,0.9363	-134.79
0.0087,0.9913	-131.38
0.0369,0.9631	-133.14
0.1121,0.8879	-141.88
0.0664,0.9336	-137.60
0.0519,0.9481	-134.07
0.0723,0.9277	-137.87
0.0082,0.9918	-136.14
0.0269,0.9731	-132.51
0.0952,0.9048	-136.71
0.0707,0.9293	-135.22
0.0656,0.9344	-134.91
0.0674,0.9326	-135.02
0.0071,0.9929	-131.27
0.0253,0.9747	-132.42
0.0864,0.9136	-136.18
0.0502,0.9498	-133.96
0.0735,0.9265	-137.93
0.0565,0.9435	-134.35
0.0077,0.9923	-131.31
0.0268,0.9732	-132.51
0.0773,0.9227	-138.11
0.0569,0.9431	-137.19
0.0647,0.9353	-140.20
0.0696,0.9304	-137.75
0.0089,0.9911	-131.39
0.0225,0.9775	-136.01
0.0591,0.9409	-134.52
0.0560,0.9440	-134.32
0.0501,0.9499	-133.96
0.0563,0.9437	-137.16
0.0078,0.9922	-131.32
0.0184,0.9816	-135.96
0.0601,0.9399	-137.32
0.0656,0.9344	-137.57
0.0493,0.9507	-133.91
0.0563,0.9437	-134.34
0.0090,0.9910	-131.40
0.0215,0.9785	-132.18
0.0467,0.9533	-133.75
0.0615,0.9385	-137.38
0.0548,0.9452	-134.25
0.0643,0.9357	-134.83
0.0092,0.9908	-131.40
0.0258,0.9742	-132.45
0.0452,0.9548	-133.66
0.0599,0.9401	-134.56
0.0511,0.9489	-134.02
0.0493,0.9507	-133.91
0.0090,0.9910	-131.39
0.0210,0.9790	-135.99
0.0487,0.9513	-133.87
0.0401,0.9599	-133.34
0.0550,0.9450	-134.26
0.0475,0.9525	-136.79
0.0061,0.9939	-131.21
0.0192,0.9808	-132.04
0.0455,0.9545	-133.68
0.0344,0.9656	-132.98
0.0531,0.9469	-137.03
0.0387,0.9613	-133.25
0.0059,0.9941	-131.20
0.0177,0.9823	-135.96
0.0482,0.9518	-136.82
0.0337,0.9663	-132.94
0.0370,0.9630	-133.15
0.0417,0.9583	-133.44
0.0062,0.9938	-131.22
0.0164,0.9836	-140.05
0.0496,0.9504	-136.88
0.0291,0.9709	-132.65
0.0461,0.9539	-133.71
0.0456,0.9544	-133.68
0.0049,0.9951	-131.13
0.0157,0.9843	-131.82
0.0513,0.9487	-139.87
0.0275,0.9725	-136.12
0.0517,0.9483	-134.05
0.0386,0.9614	-136.46
0.0045,0.9955	-131.11
0.0167,0.9833	-131.88
0.0517,0.9483	-136.96
0.0267,0.9733	-132.50
0.0458,0.9542	-139.76
0.0371,0.9629	-133.15
0.0060,0.9940	-131.21
0.0144,0.9856	-131.73
0.0477,0.9523	-136.80
0.0205,0.9795	-132.12
0.0540,0.9460	-134.20
0.0317,0.9683	-139.66
0.0063,0.9937	-131.23
0.0150,0.9850	-135.96
0.0451,0.9549	-133.65
0.0210,0.9790	-132.15
0.0514,0.9486	-136.95
0.0311,0.9689	-136.22
0.0086,0.9914	-131.37
0.0142,0.9858	-131.72
0.0440,0.9560	-133.58
0.0225,0.9775	-132.24
0.0504,0.9496	-133.97
0.0382,0.9618	-133.22
0.0097,0.9903	-131.44
0.0173,0.9827	-131.92
0.0491,0.9509	-136.86
0.0225,0.9775	-132.24
0.0430,0.9570	-136.62
0.0390,0.9610	-133.27
0.0106,0.9894	-131.49
0.0189,0.9811	-132.02
0.0520,0.9480	-134.07
0.0276,0.9724	-132.56
0.0595,0.9405	-134.53
0.0391,0.9609	-136.48
0.0166,0.9834	-131.88
0.0201,0.9799	-135.98
0.0529,0.9471	-134.13
0.0201,0.9799	-135.98
0.0643,0.9357	-137.51
0.0441,0.9559	-133.59
0.0178,0.9822	-135.96
0.0245,0.9755	-136.05
0.0518,0.9482	-134.06
0.0212,0.9788	-132.16
0.0765,0.9235	-138.07
0.0486,0.9514	-133.86
0.0199,0.9801	-132.08
0.0237,0.9763	-136.04
0.0476,0.9524	-133.80
0.0240,0.9760	-132.34
0.0779,0.9221	-135.66
0.0388,0.9612	-133.26
0.0214,0.9786	-132.17
0.0220,0.9780	-132.21
0.0429,0.9571	-133.51
0.0289,0.9711	-136.16
0.0671,0.9329	-135.00
0.0251,0.9749	-136.06
0.0206,0.9794	-132.13
0.0150,0.9850	-135.96
0.0471,0.9529	-136.78
0.0259,0.9741	-132.46
0.0599,0.9401	-134.56
0.0228,0.9772	-132.26
0.0300,0.9700	-136.19
0.0148,0.9852	-131.76
0.0418,0.9582	-139.71
0.0278,0.9722	-136.13
0.0665,0.9335	-137.61
0.0169,0.9831	-131.89
0.0307,0.9693	-132.75
0.0150,0.9850	-131.78
0.0418,0.9582	-133.44
0.0356,0.9644	-133.06
0.0632,0.9368	-134.76
0.0180,0.9820	-131.96
0.0257,0.9743	-132.44
0.0131,0.9869	-131.65
0.0469,0.9531	-136.77
0.0315,0.9685	-132.80
0.0608,0.9392	-134.62
0.0190,0.9810	-132.02
0.0261,0.9739	-136.09
0.0122,0.9878	-131.60
0.0610,0.9390	-137.36
0.0308,0.9692	-132.76
0.0574,0.9426	-137.21
0.0263,0.9737	-132.48
0.0273,0.9727	-132.54
0.0144,0.9856	-140.19
0.0607,0.9393	-134.61
0.0374,0.9626	-136.42
0.0556,0.9444	-134.29
0.0215,0.9785	-136.00
0.0214,0.9786	-132.18
0.0159,0.9841	-135.95
0.0529,0.9471	-134.13
0.0475,0.9525	-136.80
0.0485,0.9515	-133.86
0.0196,0.9804	-135.97
0.0198,0.9802	-135.98
0.0201,0.9799	-132.09
0.0574,0.9426	-137.21
0.0396,0.9604	-133.31
0.0385,0.9615	-136.46
0.0175,0.9825	-131.93
0.0222,0.9778	-132.23
0.0182,0.9818	-131.97
0.0565,0.9435	-134.35
0.0373,0.9627	-133.16
0.0426,0.9574	-133.49
0.0148,0.9852	-131.76
0.0268,0.9732	-136.10
0.0174,0.9826	-131.92
0.0436,0.9564	-133.56
0.0361,0.9639	-133.09
0.0412,0.9588	-139.70
0.0168,0.9832	-131.89
0.0228,0.9772	-132.26
0.0112,0.9888	-131.54
0.0336,0.9664	-132.94
0.0340,0.9660	-132.96
0.0323,0.9677	-132.85
0.0157,0.9843	-131.82
0.0185,0.9815	-131.99
0.0112,0.9888	-131.53
0.0352,0.9648	-136.35
0.0343,0.9657	-132.98
0.0352,0.9648	-133.03
0.0135,0.9865	-131.68
0.0177,0.9823	-131.94
0.0119,0.9881	-131.58
0.0336,0.9664	-132.94
0.0309,0.9691	-136.21
0.0363,0.9637	-133.11
0.0128,0.9872	-131.63
0.0170,0.9830	-131.90
0.0078,0.9922	-131.32
0.0287,0.9713	-132.63
0.0265,0.9735	-132.49
0.0439,0.9561	-136.66
0.0153,0.9847	-135.96
0.0223,0.9777	-132.23
0.0091,0.9909	-131.40
0.0286,0.9714	-132.62
0.0253,0.9747	-132.41
0.0551,0.9449	-134.27
0.0117,0.9883	-131.56
0.0199,0.9801	-132.08
0.0092,0.9908	-136.09
0.0315,0.9685	-132.81
0.0295,0.9705	-136.17
0.0544,0.9456	-134.22
0.0112,0.9888	-131.53
0.0231,0.9769	-132.28
0.0090,0.9910	-136.10
0.0326,0.9674	-132.87
0.0266,0.9734	-132.50
0.0410,0.9590	-139.70
0.0125,0.9875	-131.62
0.0231,0.9769	-136.02
0.0107,0.9893	-131.50
0.0395,0.9605	-133.30
0.0330,0.9670	-136.27
0.0316,0.9684	-136.23
0.0124,0.9876	-140.37
0.0208,0.9792	-135.99
0.0088,0.9912	-131.38
0.0356,0.9644	-136.36
0.0439,0.9561	-133.57
0.0271,0.9729	-136.11
0.0150,0.9850	-131.77
0.0276,0.9724	-132.56
0.0090,0.9910	-136.10
0.0253,0.9747	-132.42
0.0416,0.9584	-133.43
0.0265,0.9735	-132.49
0.0134,0.9866	-131.67
0.0280,0.9720	-132.59
0.0080,0.9920	-131.33
0.0358,0.9642	-133.07
0.0336,0.9664	-132.93
0.0300,0.9700	-132.71
0.0129,0.9871	-131.64
0.0313,0.9687	-132.79
0.0092,0.9908	-131.41
0.0286,0.9714	-132.63
0.0325,0.9675	-132.87
0.0296,0.9704	-132.68
0.0116,0.9884	-131.56
0.0316,0.9684	-132.81
0.0077,0.9923	-131.31
0.0207,0.9793	-132.13
0.0321,0.9679	-136.25
0.0366,0.9634	-133.12
0.0107,0.9893	-131.50
0.0327,0.9673	-139.65
0.0083,0.9917	-131.35
0.0189,0.9811	-132.02
0.0313,0.9687	-132.79
0.0272,0.9728	-132.54
0.0102,0.9898	-131.47
0.0290,0.9710	-132.65
0.0090,0.9910	-131.40
0.0228,0.9772	-136.02
0.0272,0.9728	-132.54
0.0255,0.9745	-132.43
0.0150,0.9850	-131.77
0.0312,0.9688	-136.22
0.0084,0.9916	-131.36
0.0295,0.9705	-132.68
0.0276,0.9724	-132.56
0.0265,0.9735	-132.49
0.0185,0.9815	-131.99
0.0296,0.9704	-132.69
0.0139,0.9861	-131.70
0.0249,0.9751	-132.39
0.0305,0.9695	-132.74
0.0250,0.9750	-132.40
0.0182,0.9818	-131.98
0.0226,0.9774	-136.02
0.0171,0.9829	-131.91
0.0247,0.9753	-132.38
0.0369,0.9631	-136.40
0.0269,0.9731	-136.11
0.0153,0.9847	-135.96
0.0279,0.9721	-136.13
0.0138,0.9862	-131.70
0.0237,0.9763	-132.32
0.0386,0.9614	-133.24
0.0267,0.9733	-132.50
0.0157,0.9843	-131.82
0.0300,0.9700	-132.71
0.0124,0.9876	-131.61
0.0230,0.9770	-132.27
0.0418,0.9582	-133.45
0.0273,0.9727	-136.12
0.0128,0.9872	-131.64
0.0353,0.9647	-136.35
0.0105,0.9895	-131.49
0.0222,0.9778	-132.22
0.0449,0.9551	-133.64
0.0236,0.9764	-132.31
0.0128,0.9872	-131.63
0.0275,0.9725	-132.56
0.0112,0.9888	-131.53
0.0219,0.9781	-136.00
0.0539,0.9461	-137.06
0.0233,0.9767	-132.29
0.0156,0.9844	-131.81
0.0237,0.9763	-132.32
0.0102,0.9898	-131.47
0.0191,0.9809	-132.03
0.0501,0.9499	-133.96
0.0227,0.9773	-132.25
0.0149,0.9851	-131.77
0.0200,0.9800	-132.09
0.0097,0.9903	-131.44
0.0200,0.9800	-132.08
0.0612,0.9388	-137.37
0.0224,0.9776	-132.23
0.0160,0.9840	-131.83
0.0160,0.9840	-131.83
0.0097,0.9903	-131.44
0.0229,0.9771	-132.27
0.0602,0.9398	-134.58
0.0271,0.9729	-132.53
0.0120,0.9880	-131.58
0.0134,0.9866	-131.67
0.0097,0.9903	-131.44
0.0197,0.9803	-135.97
0.0642,0.9358	-134.83
0.0238,0.9762	-132.32
0.0081,0.9919	-131.34
0.0182,0.9818	-135.96
0.0086,0.9914	-131.37
0.0164,0.9836	-131.86
0.0580,0.9420	-134.45
0.0245,0.9755	-132.37
0.0097,0.9903	-131.44
0.0135,0.9865	-131.68
0.0119,0.9881	-131.58
0.0158,0.9842	-131.82
0.0637,0.9363	-134.79
0.0195,0.9805	-132.06
0.0095,0.9905	-131.43
0.0147,0.9853	-135.96
0.0138,0.9862	-131.70
0.0149,0.9851	-135.96
0.0706,0.9294	-135.22
0.0224,0.9776	-132.23
0.0118,0.9882	-131.57
0.0171,0.9829	-131.90
0.0154,0.9846	-131.80
0.0164,0.9836	-131.86
0.0695,0.9305	-137.74
0.0222,0.9778	-132.22
0.0136,0.9864	-131.68
0.0135,0.9865	-131.68
0.0194,0.9806	-132.05
0.0167,0.9833	-131.88
0.0523,0.9477	-134.09
0.0197,0.9803	-132.07
0.0124,0.9876	-131.61
0.0129,0.9871	-131.64
0.0201,0.9799	-132.09
0.0156,0.9844	-131.81
0.0572,0.9428	-137.20
0.0200,0.9800	-135.98
0.0116,0.9884	-136.00
0.0119,0.9881	-131.58
0.0156,0.9844	-131.81
0.0116,0.9884	-131.56
0.0528,0.9472	-134.13
0.0200,0.9800	-132.09
0.0101,0.9899	-131.46
0.0089,0.9911	-131.39
0.0135,0.9865	-131.68
0.0146,0.9854	-135.96
0.0573,0.9427	-134.40
0.0238,0.9762	-132.32
0.0118,0.9882	-131.57
0.0080,0.9920	-131.33
0.0155,0.9845	-131.80
0.0150,0.9850	-131.77
0.0546,0.9454	-134.23
0.0238,0.9762	-132.33
0.0131,0.9869	-135.98
0.0088,0.9912	-131.38
0.0130,0.9870	-131.64
0.0159,0.9841	-131.83
0.0509,0.9491	-136.93
0.0298,0.9702	-136.18
0.0169,0.9831	-131.89
0.0126,0.9874	-131.62
0.0146,0.9854	-131.75
0.0149,0.9851	-131.77
0.0416,0.9584	-133.43
0.0264,0.9736	-132.49
0.0177,0.9823	-135.96
0.0148,0.9852	-131.76
0.0128,0.9872	-131.63
0.0161,0.9839	-140.06
0.0370,0.9630	-136.40
0.0314,0.9686	-132.80
0.0167,0.9833	-131.88
0.0127,0.9873	-131.63
0.0137,0.9863	-131.69
0.0231,0.9769	-132.28
0.0344,0.9656	-132.99
0.0302,0.9698	-132.72
0.0163,0.9837	-131.86
0.0127,0.9873	-135.98
0.0147,0.9853	-131.75
0.0192,0.9808	-132.04
0.0279,0.9721	-132.58
0.0375,0.9625	-136.42
0.0131,0.9869	-135.97
0.0136,0.9864	-131.69
0.0210,0.9790	-132.15
0.0202,0.9798	-132.10
0.0346,0.9654	-133.00
0.0396,0.9604	-133.31
0.0127,0.9873	-131.63
0.0135,0.9865	-131.68
0.0156,0.9844	-131.81
0.0196,0.9804	-132.06
0.0353,0.9647	-133.04
0.0355,0.9645	-136.36
0.0165,0.9835	-135.95
0.0164,0.9836	-131.86
0.0161,0.9839	-131.84
0.0176,0.9824	-131.93
0.0457,0.9543	-133.69
0.0377,0.9623	-133.19
0.0134,0.9866	-131.67
0.0221,0.9779	-132.22
0.0144,0.9856	-131.74
0.0179,0.9821	-131.95
0.0507,0.9493	-133.99
0.0367,0.9633	-133.13
0.0139,0.9861	-131.70
0.0214,0.9786	-132.17
0.0148,0.9852	-131.76
0.0158,0.9842	-131.82
0.0612,0.9388	-134.64
0.0307,0.9693	-132.75
0.0151,0.9849	-131.78
0.0195,0.9805	-132.06
0.0164,0.9836	-131.86
0.0118,0.9882	-131.57
0.0559,0.9441	-134.31
0.0233,0.9767	-132.29
0.0135,0.9865	-131.68
0.0207,0.9793	-132.13
0.0166,0.9834	-135.95
0.0161,0.9839	-131.84
0.0577,0.9423	-137.22
0.0234,0.9766	-132.30
0.0171,0.9829	-131.91
0.0206,0.9794	-132.12
0.0186,0.9814	-132.00
0.0167,0.9833	-135.95
0.0512,0.9488	-136.95
0.0206,0.9794	-132.12
0.0217,0.9783	-136.00
0.0160,0.9840	-131.83
0.0161,0.9839	-131.84
0.0151,0.9849	-131.78
0.0544,0.9456	-134.23
0.0199,0.9801	-132.08
0.0260,0.9740	-132.46
0.0177,0.9823	-131.94
0.0152,0.9848	-131.78
0.0170,0.9830	-131.90
0.0512,0.9488	-136.94
0.0230,0.9770	-136.02
0.0368,0.9632	-136.40
0.0190,0.9810	-132.02
0.0143,0.9857	-131.73
0.0174,0.9826	-131.92
0.0446,0.9554	-133.62
0.0332,0.9668	-132.91
0.0409,0.9591	-133.39
0.0177,0.9823	-131.94
0.0148,0.9852	-135.96
0.0195,0.9805	-135.97
0.0470,0.9530	-136.78
0.0324,0.9676	-132.86
0.0486,0.9514	-133.87
0.0156,0.9844	-131.81
0.0132,0.9868	-131.66
0.0220,0.9780	-132.21
0.0405,0.9595	-136.53
0.0370,0.9630	-136.41
0.0493,0.9507	-133.91
0.0145,0.9855	-131.74
0.0141,0.9859	-131.72
0.0212,0.9788	-132.16
0.0435,0.9565	-133.55
0.0371,0.9629	-133.15
0.0432,0.9568	-136.63
0.0177,0.9823	-131.94
0.0111,0.9889	-131.53
0.0257,0.9743	-136.08
0.0442,0.9558	-136.67
0.0365,0.9635	-133.11
0.0406,0.9594	-133.37
0.0206,0.9794	-132.12
0.0080,0.9920	-131.33
0.0259,0.9741	-132.45
0.0483,0.9517	-133.85
0.0407,0.9593	-133.38
0.0440,0.9560	-133.58
0.0215,0.9785	-132.18
0.0080,0.9920	-131.33
0.0245,0.9755	-132.36
0.0538,0.9462	-134.18
0.0449,0.9551	-136.69
0.0487,0.9513	-133.87
0.0204,0.9796	-135.98
0.0084,0.9916	-131.36
0.0192,0.9808	-132.04
0.0554,0.9446	-139.96
0.0408,0.9592	-133.38
0.0475,0.9525	-133.80
0.0138,0.9862	-131.69
0.0081,0.9919	-131.34
0.0149,0.9851	-131.76
0.0418,0.9582	-133.44
0.0386,0.9614	-133.25
0.0428,0.9572	-133.50
0.0117,0.9883	-131.56
0.0088,0.9912	-131.38
0.0171,0.9829	-131.90
0.0433,0.9567	-136.63
0.0370,0.9630	-133.15
0.0461,0.9539	-133.71
0.0094,0.9906	-131.42
0.0073,0.9927	-131.28
0.0115,0.9885	-131.55
0.0388,0.9612	-133.26
0.0332,0.9668	-132.91
0.0502,0.9498	-133.96
0.0107,0.9893	-131.50
0.0057,0.9943	-131.19
0.0110,0.9890	-131.52
0.0377,0.9623	-133.19
0.0355,0.9645	-136.36
0.0558,0.9442	-134.31
0.0095,0.9905	-131.43
0.0062,0.9938	-131.22
0.0091,0.9909	-131.40
0.0397,0.9603	-133.31
0.0371,0.9629	-136.41
0.0590,0.9410	-134.51
0.0097,0.9903	-131.44
0.0064,0.9936	-131.23
0.0077,0.9923	-136.17
0.0413,0.9587	-133.42
0.0343,0.9657	-136.32
0.0586,0.9414	-137.26
0.0095,0.9905	-131.43
0.0056,0.9944	-131.18
0.0073,0.9927	-131.29
0.0344,0.9656	-132.99
0.0286,0.9714	-132.63
0.0630,0.9370	-134.75
0.0089,0.9911	-131.39
0.0057,0.9943	-131.18
0.0075,0.9925	-136.19
0.0434,0.9566	-133.54
0.0213,0.9787	-139.82
0.0682,0.9318	-135.07
0.0100,0.9900	-131.46
0.0053,0.9947	-131.16
0.0081,0.9919	-131.34
0.0290,0.9710	-132.65
0.0211,0.9789	-132.15
0.0561,0.9439	-137.15
0.0096,0.9904	-131.43
0.0054,0.9946	-131.17
0.0068,0.9932	-131.26
0.0288,0.9712	-132.64
0.0275,0.9725	-132.56
0.0583,0.9417	-134.46
0.0087,0.9913	-131.37
0.0056,0.9944	-131.18
0.0064,0.9936	-131.23
0.0303,0.9697	-132.73
0.0213,0.9787	-132.17
0.0765,0.9235	-135.58
0.0104,0.9896	-131.48
0.0059,0.9941	-131.20
0.0072,0.9928	-131.28
0.0338,0.9662	-132.95
0.0231,0.9769	-132.28
0.0556,0.9444	-134.29
0.0094,0.9906	-136.08
0.0071,0.9929	-131.27
0.0065,0.9935	-131.24
0.0361,0.9639	-133.09
0.0308,0.9692	-132.76
0.0619,0.9381	-134.68
0.0084,0.9916	-131.36
0.0080,0.9920	-131.33
0.0058,0.9942	-131.19
0.0375,0.9625	-133.18
0.0315,0.9685	-136.23
0.0742,0.9258	-135.44
0.0070,0.9930	-131.27
0.0061,0.9939	-131.21
0.0067,0.9933	-131.25
0.0421,0.9579	-139.71
0.0318,0.9682	-132.82
0.0572,0.9428	-134.40
0.0086,0.9914	-131.37
0.0073,0.9927	-131.29
0.0073,0.9927	-131.29
0.0412,0.9588	-136.55
0.0296,0.9704	-139.67
0.0592,0.9408	-137.28
0.0103,0.9897	-131.48
0.0069,0.9931	-131.26
0.0068,0.9932	-131.26
0.0434,0.9566	-133.55
0.0286,0.9714	-136.15
0.0633,0.9367	-134.77
0.0108,0.9892	-131.51
0.0074,0.9926	-131.29
0.0096,0.9904	-131.43
0.0426,0.9574	-133.50
0.0258,0.9742	-139.71
0.0662,0.9338	-137.59
0.0123,0.9877	-131.60
0.0102,0.9898	-136.05
0.0075,0.9925	-131.30
0.0505,0.9495	-139.85
0.0207,0.9793	-132.13
0.0526,0.9474	-134.11
0.0144,0.9856	-131.74
0.0096,0.9904	-131.43
0.0103,0.9897	-136.04
0.0592,0.9408	-134.52
0.0203,0.9797	-132.11
0.0433,0.9567	-136.63
0.0112,0.9888	-131.53
0.0087,0.9913	-131.37
0.0120,0.9880	-131.58
0.0589,0.9411	-137.27
0.0224,0.9776	-132.24
0.0539,0.9461	-134.19
0.0151,0.9849	-135.96
0.0095,0.9905	-131.42
0.0104,0.9896	-131.48
0.0585,0.9415	-137.25
0.0190,0.9810	-132.02
0.0440,0.9560	-133.58
0.0153,0.9847	-131.79
0.0092,0.9908	-131.41
0.0092,0.9908	-131.41
0.0570,0.9430	-134.38
0.0198,0.9802	-132.07
0.0450,0.9550	-136.70
0.0132,0.9868	-131.66
0.0114,0.9886	-131.55
0.0088,0.9912	-131.38
0.0619,0.9381	-134.68
0.0167,0.9833	-135.95
0.0488,0.9512	-133.88
0.0165,0.9835	-135.95
0.0108,0.9892	-131.51
0.0107,0.9893	-131.50
0.0522,0.9478	-136.99
0.0142,0.9858	-131.72
0.0357,0.9643	-133.07
0.0129,0.9871	-131.64
0.0083,0.9917	-131.35
0.0133,0.9867	-131.67
0.0614,0.9386	-134.65
0.0125,0.9875	-140.36
0.0462,0.9538	-136.75
0.0119,0.9881	-131.58
0.0085,0.9915	-131.37
0.0129,0.9871	-131.64
0.0486,0.9514	-136.84
0.0126,0.9874	-131.62
0.0401,0.9599	-133.34
0.0135,0.9865	-131.68
0.0074,0.9926	-131.29
0.0093,0.9907	-131.41
0.0398,0.9602	-133.32
0.0133,0.9867	-131.67
0.0361,0.9639	-139.66
0.0122,0.9878	-135.99
0.0089,0.9911	-131.39
0.0087,0.9913	-131.38
0.0387,0.9613	-133.25
0.0173,0.9827	-131.92
0.0312,0.9688	-132.79
0.0145,0.9855	-135.96
0.0077,0.9923	-131.31
0.0088,0.9912	-131.38
0.0345,0.9655	-132.99
0.0163,0.9837	-135.95
0.0346,0.9654	-136.33
0.0167,0.9833	-131.88
0.0080,0.9920	-131.33
0.0075,0.9925	-131.30
0.0400,0.9600	-139.69
0.0132,0.9868	-135.97
0.0397,0.9603	-136.50
0.0182,0.9818	-131.97
0.0088,0.9912	-131.38
0.0070,0.9930	-131.27
0.0371,0.9629	-139.67
0.0122,0.9878	-131.60
0.0395,0.9605	-133.30
0.0190,0.9810	-132.02
0.0083,0.9917	-131.35
0.0074,0.9926	-131.29
0.0342,0.9658	-136.31
0.0195,0.9805	-132.05
0.0542,0.9458	-134.21
0.0193,0.9807	-132.04
0.0108,0.9892	-131.51
0.0080,0.9920	-136.15
0.0333,0.9667	-132.92
0.0181,0.9819	-131.97
0.0527,0.9473	-137.01
0.0191,0.9809	-132.03
0.0087,0.9913	-136.11
0.0081,0.9919	-131.34
0.0301,0.9699	-132.72
0.0201,0.9799	-135.98
0.0654,0.9346	-142.88
0.0212,0.9788	-132.16
0.0096,0.9904	-131.43
0.0071,0.9929	-131.28
0.0295,0.9705	-136.17
0.0179,0.9821	-131.96
0.0583,0.9417	-134.46
0.0239,0.9761	-132.33
0.0130,0.9870	-131.64
0.0075,0.9925	-131.30
0.0324,0.9676	-132.86
0.0139,0.9861	-131.70
0.0536,0.9464	-137.04
0.0198,0.9802	-132.07
0.0111,0.9889	-131.53
0.0071,0.9929	-131.28
0.0400,0.9600	-133.33
0.0162,0.9838	-131.85
0.0510,0.9490	-134.01
0.0215,0.9785	-136.00
0.0092,0.9908	-131.41
0.0064,0.9936	-131.23
0.0526,0.9474	-134.11
0.0145,0.9855	-131.74
0.0516,0.9484	-142.78
0.0230,0.9770	-132.28
0.0083,0.9917	-131.35
0.0062,0.9938	-131.22
0.0565,0.9435	-134.35
0.0142,0.9858	-131.72
0.0533,0.9467	-134.16
0.0209,0.9791	-132.14
0.0087,0.9913	-131.38
0.0077,0.9923	-131.31
0.0593,0.9407	-134.53
0.0156,0.9844	-131.81
0.0530,0.9470	-134.14
0.0198,0.9802	-132.07
0.0103,0.9897	-131.48
0.0069,0.9931	-131.26
0.0485,0.9515	-136.84
0.0141,0.9859	-131.72
0.0625,0.9375	-137.43
0.0200,0.9800	-132.09
0.0114,0.9886	-136.01
0.0060,0.9940	-131.21
0.0462,0.9538	-133.72
0.0131,0.9869	-131.65
0.0781,0.9219	-140.61
0.0191,0.9809	-135.97
0.0098,0.9902	-131.44
0.0053,0.9947	-131.16
0.0504,0.9496	-136.91
0.0122,0.9878	-131.60
0.0763,0.9237	-140.55
0.0236,0.9764	-132.31
0.0102,0.9898	-131.47
0.0058,0.9942	-131.19
0.0453,0.9547	-136.71
0.0111,0.9889	-131.53
0.0742,0.9258	-135.44
0.0208,0.9792	-132.14
0.0100,0.9900	-131.46
0.0060,0.9940	-131.20
0.0436,0.9564	-133.56
0.0080,0.9920	-131.33
0.0662,0.9338	-134.95
0.0203,0.9797	-132.10
0.0075,0.9925	-131.30
0.0072,0.9928	-131.28
0.0319,0.9681	-132.83
0.0067,0.9933	-131.25
0.0644,0.9356	-134.84
0.0193,0.9807	-132.04
0.0082,0.9918	-131.35
0.0064,0.9936	-131.23
0.0392,0.9608	-139.68
0.0078,0.9922	-131.32
0.0624,0.9376	-134.71
0.0169,0.9831	-131.89
0.0091,0.9909	-131.40
0.0064,0.9936	-131.23
0.0353,0.9647	-133.04
0.0076,0.9924	-131.31
0.0611,0.9389	-137.37
0.0192,0.9808	-132.04
0.0091,0.9909	-136.09
0.0070,0.9930	-131.27
0.0286,0.9714	-132.63
0.0081,0.9919	-131.33
0.0649,0.9351	-134.87
0.0197,0.9803	-132.07
0.0092,0.9908	-131.41
0.0070,0.9930	-131.27
0.0295,0.9705	-132.68
0.0107,0.9893	-131.50
0.0603,0.9397	-137.33
0.0166,0.9834	-131.87
0.0113,0.9887	-131.54
0.0072,0.9928	-131.28
0.0367,0.9633	-133.13
0.0093,0.9907	-131.41
0.0535,0.9465	-134.17
0.0241,0.9759	-132.34
0.0096,0.9904	-131.43
0.0069,0.9931	-131.26
0.0485,0.9515	-133.86
0.0104,0.9896	-131.49
0.0652,0.9348	-134.89
0.0221,0.9779	-132.22
0.0108,0.9892	-131.51
0.0069,0.9931	-136.24
0.0559,0.9441	-137.14
0.0098,0.9902	-131.45
0.0934,0.9066	-136.61
0.0190,0.9810	-132.03
0.0088,0.9912	-131.38
0.0070,0.9930	-136.22
0.0553,0.9447	-137.12
0.0084,0.9916	-136.13
0.0713,0.9287	-135.26
0.0175,0.9825	-131.93
0.0081,0.9919	-131.34
0.0059,0.9941	-131.20
0.0361,0.9639	-133.09
0.0091,0.9909	-131.40
0.0808,0.9192	-135.84
0.0147,0.9853	-131.75
0.0068,0.9932	-131.25
0.0044,0.9956	-131.10
0.0348,0.9652	-133.01
0.0087,0.9913	-131.38
0.0663,0.9337	-137.60
0.0170,0.9830	-131.90
0.0089,0.9911	-131.39
0.0044,0.9956	-131.10
0.0339,0.9661	-136.30
0.0093,0.9907	-136.08
0.0632,0.9368	-137.46
0.0224,0.9776	-132.23
0.0071,0.9929	-131.27
0.0046,0.9954	-131.12
0.0432,0.9568	-133.53
0.0087,0.9913	-131.37
0.0749,0.9251	-135.48
0.0229,0.9771	-132.27
0.0064,0.9936	-131.23
0.0043,0.9957	-131.10
0.0539,0.9461	-137.06
0.0104,0.9896	-131.49
0.0682,0.9318	-137.69
0.0231,0.9769	-136.02
0.0082,0.9918	-131.35
0.0036,0.9964	-131.05
0.0518,0.9482	-134.06
0.0087,0.9913	-131.38
0.0743,0.9257	-135.45
0.0272,0.9728	-136.11
0.0099,0.9901	-131.45
0.0038,0.9962	-131.06
0.0491,0.9509	-133.90
0.0076,0.9924	-131.31
0.0808,0.9192	-138.27
0.0283,0.9717	-132.60
0.0087,0.9913	-131.37
0.0037,0.9963	-131.06
0.0447,0.9553	-133.63
0.0072,0.9928	-131.28
0.0825,0.9175	-135.94
0.0285,0.9715	-132.62
0.0102,0.9898	-131.47
0.0034,0.9966	-131.04
0.0524,0.9476	-134.10
0.0080,0.9920	-131.33
0.0738,0.9262	-137.94
0.0262,0.9738	-132.47
0.0104,0.9896	-136.04
0.0035,0.9965	-131.04
0.0379,0.9621	-133.20
0.0093,0.9907	-131.42
0.0819,0.9181	-135.90
0.0219,0.9781	-132.21
0.0133,0.9867	-131.66
0.0037,0.9963	-131.06
0.0320,0.9680	-132.84
0.0116,0.9884	-131.56
0.0730,0.9270	-137.91
0.0180,0.9820	-131.96
0.0102,0.9898	-131.47
0.0035,0.9965	-131.05
0.0356,0.9644	-133.06
0.0106,0.9894	-131.49
0.0898,0.9102	-138.71
0.0179,0.9821	-131.96
0.0104,0.9896	-131.48
0.0034,0.9966	-131.04
0.0359,0.9641	-133.08
0.0129,0.9871	-131.64
0.0714,0.9286	-135.27
0.0213,0.9787	-132.17
0.0133,0.9867	-131.67
0.0029,0.9971	-131.01
0.0392,0.9608	-133.28
0.0103,0.9897	-131.48
0.0504,0.9496	-133.98
0.0217,0.9783	-132.19
0.0128,0.9872	-135.98
0.0029,0.9971	-131.01
0.0436,0.9564	-133.55
0.0089,0.9911	-131.39
0.0415,0.9585	-133.42
0.0256,0.9744	-132.44
0.0109,0.9891	-131.52
0.0034,0.9966	-131.04
0.0360,0.9640	-133.09
0.0090,0.9910	-131.39
0.0518,0.9482	-134.06
0.0141,0.9859	-131.72
0.0116,0.9884	-131.56
0.0030,0.9970	-131.02
0.0296,0.9704	-132.68
0.0088,0.9912	-136.10
0.0445,0.9555	-133.61
0.0138,0.9862	-131.70
0.0163,0.9837	-131.85
0.0027,0.9973	-131.00
0.0235,0.9765	-136.03
0.0084,0.9916	-131.35
0.0500,0.9500	-136.89
0.0160,0.9840	-135.95
0.0204,0.9796	-132.11
0.0026,0.9974	-130.99
0.0229,0.9771	-132.27
0.0076,0.9924	-131.31
0.0654,0.9346	-137.56
0.0230,0.9770	-136.02
0.0224,0.9776	-136.01
0.0025,0.9975	-130.98
0.0251,0.9749	-136.07
0.0067,0.9933	-131.25
0.0496,0.9504	-136.88
0.0201,0.9799	-132.09
0.0209,0.9791	-132.15
0.0024,0.9976	-130.98
0.0287,0.9713	-136.15
0.0060,0.9940	-131.20
0.0447,0.9553	-133.62
0.0172,0.9828	-135.96
0.0200,0.9800	-132.09
0.0020,0.9980	-130.95
0.0326,0.9674	-132.87
0.0047,0.9953	-131.12
0.0448,0.9552	-133.63
0.0196,0.9804	-132.06
0.0162,0.9838	-131.85
0.0025,0.9975	-130.98
0.0345,0.9655	-132.99
0.0043,0.9957	-131.10
0.0396,0.9604	-133.31
0.0190,0.9810	-132.02
0.0204,0.9796	-132.11
0.0029,0.9971	-131.01
0.0367,0.9633	-133.13
0.0047,0.9953	-131.12
0.0425,0.9575	-136.60
0.0128,0.9872	-131.63
0.0170,0.9830	-131.90
0.0032,0.9968	-131.03
0.0319,0.9681	-132.83
0.0041,0.9959	-131.08
0.0459,0.9541	-133.70
0.0154,0.9846	-131.80
0.0136,0.9864	-131.69
0.0041,0.9959	-131.09
0.0284,0.9716	-132.61
0.0042,0.9958	-131.09
0.0540,0.9460	-134.20
0.0154,0.9846	-131.80
0.0116,0.9884	-136.00
0.0054,0.9946	-131.17
0.0355,0.9645	-133.05
0.0044,0.9956	-131.10
0.0517,0.9483	-136.97
0.0164,0.9836	-131.86
0.0091,0.9909	-131.40
0.0038,0.9962	-131.07
0.0335,0.9665	-132.93
0.0058,0.9942	-131.19
0.0397,0.9603	-133.31
0.0155,0.9845	-131.80
0.0125,0.9875	-131.61
0.0043,0.9957	-131.10
0.0347,0.9653	-133.01
0.0070,0.9930	-131.27
0.0374,0.9626	-133.17
0.0140,0.9860	-131.71
0.0166,0.9834	-131.87
0.0039,0.9961	-131.07
0.0356,0.9644	-133.06
0.0065,0.9935	-131.24
0.0440,0.9560	-133.58
0.0134,0.9866	-131.67
0.0194,0.9806	-132.05
0.0036,0.9964	-131.05
0.0320,0.9680	-132.84
0.0053,0.9947	-136.39
0.0413,0.9587	-136.56
0.0113,0.9887	-131.54
0.0233,0.9767	-132.29
0.0041,0.9959	-131.08
0.0242,0.9758	-132.35
0.0065,0.9935	-131.24
0.0399,0.9601	-133.33
0.0114,0.9886	-136.01
0.0284,0.9716	-132.61
0.0050,0.9950	-131.14
0.0253,0.9747	-132.42
0.0070,0.9930	-131.27
0.0359,0.9641	-133.08
0.0121,0.9879	-131.59
0.0273,0.9727	-136.12
0.0065,0.9935	-131.24
0.0202,0.9798	-132.10
0.0062,0.9938	-131.21
0.0339,0.9661	-143.00
0.0163,0.9837	-131.86
0.0212,0.9788	-132.16
0.0067,0.9933	-131.25
0.0251,0.9749	-132.41
0.0051,0.9949	-131.15
0.0282,0.9718	-136.14
0.0164,0.9836	-131.86
0.0231,0.9769	-132.28
0.0059,0.9941	-131.20
0.0174,0.9826	-131.93
0.0059,0.9941	-131.20
0.0264,0.9736	-132.49
0.0149,0.9851	-131.76
0.0234,0.9766	-132.30
0.0058,0.9942	-131.19
0.0134,0.9866	-131.67
0.0060,0.9940	-131.21
0.0248,0.9752	-132.39
0.0140,0.9860	-131.71
0.0224,0.9776	-132.24
0.0057,0.9943	-131.19
0.0142,0.9858	-131.72
0.0046,0.9954	-131.11
0.0222,0.9778	-132.23
0.0144,0.9856	-131.73
0.0198,0.9802	-132.07
0.0053,0.9947	-131.16
0.0116,0.9884	-131.56
0.0044,0.9956	-131.10
0.0197,0.9803	-132.07
0.0134,0.9866	-131.67
0.0214,0.9786	-132.17
0.0068,0.9932	-131.26
0.0085,0.9915	-131.37
0.0049,0.9951	-131.14
0.0212,0.9788	-135.99
0.0149,0.9851	-131.76
0.0197,0.9803	-132.07
0.0073,0.9927	-131.29
0.0091,0.9909	-131.40
0.0043,0.9957	-131.10
0.0214,0.9786	-139.82
0.0137,0.9863	-131.69
0.0240,0.9760	-132.34
0.0077,0.9923	-131.32
0.0082,0.9918	-131.34
0.0034,0.9966	-131.04
0.0247,0.9753	-132.38
0.0128,0.9872	-131.63
0.0346,0.9654	-136.33
0.0086,0.9914	-131.37
0.0082,0.9918	-131.34
0.0031,0.9969	-131.02
0.0210,0.9790	-132.15
0.0108,0.9892	-131.51
0.0290,0.9710	-132.65
0.0079,0.9921	-131.32
0.0082,0.9918	-131.35
0.0029,0.9971	-131.01
0.0166,0.9834	-131.87
0.0124,0.9876	-131.61
0.0282,0.9718	-132.60
0.0078,0.9922	-136.16
0.0080,0.9920	-131.33
0.0029,0.9971	-131.01
0.0174,0.9826	-131.92
0.0127,0.9873	-131.63
0.0338,0.9662	-132.95
0.0075,0.9925	-131.30
0.0078,0.9922	-131.32
0.0036,0.9964	-131.05
0.0181,0.9819	-131.97
0.0126,0.9874	-131.62
0.0258,0.9742	-132.45
0.0066,0.9934	-131.24
0.0086,0.9914	-136.11
0.0032,0.9968	-131.03
0.0203,0.9797	-135.98
0.0108,0.9892	-131.51
0.0245,0.9755	-132.37
0.0071,0.9929	-131.28
0.0084,0.9916	-131.36
0.0031,0.9969	-131.02
0.0225,0.9775	-132.24
0.0099,0.9901	-131.45
0.0316,0.9684	-132.81
0.0064,0.9936	-131.23
0.0084,0.9916	-131.36
0.0032,0.9968	-131.03
0.0258,0.9742	-132.45
0.0122,0.9878	-131.60
0.0379,0.9621	-133.21
0.0058,0.9942	-131.19
0.0075,0.9925	-131.30
0.0032,0.9968	-131.03
0.0383,0.9617	-139.67
0.0142,0.9858	-131.72
0.0382,0.9618	-133.22
0.0064,0.9936	-131.23
0.0075,0.9925	-131.30
0.0042,0.9958	-131.09
0.0448,0.9552	-136.69
0.0135,0.9865	-131.68
0.0357,0.9643	-136.36
0.0061,0.9939	-131.21
0.0098,0.9902	-131.45
0.0036,0.9964	-131.05
0.0403,0.9597	-133.35
0.0168,0.9832	-131.88
0.0371,0.9629	-133.15
0.0059,0.9941	-131.20
0.0107,0.9893	-136.03
0.0035,0.9965	-131.05
0.0339,0.9661	-136.30
0.0175,0.9825	-131.93
0.0368,0.9632	-133.14
0.0059,0.9941	-131.20
0.0114,0.9886	-131.54
0.0032,0.9968	-131.02
0.0291,0.9709	-132.65
0.0172,0.9828	-131.91
0.0455,0.9545	-133.67
0.0055,0.9945	-131.17
0.0095,0.9905	-131.43
0.0032,0.9968	-131.02
0.0390,0.9610	-133.27
0.0167,0.9833	-131.88
0.0516,0.9484	-134.05
0.0034,0.9966	-131.04
0.0108,0.9892	-131.51
0.0039,0.9961	-131.07
0.0554,0.9446	-137.12
0.0194,0.9806	-132.05
0.0551,0.9449	-137.11
0.0032,0.9968	-131.03
0.0110,0.9890	-131.52
0.0043,0.9957	-131.10
0.0474,0.9526	-136.79
0.0207,0.9793	-132.13
0.0374,0.9626	-133.17
0.0035,0.9965	-131.05
0.0101,0.9899	-131.46
0.0057,0.9943	-131.19
0.0460,0.9540	-133.71
0.0195,0.9805	-132.05
0.0462,0.9538	-133.72
0.0042,0.9958	-131.09
0.0146,0.9854	-131.75
0.0055,0.9945	-131.17
0.0667,0.9333	-134.98
0.0131,0.9869	-131.65
0.0434,0.9566	-136.64
0.0047,0.9953	-131.12
0.0164,0.9836	-131.86
0.0057,0.9943	-131.19
0.0604,0.9396	-134.59
0.0195,0.9805	-132.05
0.0364,0.9636	-136.39
0.0053,0.9947	-131.16
0.0166,0.9834	-131.87
0.0065,0.9935	-131.24
0.0844,0.9156	-140.83
0.0222,0.9778	-136.01
0.0471,0.9529	-133.77
0.0045,0.9955	-131.11
0.0140,0.9860	-135.96
0.0060,0.9940	-131.20
0.0781,0.9219	-138.14
0.0186,0.9814	-132.00
0.0415,0.9585	-133.42
0.0068,0.9932	-131.26
0.0163,0.9837	-131.85
0.0075,0.9925	-131.30
0.0645,0.9355	-137.52
0.0177,0.9823	-131.94
0.0446,0.9554	-136.68
0.0069,0.9931	-131.26
0.0203,0.9797	-132.10
0.0071,0.9929	-131.28
0.1037,0.8963	-137.23
0.0207,0.9793	-132.13
0.0526,0.9474	-134.11
0.0072,0.9928	-131.28
0.0280,0.9720	-132.59
0.0068,0.9932	-131.25
0.0965,0.9035	-141.27
0.0207,0.9793	-139.84
0.0479,0.9521	-133.82
0.0078,0.9922	-131.32
0.0311,0.9689	-132.78
0.0090,0.9910	-136.10
0.0919,0.9081	-136.52
0.0192,0.9808	-132.04
0.0588,0.9412	-134.49
0.0077,0.9923	-131.31
0.0225,0.9775	-132.24
0.0081,0.9919	-131.34
0.0850,0.9150	-143.23
0.0212,0.9788	-132.16
0.0711,0.9289	-135.25
0.0090,0.9910	-131.40
0.0243,0.9757	-136.05
0.0082,0.9918	-131.34
0.0775,0.9225	-140.59
0.0212,0.9788	-132.16
0.0838,0.9162	-138.42
0.0087,0.9913	-131.37
0.0252,0.9748	-132.41
0.0091,0.9909	-131.40
0.0849,0.9151	-136.09
0.0219,0.9781	-132.21
0.0756,0.9244	-135.52
0.0090,0.9910	-131.40
0.0283,0.9717	-132.60
0.0109,0.9891	-131.51
0.0805,0.9195	-140.69
0.0229,0.9771	-132.27
0.0671,0.9329	-135.00
0.0078,0.9922	-131.32
0.0334,0.9666	-136.29
0.0115,0.9885	-131.55
0.0659,0.9341	-137.58
0.0257,0.9743	-132.44
0.0588,0.9412	-137.26
0.0089,0.9911	-131.39
0.0317,0.9683	-132.82
0.0123,0.9877	-131.60
0.0538,0.9462	-134.18
0.0256,0.9744	-132.44
0.0427,0.9573	-133.50
0.0099,0.9901	-131.45
0.0249,0.9751	-132.39
0.0125,0.9875	-131.62
0.0475,0.9525	-139.79
0.0250,0.9750	-132.40
0.0376,0.9624	-136.43
0.0104,0.9896	-131.48
0.0269,0.9731	-136.11
0.0101,0.9899	-131.46
0.0430,0.9570	-136.62
0.0221,0.9779	-132.22
0.0438,0.9562	-136.65
0.0101,0.9899	-131.47
0.0213,0.9787	-132.17
0.0111,0.9889	-131.52
0.0366,0.9634	-133.12
0.0242,0.9758	-136.05
0.0342,0.9658	-132.97
0.0077,0.9923	-131.32
0.0291,0.9709	-136.16
0.0118,0.9882	-131.57
0.0410,0.9590	-133.39
0.0294,0.9706	-132.67
0.0396,0.9604	-133.31
0.0070,0.9930	-136.22
0.0272,0.9728	-136.11
0.0125,0.9875	-131.62
0.0371,0.9629	-133.15
0.0276,0.9724	-132.56
0.0395,0.9605	-133.30
0.0076,0.9924	-131.31
0.0229,0.9771	-132.27
0.0119,0.9881	-131.58
0.0351,0.9649	-136.34
0.0243,0.9757	-132.36
0.0453,0.9547	-136.71
0.0074,0.9926	-141.10
0.0197,0.9803	-132.07
0.0118,0.9882	-136.00
0.0322,0.9678	-132.85
0.0231,0.9769	-132.28
0.0521,0.9479	-134.08
0.0057,0.9943	-131.18
0.0184,0.9816	-131.98
0.0083,0.9917	-131.35
0.0408,0.9592	-133.38
0.0290,0.9710	-132.65
0.0382,0.9618	-133.22
0.0052,0.9948	-131.16
0.0182,0.9818	-131.97
0.0090,0.9910	-131.40
0.0402,0.9598	-133.35
0.0259,0.9741	-136.08
0.0375,0.9625	-133.18
0.0041,0.9959	-131.08
0.0192,0.9808	-132.03
0.0083,0.9917	-131.35
0.0420,0.9580	-136.58
0.0245,0.9755	-132.37
0.0341,0.9659	-132.96
0.0043,0.9957	-131.10
0.0232,0.9768	-132.29
0.0090,0.9910	-131.40
0.0478,0.9522	-133.81
0.0235,0.9765	-132.30
0.0387,0.9613	-133.25
0.0046,0.9954	-131.12
0.0250,0.9750	-132.40
0.0095,0.9905	-131.42
0.0456,0.9544	-133.68
0.0196,0.9804	-132.06
0.0352,0.9648	-133.03
0.0055,0.9945	-131.17
0.0272,0.9728	-132.53
0.0098,0.9902	-131.44
0.0448,0.9552	-133.63
0.0214,0.9786	-132.17
0.0369,0.9631	-136.40
0.0044,0.9956	-131.10
0.0267,0.9733	-132.51
0.0109,0.9891	-131.52
0.0382,0.9618	-136.45
0.0315,0.9685	-132.81
0.0328,0.9672	-132.89
0.0041,0.9959	-131.08
0.0322,0.9678	-136.25
0.0105,0.9895	-131.49
0.0354,0.9646	-133.05
0.0333,0.9667	-132.92
0.0349,0.9651	-133.01
0.0043,0.9957	-131.10
0.0337,0.9663	-136.30
0.0125,0.9875	-131.62
0.0449,0.9551	-136.70
0.0382,0.9618	-133.22
0.0301,0.9699	-132.72
0.0040,0.9960	-131.08
0.0366,0.9634	-133.12
0.0151,0.9849	-131.78
0.0463,0.9537	-133.72
0.0333,0.9667	-132.92
0.0366,0.9634	-133.12
0.0034,0.9966	-131.04
0.0313,0.9687	-132.79
0.0152,0.9848	-131.79
0.0428,0.9572	-133.50
0.0287,0.9713	-136.15
0.0324,0.9676	-132.86
0.0038,0.9962	-131.06
0.0218,0.9782	-136.00
0.0137,0.9863	-131.69
0.0387,0.9613	-133.25
0.0332,0.9668	-136.28
0.0333,0.9667	-143.02
0.0037,0.9963	-131.06
0.0199,0.9801	-132.08
0.0140,0.9860	-131.71
0.0528,0.9472	-134.12
0.0332,0.9668	-132.91
0.0243,0.9757	-139.74
0.0040,0.9960	-131.08
0.0169,0.9831	-131.89
0.0135,0.9865	-131.68
0.0528,0.9472	-134.13
0.0350,0.9650	-133.03
0.0303,0.9697	-132.73
0.0028,0.9972	-131.00
0.0182,0.9818	-131.97
0.0142,0.9858	-131.72
0.0395,0.9605	-136.49
0.0348,0.9652	-136.33
0.0271,0.9729	-132.53
0.0025,0.9975	-130.98
0.0181,0.9819	-131.97
0.0151,0.9849	-131.78
0.0302,0.9698	-132.72
0.0411,0.9589	-133.40
0.0316,0.9684	-132.81
0.0030,0.9970	-131.01
0.0190,0.9810	-132.03
0.0131,0.9869	-131.65
0.0250,0.9750	-132.40
0.0358,0.9642	-133.07
0.0299,0.9701	-132.70
0.0036,0.9964	-131.06
0.0175,0.9825	-131.93
0.0149,0.9851	-131.77
0.0306,0.9694	-136.21
0.0378,0.9622	-133.20
0.0326,0.9674	-132.88
0.0046,0.9954	-131.12
0.0194,0.9806	-132.05
0.0139,0.9861	-131.71
0.0242,0.9758	-136.05
0.0302,0.9698	-132.73
0.0314,0.9686	-132.80
0.0039,0.9961	-131.07
0.0217,0.9783	-136.00
0.0139,0.9861	-135.97
0.0195,0.9805	-132.05
0.0235,0.9765	-132.31
0.0339,0.9661	-132.95
0.0047,0.9953	-131.12
0.0206,0.9794	-132.12
0.0113,0.9887	-131.54
0.0203,0.9797	-132.10
0.0298,0.9702	-132.70
0.0310,0.9690	-132.77
0.0042,0.9958	-131.09
0.0249,0.9751	-132.39
0.0152,0.9848	-131.78
0.0241,0.9759	-132.34
0.0313,0.9687	-132.79
0.0221,0.9779	-132.22
0.0034,0.9966	-131.04
0.0280,0.9720	-132.59
0.0123,0.9877	-131.60
0.0233,0.9767	-132.29
0.0309,0.9691	-132.76
0.0199,0.9801	-132.08
0.0025,0.9975	-130.98
0.0289,0.9711	-132.64
0.0113,0.9887	-136.01
0.0240,0.9760	-136.04
0.0297,0.9703	-132.69
0.0174,0.9826	-131.92
0.0025,0.9975	-130.98
0.0241,0.9759	-132.34
0.0126,0.9874	-131.62
0.0274,0.9726	-136.12
0.0294,0.9706	-132.67
0.0184,0.9816	-131.98
0.0031,0.9969	-131.02
0.0203,0.9797	-132.10
0.0130,0.9870	-131.65
0.0257,0.9743	-136.08
0.0326,0.9674	-132.87
0.0186,0.9814	-132.00
0.0039,0.9961	-131.07
0.0201,0.9799	-132.09
0.0108,0.9892	-131.51
0.0228,0.9772	-132.26
0.0349,0.9651	-136.34
0.0204,0.9796	-132.11
0.0036,0.9964	-131.05
0.0190,0.9810	-132.03
0.0106,0.9894	-131.50
0.0197,0.9803	-132.07
0.0298,0.9702	-132.70
0.0242,0.9758	-132.35
0.0046,0.9954	-136.49
0.0229,0.9771	-132.27
0.0099,0.9901	-136.06
0.0180,0.9820	-131.96
0.0276,0.9724	-132.56
0.0288,0.9712	-132.64
0.0052,0.9948	-131.16
0.0219,0.9781	-132.21
0.0087,0.9913	-131.38
0.0157,0.9843	-131.82
0.0311,0.9689	-132.78
0.0339,0.9661	-132.96
0.0061,0.9939	-131.21
0.0172,0.9828	-131.91
0.0098,0.9902	-131.45
0.0174,0.9826	-131.92
0.0307,0.9693	-132.76
0.0236,0.9764	-132.31
0.0050,0.9950	-131.14
0.0226,0.9774	-132.25
0.0129,0.9871	-131.64
0.0206,0.9794	-135.99
0.0289,0.9711	-136.16
0.0209,0.9791	-132.14
0.0052,0.9948	-131.16
0.0181,0.9819	-131.97
0.0141,0.9859	-131.71
0.0272,0.9728	-132.54
0.0307,0.9693	-132.76
0.0227,0.9773	-132.26
0.0048,0.9952	-131.13
0.0182,0.9818	-131.97
0.0132,0.9868	-131.66
0.0245,0.9755	-132.37
0.0316,0.9684	-132.81
0.0234,0.9766	-132.30
0.0056,0.9944	-131.18
0.0177,0.9823	-131.94
0.0153,0.9847	-131.79
0.0245,0.9755	-136.05
0.0411,0.9589	-133.40
0.0245,0.9755	-132.37
0.0049,0.9951	-131.13
0.0168,0.9832	-131.88
0.0179,0.9821	-135.96
0.0291,0.9709	-136.16
0.0336,0.9664	-132.93
0.0260,0.9740	-132.46
0.0041,0.9959	-131.08
0.0175,0.9825	-131.93
0.0162,0.9838	-135.95
0.0273,0.9727	-132.54
0.0423,0.9577	-133.47
0.0247,0.9753	-132.38
0.0038,0.9962	-131.07
0.0174,0.9826	-131.93
0.0166,0.9834	-131.87
0.0293,0.9707	-132.67
0.0436,0.9564	-139.73
0.0294,0.9706	-132.67
0.0039,0.9961	-131.07
0.0180,0.9820	-131.96
0.0170,0.9830	-131.90
0.0250,0.9750	-136.06
0.0344,0.9656	-132.98
0.0264,0.9736	-132.49
0.0042,0.9958	-131.09
0.0147,0.9853	-131.75
0.0181,0.9819	-131.96
0.0264,0.9736	-132.49
0.0314,0.9686	-136.23
0.0268,0.9732	-132.51
0.0055,0.9945	-131.17
0.0194,0.9806	-132.05
0.0151,0.9849	-131.78
0.0242,0.9758	-132.35
0.0321,0.9679	-132.84
0.0323,0.9677	-136.25
0.0060,0.9940	-131.21
0.0232,0.9768	-132.29
0.0147,0.9853	-131.75
0.0191,0.9809	-132.03
0.0388,0.9612	-133.26
0.0300,0.9700	-132.71
0.0070,0.9930	-131.27
0.0204,0.9796	-132.11
0.0150,0.9850	-131.77
0.0231,0.9769	-132.28
0.0366,0.9634	-133.12
0.0299,0.9701	-132.70
0.0060,0.9940	-131.21
0.0206,0.9794	-132.13
0.0131,0.9869	-131.66
0.0322,0.9678	-132.85
0.0503,0.9497	-133.97
0.0293,0.9707	-132.67
0.0047,0.9953	-131.12
0.0235,0.9765	-132.31
0.0122,0.9878	-135.99
0.0403,0.9597	-133.35
0.0414,0.9586	-133.42
0.0317,0.9683	-132.82
0.0045,0.9955	-131.11
0.0218,0.9782	-132.20
0.0123,0.9877	-131.60
0.0381,0.9619	-133.22
0.0462,0.9538	-133.72
0.0315,0.9685	-132.81
0.0046,0.9954	-131.12
0.0238,0.9762	-132.32
0.0101,0.9899	-131.47
0.0432,0.9568	-133.53
0.0493,0.9507	-133.91
0.0331,0.9669	-132.90
0.0041,0.9959	-131.09
0.0195,0.9805	-132.06
0.0129,0.9871	-131.64
0.0422,0.9578	-133.47
0.0536,0.9464	-134.17
0.0433,0.9567	-133.54
0.0049,0.9951	-131.14
0.0172,0.9828	-135.96
0.0115,0.9885	-131.55
0.0471,0.9529	-136.78
0.0427,0.9573	-133.50
0.0431,0.9569	-139.73
0.0048,0.9952	-131.13
0.0173,0.9827	-135.96
0.0083,0.9917	-131.35
0.0509,0.9491	-136.93
0.0372,0.9628	-139.67
0.0516,0.9484	-134.05
0.0057,0.9943	-131.18
0.0194,0.9806	-132.05
0.0109,0.9891	-131.51
0.0491,0.9509	-136.86
0.0450,0.9550	-133.65
0.0556,0.9444	-134.29
0.0052,0.9948	-131.15
0.0201,0.9799	-132.09
0.0099,0.9901	-131.45
0.0441,0.9559	-133.59
0.0484,0.9516	-133.85
0.0538,0.9462	-134.18
0.0048,0.9952	-131.13
0.0230,0.9770	-132.28
0.0118,0.9882	-131.57
0.0468,0.9532	-133.75
0.0456,0.9544	-133.68
0.0506,0.9494	-133.99
0.0043,0.9957	-131.10
0.0234,0.9766	-132.30
0.0124,0.9876	-131.61
0.0478,0.9522	-136.81
0.0566,0.9434	-134.36
0.0491,0.9509	-133.90
0.0039,0.9961	-131.07
0.0221,0.9779	-132.22
0.0182,0.9818	-131.97
0.0463,0.9537	-133.72
0.0556,0.9444	-137.13
0.0528,0.9472	-134.12
0.0038,0.9962	-131.07
0.0261,0.9739	-132.47
0.0160,0.9840	-131.84
0.0430,0.9570	-133.52
0.0559,0.9441	-134.31
0.0614,0.9386	-140.11
0.0037,0.9963	-131.06
0.0235,0.9765	-132.30
0.0178,0.9822	-135.96
0.0507,0.9493	-136.93
0.0497,0.9503	-139.83
0.0541,0.9459	-134.20
0.0039,0.9961	-131.07
0.0274,0.9726	-132.55
0.0148,0.9852	-131.76
0.0518,0.9482	-134.07
0.0380,0.9620	-133.21
0.0536,0.9464	-139.92
0.0041,0.9959	-131.09
0.0297,0.9703	-132.69
0.0235,0.9765	-132.31
0.0538,0.9462	-134.19
0.0435,0.9565	-133.55
0.0605,0.9395	-140.08
0.0045,0.9955	-131.11
0.0293,0.9707	-132.67
0.0237,0.9763	-136.04
0.0547,0.9453	-137.09
0.0427,0.9573	-136.61
0.0610,0.9390	-137.36
0.0045,0.9955	-131.11
0.0257,0.9743	-136.08
0.0287,0.9713	-132.63
0.0625,0.9375	-134.72
0.0497,0.9503	-133.93
0.0717,0.9283	-135.29
0.0055,0.9945	-136.37
0.0214,0.9786	-132.17
0.0286,0.9714	-132.62
0.0677,0.9323	-135.04
0.0581,0.9419	-137.24
0.0685,0.9315	-135.09
0.0062,0.9938	-131.22
0.0177,0.9823	-135.96
0.0334,0.9666	-132.92
0.0805,0.9195	-138.26
0.0672,0.9328	-135.01
0.0718,0.9282	-140.41
0.0081,0.9919	-131.34
0.0186,0.9814	-132.00
0.0368,0.9632	-136.40
0.0951,0.9049	-136.71
0.0681,0.9319	-135.06
0.0686,0.9314	-135.09
0.0097,0.9903	-131.44
0.0153,0.9847	-131.79
0.0327,0.9673	-132.88
0.1046,0.8954	-141.58
0.0721,0.9279	-135.31
0.0713,0.9287	-135.26
0.0102,0.9898	-131.47
0.0182,0.9818	-139.95
0.0291,0.9709	-132.65
0.1236,0.8764	-142.35
0.0719,0.9281	-135.30
0.0753,0.9247	-138.01
0.0103,0.9897	-131.48
0.0179,0.9821	-131.95
0.0225,0.9775	-132.24
0.1120,0.8880	-139.80
0.0696,0.9304	-135.16
0.0629,0.9371	-142.85
0.0122,0.9878	-135.99
0.0154,0.9846	-131.80
0.0226,0.9774	-136.02
0.1025,0.8975	-139.33
0.0608,0.9392	-134.61
0.0609,0.9391	-137.36
0.0117,0.9883	-131.56
0.0153,0.9847	-131.79
0.0325,0.9675	-132.87
0.0972,0.9028	-141.30
0.0600,0.9400	-137.32
0.0724,0.9276	-135.32
0.0114,0.9886	-131.54
0.0149,0.9851	-131.77
0.0383,0.9617	-136.45
0.0973,0.9027	-136.84
0.0938,0.9062	-136.63
0.0747,0.9253	-135.47
0.0140,0.9860	-131.71
0.0131,0.9869	-131.65
0.0280,0.9720	-132.59
0.1090,0.8910	-137.55
0.0796,0.9204	-138.21
0.0701,0.9299	-135.19
0.0116,0.9884	-131.56
0.0113,0.9887	-131.54
0.0272,0.9728	-132.54
0.1203,0.8797	-138.23
0.0716,0.9284	-142.97
0.0736,0.9264	-137.94
0.0149,0.9851	-131.77
0.0093,0.9907	-131.41
0.0297,0.9703	-132.69
0.0921,0.9079	-138.81
0.0751,0.9249	-138.00
0.0673,0.9327	-135.02
0.0144,0.9856	-131.73
0.0101,0.9899	-131.46
0.0297,0.9703	-132.69
0.0856,0.9144	-138.50
0.0930,0.9070	-141.14
0.0775,0.9225	-135.64
0.0121,0.9879	-131.59
0.0108,0.9892	-131.51
0.0299,0.9701	-132.71
0.0708,0.9292	-137.80
0.0728,0.9272	-140.44
0.0609,0.9391	-134.62
0.0123,0.9877	-135.99
0.0112,0.9888	-136.01
0.0287,0.9713	-132.63
0.0600,0.9400	-134.57
0.0698,0.9302	-135.17
0.0803,0.9197	-135.81
0.0120,0.9880	-131.58
0.0095,0.9905	-131.43
0.0248,0.9752	-136.06
0.0494,0.9506	-139.83
0.0790,0.9210	-135.73
0.0623,0.9377	-134.71
0.0129,0.9871	-131.64
0.0077,0.9923	-131.31
0.0281,0.9719	-132.59
0.0489,0.9511	-136.85
0.0788,0.9212	-135.72
0.0758,0.9242	-138.04
0.0142,0.9858	-131.72
0.0088,0.9912	-131.38
0.0292,0.9708	-132.66
0.0467,0.9533	-133.75
0.0802,0.9198	-135.80
0.0660,0.9340	-134.93
0.0159,0.9841	-131.83
0.0095,0.9905	-131.43
0.0376,0.9624	-133.18
0.0411,0.9589	-133.40
0.0859,0.9141	-138.52
0.0757,0.9243	-135.53
0.0211,0.9789	-132.16
0.0109,0.9891	-136.02
0.0364,0.9636	-133.11
0.0420,0.9580	-133.46
0.0994,0.9006	-139.17
0.0769,0.9231	-135.60
0.0212,0.9788	-132.16
0.0113,0.9887	-131.54
0.0349,0.9651	-133.01
0.0341,0.9659	-132.97
0.0988,0.9012	-139.14
0.0804,0.9196	-138.25
0.0217,0.9783	-132.19
0.0111,0.9889	-131.53
0.0344,0.9656	-132.98
0.0353,0.9647	-136.35
0.0962,0.9038	-139.02
0.0586,0.9414	-137.26
0.0261,0.9739	-132.47
0.0113,0.9887	-131.54
0.0362,0.9638	-133.10
0.0499,0.9501	-136.89
0.0944,0.9056	-136.66
0.0507,0.9493	-133.99
0.0288,0.9712	-136.16
0.0097,0.9903	-131.44
0.0370,0.9630	-133.15
0.0428,0.9572	-133.51
0.0938,0.9062	-136.63
0.0575,0.9425	-134.41
0.0286,0.9714	-139.67
0.0112,0.9888	-131.54
0.0270,0.9730	-132.53
0.0496,0.9504	-136.88
0.0883,0.9117	-138.63
0.0561,0.9439	-134.33
0.0322,0.9678	-132.85
0.0107,0.9893	-136.03
0.0194,0.9806	-132.05
0.0576,0.9424	-137.21
0.0883,0.9117	-136.29
0.0597,0.9403	-140.06
0.0335,0.9665	-132.93
0.0123,0.9877	-131.61
0.0191,0.9809	-135.97
0.0529,0.9471	-137.02
0.1002,0.8998	-141.41
0.0624,0.9376	-134.71
0.0367,0.9633	-133.13
0.0147,0.9853	-131.75
0.0162,0.9838	-131.85
0.0662,0.9338	-134.95
0.1105,0.8895	-139.73
0.0696,0.9304	-140.34
0.0364,0.9636	-133.11
0.0130,0.9870	-131.65
0.0140,0.9860	-131.71
0.0734,0.9266	-137.92
0.0925,0.9075	-138.84
0.0722,0.9278	-135.31
0.0421,0.9579	-133.46
0.0144,0.9856	-131.73
0.0132,0.9868	-131.66
0.0635,0.9365	-134.78
0.0898,0.9102	-138.70
0.0714,0.9286	-137.83
0.0321,0.9679	-132.84
0.0120,0.9880	-131.58
0.0131,0.9869	-131.65
0.0572,0.9428	-140.00
0.0960,0.9040	-139.01
0.0797,0.9203	-135.77
0.0312,0.9688	-132.79
0.0126,0.9874	-131.62
0.0105,0.9895	-131.49
0.0559,0.9441	-137.14
0.0953,0.9047	-138.97
0.0610,0.9390	-134.63
0.0324,0.9676	-136.26
0.0128,0.9872	-135.98
0.0080,0.9920	-131.33
0.0473,0.9527	-133.79
0.0866,0.9134	-136.20
0.0573,0.9427	-134.40
0.0368,0.9632	-136.40
0.0125,0.9875	-131.62
0.0091,0.9909	-131.40
0.0440,0.9560	-133.58
0.0707,0.9293	-135.22
0.0520,0.9480	-136.98
0.0365,0.9635	-133.11
0.0128,0.9872	-131.63
0.0091,0.9909	-131.40
0.0490,0.9510	-136.85
0.0634,0.9366	-134.78
0.0398,0.9602	-133.32
0.0390,0.9610	-133.27
0.0139,0.9861	-131.70
0.0097,0.9903	-136.07
0.0477,0.9523	-133.81
0.0705,0.9295	-135.21
0.0432,0.9568	-133.53
0.0288,0.9712	-136.16
0.0112,0.9888	-136.01
0.0107,0.9893	-131.50
0.0369,0.9631	-133.14
0.0757,0.9243	-135.53
0.0501,0.9499	-139.84
0.0275,0.9725	-132.55
0.0100,0.9900	-131.46
0.0092,0.9908	-131.41
0.0356,0.9644	-136.36
0.0794,0.9206	-135.76
0.0538,0.9462	-134.18
0.0252,0.9748	-132.41
0.0085,0.9915	-131.36
0.0079,0.9921	-131.33
0.0316,0.9684	-132.81
0.0874,0.9126	-136.24
0.0464,0.9536	-133.73
0.0288,0.9712	-132.64
0.0073,0.9927	-131.29
0.0077,0.9923	-131.31
0.0251,0.9749	-132.40
0.0877,0.9123	-138.60
0.0589,0.9411	-134.50
0.0252,0.9748	-132.41
0.0065,0.9935	-131.24
0.0070,0.9930	-131.27
0.0312,0.9688	-136.22
0.1209,0.8791	-140.25
0.0684,0.9316	-135.09
0.0222,0.9778	-132.22
0.0055,0.9945	-131.18
0.0069,0.9931	-131.26
0.0334,0.9666	-132.92
0.1242,0.8758	-138.46
0.0588,0.9412	-134.49
0.0337,0.9663	-132.94
0.0058,0.9942	-131.19
0.0069,0.9931	-131.26
0.0354,0.9646	-133.05
0.1295,0.8705	-138.78
0.0658,0.9342	-137.58
0.0328,0.9672	-132.89
0.0065,0.9935	-131.24
0.0079,0.9921	-131.33
0.0388,0.9612	-133.26
0.1232,0.8768	-140.37
0.0642,0.9358	-140.18
0.0325,0.9675	-136.26
0.0072,0.9928	-131.28
0.0095,0.9905	-131.42
0.0365,0.9635	-133.12
0.1067,0.8933	-137.41
0.0516,0.9484	-136.96
0.0302,0.9698	-132.73
0.0067,0.9933	-131.25
0.0109,0.9891	-131.52
0.0552,0.9448	-134.27
0.1071,0.8929	-137.43
0.0497,0.9503	-136.89
0.0380,0.9620	-133.21
0.0074,0.9926	-131.29
0.0119,0.9881	-131.58
0.0536,0.9464	-137.04
0.0948,0.9052	-136.69
0.0471,0.9529	-133.77
0.0385,0.9615	-133.24
0.0061,0.9939	-131.21
0.0166,0.9834	-131.87
0.0517,0.9483	-134.05
0.0757,0.9243	-138.03
0.0417,0.9583	-133.44
0.0343,0.9657	-132.98
0.0068,0.9932	-131.26
0.0155,0.9845	-131.80
0.0425,0.9575	-133.49
0.0693,0.9307	-137.74
0.0417,0.9583	-136.57
0.0295,0.9705	-132.68
0.0059,0.9941	-131.20
0.0170,0.9830	-131.90
0.0469,0.9531	-133.76
0.0749,0.9251	-135.48
0.0338,0.9662	-132.95
0.0281,0.9719	-132.59
0.0070,0.9930	-131.27
0.0179,0.9821	-135.96
0.0482,0.9518	-133.84
0.0744,0.9256	-137.97
0.0343,0.9657	-132.98
0.0389,0.9611	-133.26
0.0074,0.9926	-131.29
0.0204,0.9796	-135.98
0.0493,0.9507	-133.91
0.0753,0.9247	-138.01
0.0338,0.9662	-132.95
0.0293,0.9707	-132.67
0.0096,0.9904	-131.43
0.0215,0.9785	-132.18
0.0358,0.9642	-133.07
0.0754,0.9246	-135.51
0.0343,0.9657	-132.98
0.0279,0.9721	-132.58
0.0105,0.9895	-131.49
0.0232,0.9768	-132.29
0.0315,0.9685	-132.80
0.0804,0.9196	-135.81
0.0332,0.9668	-136.28
0.0249,0.9751	-132.39
0.0104,0.9896	-131.48
0.0248,0.9752	-132.39
0.0319,0.9681	-132.83
0.0996,0.9004	-139.19
0.0342,0.9658	-136.31
0.0357,0.9643	-133.07
0.0135,0.9865	-131.68
0.0277,0.9723	-136.13
0.0387,0.9613	-133.25
0.1130,0.8870	-137.79
0.0244,0.9756	-132.36
0.0335,0.9665	-136.29
0.0180,0.9820	-131.96
0.0303,0.9697	-132.73
0.0507,0.9493	-134.00
0.0963,0.9037	-141.26
0.0211,0.9789	-132.15
0.0351,0.9649	-133.03
0.0156,0.9844	-131.81
0.0252,0.9748	-132.41
0.0589,0.9411	-140.04
0.1045,0.8955	-139.43
0.0196,0.9804	-132.06
0.0329,0.9671	-132.89
0.0162,0.9838	-131.85
0.0276,0.9724	-132.56
0.0644,0.9356	-140.19
0.1082,0.8918	-143.83
0.0171,0.9829	-131.90
0.0346,0.9654	-133.00
0.0145,0.9855	-131.74
0.0299,0.9701	-132.70
0.0576,0.9424	-134.42
0.0983,0.9017	-141.34
0.0189,0.9811	-135.97
0.0291,0.9709	-132.65
0.0139,0.9861	-131.70
0.0321,0.9679	-136.25
0.0610,0.9390	-137.36
0.1005,0.8995	-137.04
0.0209,0.9791	-132.14
0.0279,0.9721	-132.58
0.0128,0.9872	-131.63
0.0328,0.9672	-132.88
0.0638,0.9362	-134.80
0.0982,0.9018	-139.11
0.0223,0.9777	-132.23
0.0275,0.9725	-132.56
0.0156,0.9844	-131.81
0.0312,0.9688	-132.79
0.0679,0.9321	-135.05
0.1077,0.8923	-137.47
0.0309,0.9691	-132.76
0.0238,0.9762	-132.33
0.0136,0.9864	-131.68
0.0359,0.9641	-133.08
0.0566,0.9434	-137.17
0.1027,0.8973	-137.17
0.0317,0.9683	-132.82
0.0225,0.9775	-132.24
0.0109,0.9891	-131.51
0.0318,0.9682	-132.82
0.0546,0.9454	-134.23
0.0864,0.9136	-138.54
0.0277,0.9723	-136.13
0.0235,0.9765	-132.31
0.0106,0.9894	-131.50
0.0379,0.9621	-133.21
0.0551,0.9449	-134.27
0.0826,0.9174	-135.95
0.0281,0.9719	-132.59
0.0213,0.9787	-135.99
0.0111,0.9889	-131.53
0.0381,0.9619	-133.22
0.0578,0.9422	-134.43
0.0850,0.9150	-136.10
0.0227,0.9773	-136.02
0.0219,0.9781	-136.00
0.0140,0.9860	-131.71
0.0383,0.9617	-136.45
0.0436,0.9564	-133.56
0.0859,0.9141	-136.15
0.0167,0.9833	-131.88
0.0198,0.9802	-132.07
0.0144,0.9856	-131.73
0.0393,0.9607	-133.29
0.0492,0.9508	-133.90
0.0775,0.9225	-140.59
0.0155,0.9845	-131.80
0.0223,0.9777	-132.23
0.0118,0.9882	-131.57
0.0417,0.9583	-136.57
0.0432,0.9568	-133.53
0.0778,0.9222	-138.13
0.0137,0.9863	-131.69
0.0203,0.9797	-132.11
0.0099,0.9901	-131.45
0.0492,0.9508	-136.86
0.0475,0.9525	-133.80
0.0528,0.9472	-134.12
0.0135,0.9865	-135.97
0.0223,0.9777	-132.23
0.0095,0.9905	-131.43
0.0630,0.9370	-134.75
0.0516,0.9484	-134.05
0.0533,0.9467	-134.15
0.0114,0.9886	-136.01
0.0203,0.9797	-132.10
0.0084,0.9916	-136.13
0.0616,0.9384	-134.67
0.0437,0.9563	-133.56
0.0556,0.9444	-134.30
0.0099,0.9901	-131.45
0.0242,0.9758	-132.35
0.0081,0.9919	-131.33
0.0704,0.9296	-135.21
0.0393,0.9607	-136.49
0.0596,0.9404	-137.30
0.0100,0.9900	-131.46
0.0236,0.9764	-132.31
0.0083,0.9917	-131.35
0.0774,0.9226	-135.63
0.0354,0.9646	-133.05
0.0582,0.9418	-134.46
0.0108,0.9892	-136.03
0.0231,0.9769	-136.03
0.0076,0.9924	-131.30
0.0749,0.9251	-137.99
0.0357,0.9643	-133.07
0.0483,0.9517	-133.85
0.0102,0.9898	-131.47
0.0181,0.9819	-139.96
0.0085,0.9915	-131.36
0.0764,0.9236	-138.07
0.0397,0.9603	-133.32
0.0517,0.9483	-134.05
0.0073,0.9927	-131.28
0.0223,0.9777	-132.23
0.0087,0.9913	-131.38
0.0820,0.9180	-135.91
0.0390,0.9610	-133.27
0.0406,0.9594	-133.37
0.0078,0.9922	-131.32
0.0265,0.9735	-132.49
0.0087,0.9913	-131.37
0.0646,0.9354	-134.85
0.0273,0.9727	-132.54
0.0485,0.9515	-133.86
0.0076,0.9924	-131.30
0.0421,0.9579	-133.46
0.0085,0.9915	-131.36
0.0621,0.9379	-134.70
0.0252,0.9748	-132.41
0.0431,0.9569	-133.53
0.0077,0.9923	-131.31
0.0500,0.9500	-136.89
0.0087,0.9913	-131.38
0.0645,0.9355	-137.52
0.0219,0.9781	-132.21
0.0452,0.9548	-133.66
0.0077,0.9923	-131.31
0.0539,0.9461	-134.19
0.0091,0.9909	-131.40
0.0490,0.9510	-136.86
0.0204,0.9796	-132.11
0.0427,0.9573	-133.50
0.0087,0.9913	-131.38
0.0545,0.9455	-134.23
0.0090,0.9910	-131.40
0.0369,0.9631	-133.14
0.0208,0.9792	-132.14
0.0442,0.9558	-136.67
0.0108,0.9892	-131.51
0.0625,0.9375	-134.72
0.0110,0.9890	-131.52
0.0289,0.9711	-132.64
0.0187,0.9813	-132.00
0.0436,0.9564	-139.73
0.0096,0.9904	-131.43
0.0654,0.9346	-137.56
0.0106,0.9894	-131.49
0.0310,0.9690	-132.77
0.0159,0.9841	-140.08
0.0514,0.9486	-136.95
0.0134,0.9866	-131.67
0.0515,0.9485	-136.96
0.0119,0.9881	-131.58
0.0331,0.9669	-136.28
0.0177,0.9823	-135.96
0.0520,0.9480	-134.07
0.0152,0.9848	-131.78
0.0420,0.9580	-133.46
0.0120,0.9880	-131.58
0.0444,0.9556	-133.61
0.0193,0.9807	-135.97
0.0574,0.9426	-134.40
0.0141,0.9859	-131.71
0.0296,0.9704	-132.69
0.0137,0.9863	-131.69
0.0369,0.9631	-139.66
0.0207,0.9793	-132.13
0.0457,0.9543	-133.68
0.0131,0.9869	-135.97
0.0304,0.9696	-132.74
0.0137,0.9863	-131.69
0.0261,0.9739	-132.47
0.0281,0.9719	-132.59
0.0495,0.9505	-133.92
0.0122,0.9878	-131.60
0.0300,0.9700	-132.71
0.0149,0.9851	-131.77
0.0299,0.9701	-139.66
0.0238,0.9762	-132.32
0.0436,0.9564	-133.56
0.0085,0.9915	-131.36
0.0375,0.9625	-133.17
0.0161,0.9839	-131.84
0.0283,0.9717	-132.61
0.0220,0.9780	-132.21
0.0556,0.9444	-134.29
0.0086,0.9914	-131.37
0.0416,0.9584	-133.43
0.0207,0.9793	-132.13
0.0308,0.9692	-132.76
0.0207,0.9793	-132.13
0.0559,0.9441	-134.31
0.0126,0.9874	-131.62
0.0354,0.9646	-136.35
0.0168,0.9832	-131.89
0.0348,0.9652	-133.01
0.0202,0.9798	-132.10
0.0539,0.9461	-137.06
0.0125,0.9875	-131.61
0.0415,0.9585	-133.42
0.0181,0.9819	-131.97
0.0232,0.9768	-132.29
0.0259,0.9741	-132.46
0.0473,0.9527	-133.78
0.0164,0.9836	-131.86
0.0435,0.9565	-136.64
0.0222,0.9778	-136.01
0.0218,0.9782	-136.00
0.0293,0.9707	-132.66
0.0652,0.9348	-134.89
0.0182,0.9818	-131.97
0.0378,0.9622	-133.20
0.0258,0.9742	-132.45
0.0224,0.9776	-132.24
0.0266,0.9734	-132.50
0.0773,0.9227	-138.11
0.0135,0.9865	-131.68
0.0386,0.9614	-136.46
0.0245,0.9755	-132.37
0.0278,0.9722	-136.13
0.0252,0.9748	-132.41
0.0822,0.9178	-135.93
0.0105,0.9895	-131.49
0.0328,0.9672	-136.27
0.0217,0.9783	-136.00
0.0323,0.9677	-132.85
0.0291,0.9709	-136.16
0.0811,0.9189	-138.29
0.0094,0.9906	-131.42
0.0366,0.9634	-133.12
0.0248,0.9752	-132.38
0.0369,0.9631	-136.40
0.0232,0.9768	-132.29
0.0771,0.9229	-135.61
0.0085,0.9915	-131.37
0.0361,0.9639	-133.09
0.0248,0.9752	-132.38
0.0322,0.9678	-132.85
0.0211,0.9789	-132.16
0.0682,0.9318	-137.68
0.0084,0.9916	-131.36
0.0439,0.9561	-133.57
0.0321,0.9679	-132.84
0.0296,0.9704	-136.18
0.0171,0.9829	-131.91
0.0640,0.9360	-134.81
0.0077,0.9923	-131.31
0.0621,0.9379	-134.69
0.0362,0.9638	-133.10
0.0312,0.9688	-132.78
0.0184,0.9816	-131.98
0.0762,0.9238	-138.06
0.0101,0.9899	-131.46
0.0723,0.9277	-137.87
0.0454,0.9546	-136.71
0.0284,0.9716	-132.61
0.0149,0.9851	-131.77
0.0681,0.9319	-135.06
0.0123,0.9877	-131.60
0.0813,0.9187	-135.87
0.0504,0.9496	-133.98
0.0242,0.9758	-132.35
0.0135,0.9865	-131.68
0.0687,0.9313	-135.10
0.0138,0.9862	-131.69
0.0705,0.9295	-137.79
0.0351,0.9649	-133.03
0.0286,0.9714	-132.62
0.0159,0.9841	-131.83
0.0771,0.9229	-138.10
0.0140,0.9860	-131.71
0.0656,0.9344	-140.22
0.0354,0.9646	-133.05
0.0360,0.9640	-136.37
0.0214,0.9786	-136.00
0.0896,0.9104	-141.01
0.0206,0.9794	-132.12
0.0555,0.9445	-137.12
0.0386,0.9614	-136.46
0.0388,0.9612	-133.26
0.0228,0.9772	-136.02
0.0922,0.9078	-138.82
0.0227,0.9773	-136.02
0.0493,0.9507	-133.91
0.0373,0.9627	-133.17
0.0424,0.9576	-133.48
0.0263,0.9737	-132.48
0.0893,0.9107	-136.36
0.0217,0.9783	-132.19
0.0507,0.9493	-136.92
0.0383,0.9617	-133.23
0.0435,0.9565	-136.64
0.0221,0.9779	-136.01
0.0798,0.9202	-140.67
0.0211,0.9789	-132.15
0.0540,0.9460	-134.20
0.0354,0.9646	-133.05
0.0426,0.9574	-136.61
0.0214,0.9786	-132.17
0.0809,0.9191	-138.28
0.0182,0.9818	-131.97
0.0468,0.9532	-133.76
0.0281,0.9719	-132.59
0.0448,0.9552	-139.75
0.0232,0.9768	-132.29
0.0679,0.9321	-135.05
0.0157,0.9843	-135.95
0.0560,0.9440	-134.32
0.0251,0.9749	-132.40
0.0596,0.9404	-134.54
0.0216,0.9784	-132.18
0.0672,0.9328	-137.64
0.0202,0.9798	-132.10
0.0547,0.9453	-137.09
0.0266,0.9734	-132.50
0.0472,0.9528	-133.78
0.0280,0.9720	-132.59
0.0792,0.9208	-135.74
0.0174,0.9826	-131.93
0.0582,0.9418	-134.46
0.0341,0.9659	-132.97
0.0464,0.9536	-136.75
0.0288,0.9712	-136.15
0.0639,0.9361	-134.81
0.0148,0.9852	-131.76
0.0431,0.9569	-133.52
0.0369,0.9631	-133.14
0.0474,0.9526	-133.79
0.0231,0.9769	-132.28
0.0737,0.9263	-135.41
0.0111,0.9889	-131.53
0.0463,0.9537	-136.75
0.0465,0.9535	-136.76
0.0473,0.9527	-133.78
0.0207,0.9793	-132.13
0.0865,0.9135	-138.54
0.0096,0.9904	-131.43
0.0484,0.9516	-136.83
0.0457,0.9543	-136.73
0.0445,0.9555	-133.61
0.0155,0.9845	-131.80
0.0758,0.9242	-138.04
0.0113,0.9887	-131.54
0.0629,0.9371	-134.74
0.0368,0.9632	-133.13
0.0501,0.9499	-133.96
0.0182,0.9818	-131.97
0.0681,0.9319	-137.68
0.0119,0.9881	-136.00
0.0574,0.9426	-137.21
0.0295,0.9705	-132.68
0.0535,0.9465	-134.16
0.0162,0.9838	-131.85
0.0796,0.9204	-138.21
0.0124,0.9876	-131.61
0.0505,0.9495	-136.92
0.0334,0.9666	-132.92
0.0514,0.9486	-136.95
0.0164,0.9836	-131.86
0.0762,0.9238	-138.05
0.0177,0.9823	-131.94
0.0372,0.9628	-133.16
0.0358,0.9642	-133.07
0.0467,0.9533	-136.76
0.0168,0.9832	-131.89
0.0721,0.9279	-135.31
0.0196,0.9804	-135.97
0.0323,0.9677	-132.85
0.0391,0.9609	-133.28
0.0468,0.9532	-133.75
0.0157,0.9843	-131.82
0.0742,0.9258	-135.44
0.0226,0.9774	-139.78
0.0291,0.9709	-132.66
0.0383,0.9617	-133.23
0.0387,0.9613	-133.25
0.0125,0.9875	-131.62
0.0832,0.9168	-135.98
0.0229,0.9771	-132.27
0.0306,0.9694	-136.21
0.0347,0.9653	-133.00
0.0361,0.9639	-133.09
0.0125,0.9875	-131.61
0.0764,0.9236	-138.07
0.0170,0.9830	-131.90
0.0236,0.9764	-132.31
0.0350,0.9650	-133.02
0.0278,0.9722	-132.57
0.0112,0.9888	-131.53
0.0649,0.9351	-134.87
0.0191,0.9809	-132.03
0.0166,0.9834	-131.87
0.0453,0.9547	-133.66
0.0235,0.9765	-132.30
0.0096,0.9904	-131.43
0.0562,0.9438	-137.16
0.0210,0.9790	-132.15
0.0161,0.9839	-131.84
0.0409,0.9591	-133.39
0.0208,0.9792	-132.14
0.0091,0.9909	-131.40
0.0586,0.9414	-137.26
0.0196,0.9804	-132.06
0.0164,0.9836	-135.95
0.0406,0.9594	-133.37
0.0224,0.9776	-136.01
0.0087,0.9913	-131.38
0.0663,0.9337	-134.96
0.0137,0.9863	-131.69
0.0185,0.9815	-131.99
0.0444,0.9556	-136.68
0.0214,0.9786	-132.17
0.0084,0.9916	-131.36
0.0728,0.9272	-142.98
0.0148,0.9852	-131.76
0.0213,0.9787	-135.99
0.0470,0.9530	-133.77
0.0213,0.9787	-136.00
0.0092,0.9908	-136.09
0.0919,0.9081	-136.52
0.0156,0.9844	-131.81
0.0204,0.9796	-132.11
0.0632,0.9368	-137.46
0.0219,0.9781	-136.00
0.0088,0.9912	-131.38
0.0845,0.9155	-138.45
0.0140,0.9860	-131.71
0.0202,0.9798	-132.10
0.0640,0.9360	-137.50
0.0163,0.9837	-135.95
0.0092,0.9908	-136.08
0.0725,0.9275	-135.33
0.0161,0.9839	-131.84
0.0169,0.9831	-131.89
0.0582,0.9418	-137.24
0.0159,0.9841	-131.83
0.0120,0.9880	-131.58
0.0765,0.9235	-140.56
0.0168,0.9832	-131.89
0.0166,0.9834	-131.88
0.0630,0.9370	-134.75
0.0148,0.9852	-135.96
0.0129,0.9871	-131.64
0.0830,0.9170	-138.38
0.0126,0.9874	-131.62
0.0139,0.9861	-131.70
0.0648,0.9352	-137.53
0.0161,0.9839	-131.84
0.0121,0.9879	-131.59
0.0716,0.9284	-140.40
0.0174,0.9826	-131.92
0.0107,0.9893	-131.50
0.0629,0.9371	-134.75
0.0174,0.9826	-135.96
0.0112,0.9888	-131.54
0.0476,0.9524	-133.81
0.0196,0.9804	-132.06
0.0061,0.9939	-131.21
0.0635,0.9365	-134.78
0.0206,0.9794	-132.12
0.0135,0.9865	-131.68
0.0459,0.9541	-133.70
0.0156,0.9844	-131.81
0.0059,0.9941	-131.20
0.0617,0.9383	-134.67
0.0228,0.9772	-132.26
0.0129,0.9871	-131.64
0.0421,0.9579	-133.47
0.0168,0.9832	-131.88
0.0060,0.9940	-131.21
0.0660,0.9340	-134.93
0.0199,0.9801	-132.08
0.0167,0.9833	-131.88
0.0377,0.9623	-133.19
0.0173,0.9827	-131.92
0.0069,0.9931	-131.26
0.0411,0.9589	-133.40
0.0169,0.9831	-131.89
0.0191,0.9809	-135.97
0.0501,0.9499	-136.90
0.0179,0.9821	-131.95
0.0066,0.9934	-131.24
0.0374,0.9626	-136.42
0.0153,0.9847	-135.96
0.0168,0.9832	-131.88
0.0492,0.9508	-133.90
0.0157,0.9843	-131.81
0.0066,0.9934	-131.24
0.0419,0.9581	-136.58
0.0157,0.9843	-131.82
0.0145,0.9855	-131.74
0.0448,0.9552	-133.63
0.0144,0.9856	-131.74
0.0052,0.9948	-131.16
0.0445,0.9555	-133.61
0.0179,0.9821	-131.95
0.0135,0.9865	-131.68
0.0523,0.9477	-136.99
0.0138,0.9862	-131.70
0.0054,0.9946	-131.17
0.0589,0.9411	-137.27
0.0195,0.9805	-135.97
0.0164,0.9836	-131.86
0.0451,0.9549	-133.65
0.0155,0.9845	-131.80
0.0062,0.9938	-131.22
0.0488,0.9512	-133.88
0.0230,0.9770	-132.27
