#isoforms=['ENSG00000101294.SE.1.A.up_ENSG00000101294.SE.1.A.SE1_ENSG00000101294.SE.1.A.dn','ENSG00000101294.SE.1.B.up_ENSG00000101294.SE.1.B.dn']	exon_lens=('ENSG00000101294.SE.1.A.up',99),('ENSG00000101294.SE.1.A.SE1',376),('ENSG00000101294.SE.1.A.dn',89),('ENSG00000101294.SE.1.B.up',99),('ENSG00000101294.SE.1.B.dn',89)	iters=5000	burn_in=500	lag=10	percent_accept=73.78	proposal_type=drift	counts=(0,0):1302,(1,0):577,(1,1):707	assigned_counts=0:784,1:500	chrom=chr20	strand=+	mRNA_starts=31527484,31527484	mRNA_ends=31545035,31545035
sampled_psi	log_score
0.3122,0.6878	-8211.20
0.3319,0.6681	-8247.97
0.3124,0.6876	-8225.42
0.2830,0.7170	-8205.34
0.2967,0.7033	-8231.40
0.3187,0.6813	-8238.06
0.3032,0.6968	-8225.18
0.3009,0.6991	-8209.19
0.2914,0.7086	-8212.39
0.2962,0.7038	-8226.25
0.2952,0.7048	-8233.27
0.2940,0.7060	-8215.88
0.3200,0.6800	-8238.85
0.2975,0.7025	-8222.74
0.2971,0.7029	-8231.37
0.3179,0.6821	-8224.30
0.2940,0.7060	-8227.27
0.3018,0.6982	-8221.84
0.3086,0.6914	-8216.38
0.2873,0.7127	-8199.80
0.3076,0.6924	-8223.60
0.3110,0.6890	-8215.80
0.2971,0.7029	-8213.28
0.3232,0.6768	-8214.56
0.3059,0.6941	-8221.91
0.2831,0.7169	-8209.99
0.3062,0.6938	-8223.56
0.2649,0.7351	-8196.12
0.3244,0.6756	-8236.08
0.3041,0.6959	-8222.70
0.3095,0.6905	-8230.10
0.2956,0.7044	-8206.31
0.3043,0.6957	-8219.39
0.2709,0.7291	-8184.60
0.2962,0.7038	-8215.86
0.3030,0.6970	-8224.35
0.2849,0.7151	-8227.37
0.2740,0.7260	-8210.88
0.3281,0.6719	-8229.21
0.2772,0.7228	-8199.94
0.2877,0.7123	-8227.00
0.3000,0.7000	-8211.67
0.3011,0.6989	-8204.15
0.2852,0.7148	-8211.71
0.3291,0.6709	-8237.20
0.2849,0.7151	-8209.88
0.3029,0.6971	-8216.85
0.3195,0.6805	-8244.13
0.3095,0.6905	-8241.33
0.3159,0.6841	-8238.79
0.3322,0.6678	-8223.55
0.2971,0.7029	-8215.00
0.2983,0.7017	-8227.00
0.3025,0.6975	-8226.02
0.3132,0.6868	-8225.47
0.2804,0.7196	-8196.99
0.3175,0.6825	-8227.32
0.2981,0.7019	-8223.58
0.3293,0.6707	-8228.68
0.2869,0.7131	-8206.16
0.3339,0.6661	-8232.20
0.2989,0.7011	-8227.82
0.3117,0.6883	-8223.80
0.3109,0.6891	-8238.08
0.3029,0.6971	-8223.52
0.2834,0.7166	-8200.69
0.3248,0.6752	-8241.97
0.2942,0.7058	-8231.63
0.3584,0.6416	-8254.57
0.2787,0.7213	-8216.98
0.2987,0.7013	-8221.00
0.2965,0.7035	-8213.27
0.3222,0.6778	-8253.79
0.3081,0.6919	-8210.67
0.3328,0.6672	-8250.10
0.2948,0.7052	-8209.76
0.2608,0.7392	-8197.76
0.3219,0.6781	-8221.76
0.3482,0.6518	-8250.69
0.3480,0.6520	-8255.68
0.2840,0.7160	-8213.63
0.3032,0.6968	-8231.84
0.3013,0.6987	-8213.43
0.2988,0.7012	-8231.24
0.3236,0.6764	-8245.61
0.3294,0.6706	-8230.11
0.3141,0.6859	-8220.06
0.3111,0.6889	-8250.80
0.2944,0.7056	-8214.13
0.2801,0.7199	-8205.49
0.2970,0.7030	-8221.03
0.2882,0.7118	-8216.09
0.2762,0.7238	-8195.19
0.3055,0.6945	-8243.26
0.3035,0.6965	-8215.21
0.3095,0.6905	-8215.66
0.3199,0.6801	-8238.09
0.3058,0.6942	-8216.99
0.2961,0.7039	-8221.06
0.3189,0.6811	-8228.95
0.2698,0.7302	-8218.49
0.3054,0.6946	-8214.50
0.2998,0.7002	-8207.42
0.3253,0.6747	-8227.40
0.3113,0.6887	-8209.48
0.3236,0.6764	-8241.19
0.3093,0.6907	-8213.23
0.2963,0.7037	-8224.51
0.3049,0.6951	-8232.60
0.3228,0.6772	-8237.46
0.2755,0.7245	-8216.48
0.2850,0.7150	-8197.92
0.3076,0.6924	-8227.66
0.2743,0.7257	-8206.94
0.3173,0.6827	-8246.46
0.3408,0.6592	-8258.48
0.2833,0.7167	-8207.19
0.2891,0.7109	-8193.55
0.2805,0.7195	-8198.87
0.2579,0.7421	-8191.95
0.3055,0.6945	-8219.44
0.2959,0.7041	-8227.13
0.2611,0.7389	-8182.10
0.3096,0.6904	-8226.89
0.3000,0.7000	-8213.37
0.2698,0.7302	-8200.56
0.3286,0.6714	-8235.00
0.2786,0.7214	-8189.41
0.2869,0.7131	-8216.18
0.3217,0.6783	-8245.61
0.2970,0.7030	-8204.66
0.2837,0.7163	-8221.07
0.3247,0.6753	-8237.57
0.3297,0.6703	-8235.12
0.2787,0.7213	-8205.58
0.2872,0.7128	-8201.61
0.3025,0.6975	-8216.00
0.2972,0.7028	-8208.98
0.3155,0.6845	-8238.79
0.3391,0.6609	-8243.10
0.3306,0.6694	-8244.39
0.2963,0.7037	-8221.05
0.3014,0.6986	-8217.64
0.3156,0.6844	-8231.83
0.2969,0.7031	-8219.31
0.3299,0.6701	-8235.14
0.3100,0.6900	-8229.31
0.2879,0.7121	-8195.28
0.2821,0.7179	-8213.79
0.3187,0.6813	-8224.38
0.2628,0.7372	-8199.50
0.3146,0.6854	-8227.89
0.2823,0.7177	-8193.24
0.2762,0.7238	-8212.52
0.3099,0.6901	-8219.70
0.3056,0.6944	-8215.34
0.3054,0.6946	-8213.68
0.3233,0.6767	-8240.44
0.2828,0.7172	-8224.89
0.2610,0.7390	-8187.32
0.3104,0.6896	-8234.90
0.2812,0.7188	-8206.36
0.3181,0.6819	-8238.05
0.3254,0.6746	-8233.24
0.2767,0.7233	-8201.90
0.3024,0.6976	-8222.68
0.2930,0.7070	-8198.28
0.2962,0.7038	-8213.27
0.3100,0.6900	-8219.71
0.3353,0.6647	-8234.47
0.2891,0.7109	-8221.44
0.2826,0.7174	-8210.02
0.2851,0.7149	-8233.78
0.2973,0.7027	-8225.33
0.2986,0.7014	-8226.13
0.2959,0.7041	-8217.60
0.3022,0.6978	-8219.33
0.2790,0.7210	-8214.10
0.2895,0.7105	-8205.25
0.3079,0.6921	-8226.85
0.3144,0.6856	-8241.92
0.3234,0.6766	-8238.97
0.3126,0.6874	-8230.16
0.2962,0.7038	-8221.92
0.2724,0.7276	-8206.19
0.3000,0.7000	-8219.30
0.2944,0.7056	-8215.87
0.3004,0.6996	-8218.46
0.3025,0.6975	-8206.80
0.3050,0.6950	-8232.60
0.3142,0.6858	-8215.38
0.2913,0.7087	-8218.62
0.3032,0.6968	-8238.49
0.3010,0.6990	-8217.62
0.3153,0.6847	-8224.06
0.3235,0.6765	-8230.86
0.3126,0.6874	-8223.07
0.2905,0.7095	-8217.77
0.3138,0.6862	-8225.50
0.2807,0.7193	-8215.81
0.2793,0.7207	-8208.39
0.3088,0.6912	-8219.62
0.3186,0.6814	-8232.73
0.2730,0.7270	-8220.82
0.2973,0.7027	-8227.91
0.2850,0.7150	-8210.80
0.3067,0.6933	-8218.68
0.3052,0.6948	-8227.65
0.2876,0.7124	-8226.11
0.2939,0.7061	-8200.10
0.2841,0.7159	-8202.53
0.3179,0.6821	-8235.75
0.3142,0.6858	-8223.97
0.3021,0.6979	-8250.32
0.2959,0.7041	-8228.00
0.2937,0.7063	-8212.37
0.2868,0.7132	-8228.94
0.3154,0.6846	-8224.85
0.3064,0.6936	-8226.02
0.2968,0.7032	-8221.90
0.2986,0.7014	-8218.44
0.2883,0.7117	-8217.90
0.2923,0.7077	-8206.19
0.3424,0.6576	-8245.48
0.2906,0.7094	-8198.13
0.3007,0.6993	-8231.12
0.3125,0.6875	-8227.01
0.2651,0.7349	-8208.32
0.2868,0.7132	-8202.52
0.3160,0.6840	-8227.98
0.2851,0.7149	-8239.30
0.3250,0.6750	-8223.70
0.3205,0.6795	-8241.86
0.2699,0.7301	-8189.60
0.2901,0.7099	-8213.31
0.3027,0.6973	-8207.66
0.2801,0.7199	-8226.26
0.3189,0.6811	-8218.34
0.3190,0.6810	-8258.54
0.2694,0.7306	-8203.60
0.3022,0.6978	-8222.68
0.2937,0.7063	-8189.56
0.2858,0.7142	-8208.93
0.3067,0.6933	-8211.35
0.3025,0.6975	-8203.47
0.2860,0.7140	-8208.00
0.2981,0.7019	-8215.02
0.3070,0.6930	-8212.18
0.2960,0.7040	-8214.13
0.2963,0.7037	-8199.43
0.3096,0.6904	-8230.10
0.3160,0.6840	-8228.76
0.2846,0.7154	-8199.76
0.2984,0.7016	-8212.46
0.2768,0.7232	-8210.53
0.3427,0.6573	-8217.52
0.3029,0.6971	-8217.68
0.3013,0.6987	-8235.30
0.3247,0.6753	-8220.00
0.3143,0.6857	-8223.98
0.2866,0.7134	-8190.66
0.3051,0.6949	-8230.12
0.3106,0.6894	-8222.14
0.2991,0.7009	-8226.96
0.3094,0.6906	-8230.90
0.3016,0.6984	-8241.99
0.2955,0.7045	-8198.48
0.3290,0.6710	-8233.62
0.3014,0.6986	-8216.79
0.2849,0.7151	-8229.21
0.3206,0.6794	-8244.87
0.2819,0.7181	-8199.78
0.2643,0.7357	-8194.15
0.3002,0.6998	-8233.69
0.2908,0.7092	-8212.40
0.3181,0.6819	-8224.32
0.3046,0.6954	-8234.26
0.2928,0.7072	-8219.43
0.2754,0.7246	-8209.73
0.2935,0.7065	-8210.62
0.2784,0.7216	-8209.41
0.3228,0.6772	-8235.24
0.2910,0.7090	-8221.30
0.3091,0.6909	-8246.99
0.2846,0.7154	-8217.27
0.3211,0.6789	-8235.88
0.2805,0.7195	-8219.60
0.3169,0.6831	-8223.43
0.3021,0.6979	-8236.07
0.2966,0.7034	-8227.09
0.2825,0.7175	-8211.89
0.3142,0.6858	-8239.58
0.2941,0.7059	-8223.76
0.2978,0.7022	-8219.30
0.3199,0.6801	-8229.79
0.2993,0.7007	-8223.55
0.2932,0.7068	-8215.01
0.3146,0.6854	-8222.45
0.3106,0.6894	-8225.33
0.2944,0.7056	-8196.65
0.2956,0.7044	-8214.99
0.3178,0.6822	-8231.16
0.3082,0.6918	-8234.95
0.2883,0.7117	-8196.21
0.3141,0.6859	-8221.63
0.2716,0.7284	-8209.25
0.3220,0.6780	-8242.63
0.3266,0.6734	-8252.90
0.2842,0.7158	-8203.45
0.2941,0.7059	-8227.26
0.3247,0.6753	-8233.91
0.2910,0.7090	-8208.84
0.3176,0.6824	-8228.86
0.3153,0.6847	-8221.74
0.2973,0.7027	-8203.82
0.3031,0.6969	-8210.19
0.2870,0.7130	-8218.90
0.2943,0.7057	-8220.25
0.3166,0.6834	-8245.72
0.2849,0.7151	-8196.08
0.2785,0.7215	-8196.07
0.3158,0.6842	-8226.42
0.3076,0.6924	-8245.51
0.2843,0.7157	-8212.68
0.3127,0.6873	-8232.53
0.2800,0.7200	-8213.05
0.2930,0.7070	-8200.04
0.2942,0.7058	-8218.50
0.3005,0.6995	-8238.74
0.2807,0.7193	-8206.40
0.2985,0.7015	-8212.46
0.2781,0.7219	-8210.39
0.2952,0.7048	-8236.75
0.2896,0.7104	-8224.99
0.3009,0.6991	-8217.62
0.2763,0.7237	-8215.40
0.3047,0.6953	-8219.41
0.2763,0.7237	-8214.44
0.2799,0.7201	-8239.52
0.3329,0.6671	-8247.32
0.3185,0.6815	-8225.12
0.3149,0.6851	-8242.68
0.2917,0.7083	-8232.79
0.2592,0.7408	-8160.24
0.2777,0.7223	-8184.62
0.2953,0.7047	-8205.43
0.3206,0.6794	-8261.39
0.2934,0.7066	-8203.59
0.2976,0.7024	-8229.60
0.2863,0.7137	-8208.91
0.2880,0.7120	-8226.96
0.2970,0.7030	-8224.48
0.3079,0.6921	-8240.63
0.3094,0.6906	-8236.52
0.3252,0.6748	-8231.76
0.2824,0.7176	-8200.70
0.3009,0.6991	-8219.31
0.3184,0.6816	-8221.31
0.3441,0.6559	-8248.92
0.3117,0.6883	-8226.97
0.3075,0.6925	-8230.10
0.2934,0.7066	-8214.13
0.3000,0.7000	-8217.60
0.2856,0.7144	-8222.68
0.3220,0.6780	-8216.57
0.2941,0.7059	-8217.63
0.2951,0.7049	-8213.25
0.2854,0.7146	-8198.85
0.3401,0.6599	-8237.92
0.2828,0.7172	-8218.38
0.3212,0.6788	-8240.38
0.3074,0.6926	-8217.10
0.3039,0.6961	-8223.52
0.2780,0.7220	-8211.36
0.2899,0.7101	-8226.76
0.2911,0.7089	-8210.62
0.3360,0.6640	-8251.60
0.3425,0.6575	-8248.75
0.2920,0.7080	-8223.90
0.3030,0.6970	-8224.35
0.2840,0.7160	-8222.87
0.2698,0.7302	-8190.60
0.2928,0.7072	-8210.61
0.3226,0.6774	-8239.67
0.2589,0.7411	-8212.83
0.2880,0.7120	-8202.53
0.3009,0.6991	-8212.56
0.2986,0.7014	-8198.80
0.3070,0.6930	-8209.75
0.3153,0.6847	-8216.31
0.2859,0.7141	-8195.19
0.2869,0.7131	-8215.26
0.2838,0.7162	-8221.05
0.2940,0.7060	-8207.99
0.3169,0.6831	-8229.58
0.3139,0.6861	-8234.11
0.2817,0.7183	-8211.02
0.2894,0.7106	-8197.17
0.2747,0.7253	-8214.67
0.3098,0.6902	-8246.92
0.3136,0.6864	-8227.84
0.2945,0.7055	-8201.02
0.3033,0.6967	-8231.00
0.2826,0.7174	-8192.32
0.2837,0.7163	-8199.76
0.3335,0.6665	-8238.36
0.3085,0.6915	-8227.67
0.3314,0.6686	-8244.45
0.2932,0.7068	-8201.82
0.2728,0.7272	-8207.12
0.3139,0.6861	-8223.16
0.2733,0.7267	-8209.99
0.2949,0.7051	-8215.00
0.3005,0.6995	-8215.93
0.2952,0.7048	-8222.83
0.2975,0.7025	-8219.30
0.3230,0.6770	-8233.03
0.2852,0.7148	-8220.89
0.3010,0.6990	-8215.10
0.3002,0.6998	-8216.76
0.2817,0.7183	-8201.65
0.3022,0.6978	-8228.54
0.3066,0.6934	-8220.31
0.2963,0.7037	-8209.81
0.3222,0.6778	-8224.05
0.3018,0.6982	-8237.78
0.2831,0.7169	-8209.06
0.3121,0.6879	-8219.87
0.3127,0.6873	-8224.65
0.2763,0.7237	-8198.07
0.3277,0.6723	-8239.94
0.3027,0.6973	-8225.18
0.3056,0.6944	-8217.81
0.3075,0.6925	-8222.79
0.2686,0.7314	-8200.70
0.3042,0.6958	-8230.97
0.3090,0.6910	-8234.93
0.3095,0.6905	-8219.67
0.2961,0.7039	-8215.86
0.3003,0.6997	-8227.76
0.2878,0.7122	-8191.66
0.2935,0.7065	-8207.10
0.3181,0.6819	-8224.32
0.3110,0.6890	-8235.69
0.2892,0.7108	-8200.75
0.3124,0.6876	-8233.31
0.2817,0.7183	-8208.21
0.3186,0.6814	-8238.82
0.3243,0.6757	-8234.60
0.3079,0.6921	-8217.94
0.3350,0.6650	-8228.93
0.3059,0.6941	-8241.58
0.2945,0.7055	-8225.48
0.2848,0.7152	-8200.68
0.2891,0.7109	-8232.25
0.2862,0.7138	-8207.09
0.3378,0.6622	-8240.25
0.3172,0.6828	-8234.20
0.3050,0.6950	-8212.00
0.2906,0.7094	-8209.73
0.2923,0.7077	-8203.54
0.3004,0.6996	-8226.06
0.2813,0.7187	-8198.85
0.2999,0.7001	-8227.78
0.2807,0.7193	-8192.28
0.3101,0.6899	-8218.91
0.2960,0.7040	-8210.66
0.3072,0.6928	-8219.53
0.2817,0.7183	-8215.70
0.3093,0.6907	-8226.08
0.3114,0.6886	-8229.34
0.2862,0.7138	-8209.83
0.2704,0.7296	-8204.47
0.3285,0.6715	-8238.57
0.2836,0.7164	-8202.54
0.3022,0.6978	-8206.78
0.3071,0.6929	-8237.42
0.2908,0.7092	-8211.51
0.2934,0.7066	-8207.98
0.3303,0.6697	-8222.47
0.2760,0.7240	-8213.52
0.3089,0.6911	-8239.76
0.3139,0.6861	-8235.68
0.2866,0.7134	-8198.87
0.3050,0.6950	-8245.78
0.3153,0.6847	-8242.67
0.2732,0.7268	-8212.95
0.3034,0.6966	-8212.71
0.3311,0.6689	-8241.61
0.2914,0.7086	-8218.61
0.2967,0.7033	-8224.49
0.3105,0.6895	-8213.36
0.2853,0.7147	-8205.27
0.2944,0.7056	-8222.87
0.3133,0.6867	-8218.41
0.2742,0.7258	-8215.72
0.3078,0.6922	-8239.82
0.3074,0.6926	-8219.54
0.3113,0.6887	-8249.98
0.3121,0.6879	-8212.77
0.2962,0.7038	-8222.79
0.2995,0.7005	-8222.70
0.3125,0.6875	-8235.68
0.2893,0.7107	-8195.36
0.2901,0.7099	-8231.21
0.3120,0.6880	-8230.15
0.2625,0.7375	-8191.29
0.3088,0.6912	-8227.68
0.3230,0.6770	-8241.17
0.3084,0.6916	-8217.98
0.2763,0.7237	-8210.59
0.2685,0.7315	-8197.71
0.2769,0.7231	-8214.36
0.3261,0.6739	-8227.51
0.2859,0.7141	-8205.26
0.3031,0.6969	-8218.52
0.3092,0.6908	-8215.63
0.2993,0.7007	-8204.84
0.3286,0.6714	-8231.43
0.3248,0.6752	-8233.18
0.3070,0.6930	-8212.19
0.3078,0.6922	-8216.32
0.2988,0.7012	-8215.88
0.3043,0.6957	-8217.74
0.3145,0.6855	-8233.34
0.2678,0.7322	-8171.64
0.3003,0.6997	-8232.84
0.3235,0.6765	-8234.54
0.2770,0.7230	-8198.04
0.2886,0.7114	-8208.85
0.3218,0.6782	-8249.34
0.3128,0.6872	-8218.36
0.2643,0.7357	-8195.17
0.3098,0.6902	-8235.71
0.3039,0.6961	-8226.01
0.2885,0.7115	-8218.79
0.2942,0.7058	-8241.26
0.3130,0.6870	-8238.04
0.2998,0.7002	-8216.75
0.3239,0.6761	-8231.63
0.2976,0.7024	-8207.28
0.3051,0.6949	-8221.07
0.2573,0.7427	-8210.08
0.3177,0.6823	-8234.22
0.2860,0.7140	-8216.24
0.2809,0.7191	-8196.98
0.2866,0.7134	-8228.05
0.3118,0.6882	-8225.39
0.2725,0.7275	-8198.32
0.3389,0.6611	-8237.73
0.3120,0.6880	-8242.01
0.2757,0.7243	-8237.69
0.2844,0.7156	-8198.84
0.2764,0.7236	-8213.46
0.3051,0.6949	-8230.12
0.3108,0.6892	-8230.91
0.3365,0.6635	-8244.16
0.2856,0.7144	-8217.19
0.3010,0.6990	-8225.21
0.2813,0.7187	-8207.29
0.2876,0.7124	-8226.11
0.3152,0.6848	-8241.12
0.2949,0.7051	-8234.17
0.2875,0.7125	-8203.43
0.2893,0.7107	-8220.53
0.3431,0.6569	-8254.01
0.2961,0.7039	-8208.93
0.3013,0.6987	-8218.47
0.2743,0.7257	-8219.60
0.2879,0.7121	-8209.77
0.3152,0.6848	-8241.90
0.3142,0.6858	-8231.00
0.2934,0.7066	-8207.10
0.3009,0.6991	-8207.51
0.2982,0.7018	-8216.73
0.2959,0.7041	-8205.46
0.3280,0.6720	-8229.21
0.3088,0.6912	-8233.32
0.3153,0.6847	-8234.92
0.3089,0.6911	-8222.85
0.3255,0.6745	-8228.15
0.2793,0.7207	-8194.16
0.3371,0.6629	-8248.95
0.3051,0.6949	-8229.30
0.2836,0.7164	-8231.27
0.3048,0.6952	-8224.36
0.2988,0.7012	-8225.27
0.2905,0.7095	-8215.08
0.2857,0.7143	-8193.36
0.3229,0.6771	-8210.82
0.3164,0.6836	-8228.78
0.2951,0.7049	-8199.32
0.3021,0.6979	-8208.44
0.3135,0.6865	-8212.94
0.2828,0.7172	-8205.35
0.3164,0.6836	-8227.24
0.3020,0.6980	-8229.38
0.3283,0.6717	-8256.45
0.3115,0.6885	-8230.93
0.3256,0.6744	-8244.91
0.3209,0.6791	-8238.87
0.2876,0.7124	-8179.85
0.2915,0.7085	-8209.73
0.3218,0.6782	-8226.23
0.2990,0.7010	-8202.26
0.2868,0.7132	-8218.01
0.3327,0.6673	-8248.01
0.3068,0.6932	-8205.64
0.2923,0.7077	-8206.19
0.3100,0.6900	-8230.91
0.3037,0.6963	-8222.69
0.2791,0.7209	-8197.01
0.3085,0.6915	-8228.48
0.2994,0.7006	-8227.80
0.3351,0.6649	-8237.87
0.2918,0.7082	-8207.07
0.3141,0.6859	-8223.18
0.2638,0.7362	-8184.97
0.3058,0.6942	-8207.15
0.2627,0.7373	-8202.61
0.2763,0.7237	-8197.11
0.3190,0.6810	-8241.10
0.3117,0.6883	-8226.18
0.2738,0.7262	-8195.30
0.2816,0.7184	-8211.96
0.2872,0.7128	-8210.70
0.3038,0.6962	-8226.84
0.2985,0.7015	-8203.92
0.3102,0.6898	-8222.91
0.2744,0.7256	-8200.13
0.2918,0.7082	-8210.61
0.2832,0.7168	-8199.76
0.3327,0.6673	-8243.14
0.2888,0.7112	-8205.25
0.2914,0.7086	-8203.50
0.2877,0.7123	-8213.41
0.2929,0.7071	-8226.48
0.2916,0.7084	-8219.49
0.3005,0.6995	-8223.53
0.2971,0.7029	-8226.20
0.2906,0.7094	-8230.25
0.2775,0.7225	-8198.97
0.3057,0.6943	-8216.99
0.2748,0.7252	-8197.19
0.3121,0.6879	-8223.83
0.2815,0.7185	-8230.70
0.3210,0.6790	-8232.88
0.2789,0.7211	-8192.27
0.3204,0.6796	-8246.37
0.3256,0.6744	-8236.17
0.2846,0.7154	-8195.15
0.3033,0.6967	-8224.35
0.2970,0.7030	-8233.96
0.2586,0.7414	-8178.15
0.2690,0.7310	-8183.66
0.3011,0.6989	-8223.52
0.3031,0.6969	-8241.83
0.3052,0.6948	-8221.90
0.3012,0.6988	-8226.05
0.2948,0.7052	-8204.53
0.2832,0.7168	-8215.55
0.2860,0.7140	-8226.30
0.3090,0.6910	-8212.39
0.3252,0.6748	-8233.95
0.3043,0.6957	-8238.41
0.3105,0.6895	-8217.35
0.3154,0.6846	-8234.92
0.2835,0.7165	-8198.83
0.3083,0.6917	-8230.09
0.3209,0.6791	-8231.37
0.2825,0.7175	-8207.23
0.3163,0.6837	-8226.46
0.3277,0.6723	-8234.91
0.3142,0.6858	-8211.48
0.2895,0.7105	-8237.57
0.3148,0.6852	-8243.47
0.2918,0.7082	-8199.09
0.3417,0.6583	-8238.84
0.2975,0.7025	-8229.62
0.2715,0.7285	-8213.21
0.3021,0.6979	-8213.47
0.2873,0.7127	-8234.32
0.3122,0.6878	-8235.68
0.3097,0.6903	-8228.50
0.3008,0.6992	-8209.19
0.2795,0.7205	-8214.99
0.2864,0.7136	-8208.91
0.3120,0.6880	-8244.38
0.2963,0.7037	-8228.84
0.3054,0.6946	-8220.26
0.3015,0.6985	-8199.15
0.2874,0.7126	-8221.59
0.2895,0.7105	-8234.88
0.2866,0.7134	-8217.11
0.2841,0.7159	-8228.41
0.2772,0.7228	-8213.36
0.3178,0.6822	-8240.33
0.2911,0.7089	-8224.86
0.2856,0.7144	-8208.94
0.2907,0.7093	-8208.84
0.2961,0.7039	-8215.86
0.3225,0.6775	-8244.87
0.3213,0.6787	-8238.88
0.2662,0.7338	-8213.19
0.3047,0.6953	-8218.58
0.2946,0.7054	-8232.46
0.2906,0.7094	-8205.27
0.3156,0.6844	-8214.79
0.2923,0.7077	-8222.11
0.2785,0.7215	-8188.46
0.2918,0.7082	-8207.07
0.3040,0.6960	-8231.80
0.3022,0.6978	-8229.37
0.3178,0.6822	-8230.40
0.3096,0.6904	-8221.28
0.2896,0.7104	-8227.69
0.2895,0.7105	-8207.05
0.2924,0.7076	-8217.68
0.2958,0.7042	-8212.39
0.2838,0.7162	-8221.05
0.2865,0.7135	-8220.77
0.3055,0.6945	-8230.12
0.2813,0.7187	-8224.18
0.2824,0.7176	-8214.69
0.2673,0.7327	-8206.92
0.3119,0.6881	-8236.47
0.2822,0.7178	-8202.57
0.3186,0.6814	-8234.25
0.2898,0.7102	-8214.22
0.2770,0.7230	-8202.84
0.2595,0.7405	-8198.00
0.3360,0.6640	-8244.80
0.2862,0.7138	-8207.09
0.3133,0.6867	-8230.97
0.2954,0.7046	-8216.73
0.3074,0.6926	-8230.10
0.2809,0.7191	-8193.22
0.3237,0.6763	-8230.14
0.2736,0.7264	-8188.47
0.3009,0.6991	-8221.84
0.2924,0.7076	-8240.65
0.3032,0.6968	-8230.17
0.2805,0.7195	-8196.04
0.2908,0.7092	-8197.24
0.2823,0.7177	-8227.76
0.2636,0.7364	-8195.27
0.3120,0.6880	-8227.77
0.2837,0.7163	-8219.21
0.3176,0.6824	-8238.04
0.2821,0.7179	-8202.58
0.3046,0.6954	-8219.40
0.2456,0.7544	-8193.57
0.2988,0.7012	-8226.12
0.2882,0.7118	-8226.04
0.3179,0.6821	-8222.78
0.2996,0.7004	-8217.60
0.3059,0.6941	-8228.47
0.2968,0.7032	-8220.18
0.3089,0.6911	-8214.80
0.2937,0.7063	-8229.05
0.3108,0.6892	-8227.73
0.2920,0.7080	-8224.78
0.2888,0.7112	-8199.84
0.2928,0.7072	-8219.43
0.3041,0.6959	-8229.32
0.2986,0.7014	-8223.57
0.2828,0.7172	-8210.01
0.3061,0.6939	-8222.74
0.3067,0.6933	-8231.73
0.2953,0.7047	-8221.95
0.3248,0.6752	-8233.19
0.2985,0.7015	-8229.55
0.3010,0.6990	-8218.47
0.3036,0.6964	-8216.05
0.2996,0.7004	-8231.19
0.3067,0.6933	-8209.71
0.3106,0.6894	-8226.13
0.2981,0.7019	-8221.01
0.3106,0.6894	-8234.10
0.2876,0.7124	-8240.63
0.2687,0.7313	-8207.69
0.2975,0.7025	-8234.77
0.2932,0.7068	-8230.85
0.2850,0.7150	-8217.24
0.3051,0.6949	-8217.78
0.3227,0.6773	-8220.40
0.3003,0.6997	-8210.84
0.2947,0.7053	-8215.87
0.2992,0.7008	-8217.59
0.2634,0.7366	-8210.72
0.2868,0.7132	-8200.70
0.3334,0.6666	-8241.81
0.2821,0.7179	-8196.04
0.2825,0.7175	-8210.02
0.2876,0.7124	-8219.76
0.2759,0.7241	-8184.58
0.2875,0.7125	-8226.12
0.3218,0.6782	-8222.50
0.2618,0.7382	-8195.53
0.2923,0.7077	-8200.00
0.2823,0.7177	-8224.03
0.3031,0.6969	-8211.86
0.2948,0.7052	-8219.36
0.3021,0.6979	-8221.84
0.2688,0.7312	-8198.68
0.2905,0.7095	-8214.19
0.3065,0.6935	-8221.94
0.3143,0.6857	-8230.22
0.2934,0.7066	-8212.37
0.3016,0.6984	-8227.72
0.2761,0.7239	-8206.76
0.2944,0.7056	-8218.50
0.3023,0.6977	-8214.32
0.3283,0.6717	-8237.12
0.2937,0.7063	-8218.52
0.3141,0.6859	-8230.21
0.2912,0.7088	-8215.06
0.3026,0.6974	-8218.51
0.3109,0.6891	-8226.94
0.3311,0.6689	-8245.13
0.3084,0.6916	-8228.48
0.3022,0.6978	-8231.88
0.3026,0.6974	-8224.35
0.3036,0.6964	-8216.05
0.2928,0.7072	-8203.56
0.3444,0.6556	-8258.62
0.3007,0.6993	-8225.21
0.3077,0.6923	-8226.85
0.2921,0.7079	-8238.06
0.3130,0.6870	-8225.46
0.3290,0.6710	-8242.89
0.3006,0.6994	-8212.55
0.3083,0.6917	-8229.29
0.3101,0.6899	-8225.31
0.2890,0.7110	-8215.15
0.2973,0.7027	-8229.63
0.3420,0.6580	-8251.98
0.3022,0.6978	-8198.40
0.3091,0.6909	-8216.43
0.2973,0.7027	-8210.70
0.3176,0.6824	-8231.16
0.2940,0.7060	-8224.64
0.3079,0.6921	-8242.24
0.3341,0.6659	-8245.32
0.3327,0.6673	-8241.05
0.3088,0.6912	-8225.26
0.3268,0.6732	-8235.55
0.2832,0.7168	-8219.27
0.2766,0.7234	-8191.33
0.2983,0.7017	-8238.12
0.3275,0.6725	-8253.60
0.3356,0.6644	-8251.59
0.2930,0.7070	-8227.35
0.2896,0.7104	-8213.33
0.2924,0.7076	-8214.15
0.2908,0.7092	-8238.26
0.3245,0.6755	-8241.95
0.3054,0.6946	-8243.27
0.2984,0.7016	-8228.70
0.3100,0.6900	-8234.11
0.2911,0.7089	-8205.27
0.2976,0.7024	-8210.71
0.2892,0.7108	-8215.14
0.3232,0.6768	-8240.44
0.3224,0.6776	-8227.04
0.3068,0.6932	-8233.36
0.2850,0.7150	-8212.64
0.3004,0.6996	-8207.47
0.2861,0.7139	-8211.66
0.2748,0.7252	-8192.33
0.3080,0.6920	-8239.81
0.3134,0.6866	-8219.21
0.2947,0.7053	-8227.21
0.3052,0.6948	-8219.43
0.3119,0.6881	-8219.86
0.2810,0.7190	-8210.13
0.3123,0.6877	-8221.47
0.2925,0.7075	-8220.33
0.3031,0.6969	-8217.69
0.2948,0.7052	-8196.68
0.2830,0.7170	-8217.43
0.2911,0.7089	-8207.95
0.3077,0.6923	-8226.04
0.3101,0.6899	-8224.51
0.3063,0.6937	-8212.93
0.3342,0.6658	-8240.51
0.3021,0.6979	-8229.38
0.2877,0.7123	-8227.90
0.3046,0.6954	-8211.97
0.2957,0.7043	-8218.47
0.3097,0.6903	-8236.51
0.3090,0.6910	-8235.73
0.2839,0.7161	-8224.75
0.3222,0.6778	-8241.89
0.3336,0.6664	-8243.91
0.2929,0.7071	-8220.31
0.3030,0.6970	-8235.18
0.3063,0.6937	-8215.39
0.2944,0.7056	-8208.01
0.2952,0.7048	-8212.38
0.3396,0.6604	-8251.80
0.2916,0.7084	-8214.16
0.3063,0.6937	-8206.40
0.3076,0.6924	-8217.92
0.2803,0.7197	-8200.76
0.2994,0.7006	-8191.24
0.3290,0.6710	-8257.14
0.2960,0.7040	-8207.20
0.3035,0.6965	-8236.81
0.2984,0.7016	-8229.55
0.2795,0.7205	-8210.26
0.3077,0.6923	-8228.47
0.2959,0.7041	-8208.06
0.3112,0.6888	-8238.87
0.2783,0.7217	-8215.14
0.2858,0.7142	-8220.83
0.2917,0.7083	-8227.47
0.3249,0.6751	-8232.46
0.3103,0.6897	-8223.72
0.2974,0.7026	-8220.17
0.2966,0.7034	-8217.59
0.3001,0.6999	-8227.77
0.2966,0.7034	-8206.36
0.3008,0.6992	-8207.49
0.3177,0.6823	-8244.92
0.2940,0.7060	-8194.85
0.3094,0.6906	-8231.71
0.2662,0.7338	-8207.11
0.3123,0.6877	-8217.52
0.3109,0.6891	-8226.94
0.2934,0.7066	-8221.16
0.2685,0.7315	-8200.71
0.3024,0.6976	-8225.19
0.2771,0.7229	-8211.46
0.2881,0.7119	-8223.34
0.3204,0.6796	-8225.32
0.2752,0.7248	-8193.29
0.2919,0.7081	-8220.36
0.3317,0.6683	-8238.86
0.2938,0.7062	-8207.11
0.2887,0.7113	-8214.26
0.2975,0.7025	-8216.73
0.2794,0.7206	-8197.95
0.2917,0.7083	-8199.97
0.3136,0.6864	-8237.24
0.2979,0.7021	-8232.16
0.3217,0.6783	-8236.66
0.2949,0.7051	-8221.10
0.2973,0.7027	-8229.63
0.2938,0.7062	-8216.76
0.3277,0.6723	-8230.60
0.2996,0.7004	-8209.96
0.3066,0.6934	-8215.41
0.3229,0.6771	-8219.69
0.3146,0.6854	-8225.56
0.3036,0.6964	-8218.54
0.3122,0.6878	-8230.94
0.2930,0.7070	-8194.76
0.2774,0.7226	-8205.68
0.3030,0.6970	-8229.35
0.3069,0.6931	-8210.55
0.2773,0.7227	-8221.02
0.2901,0.7099	-8208.84
0.2730,0.7270	-8212.98
0.3036,0.6964	-8228.50
0.3049,0.6951	-8231.78
0.3182,0.6818	-8230.43
0.2892,0.7108	-8224.13
0.3099,0.6901	-8215.69
0.3050,0.6950	-8216.95
0.2936,0.7064	-8202.72
0.3164,0.6836	-8225.70
0.2832,0.7168	-8238.76
0.3085,0.6915	-8226.87
0.3119,0.6881	-8219.07
0.2832,0.7168	-8197.91
0.2950,0.7050	-8214.12
0.2838,0.7162	-8194.21
0.2840,0.7160	-8201.61
0.3188,0.6812	-8231.98
0.3142,0.6858	-8217.73
0.2901,0.7099	-8212.42
0.2944,0.7056	-8215.00
0.3082,0.6918	-8249.50
0.3079,0.6921	-8239.00
0.3234,0.6766	-8228.63
0.3382,0.6618	-8248.36
0.3274,0.6726	-8239.92
0.3256,0.6744	-8226.71
0.3276,0.6724	-8239.22
0.2861,0.7139	-8201.60
0.2940,0.7060	-8207.12
0.2980,0.7020	-8236.44
0.3183,0.6817	-8228.91
0.3184,0.6816	-8221.31
0.3173,0.6827	-8240.33
0.3128,0.6872	-8234.89
0.2901,0.7099	-8199.89
0.3160,0.6840	-8244.20
0.3253,0.6747	-8237.60
0.2914,0.7086	-8210.61
0.2862,0.7138	-8222.62
0.2786,0.7214	-8232.23
0.2974,0.7026	-8200.39
0.3002,0.6998	-8217.61
0.3066,0.6934	-8226.02
0.3003,0.6997	-8233.68
0.2910,0.7090	-8199.04
0.2900,0.7100	-8197.20
0.3171,0.6829	-8239.56
0.2744,0.7256	-8219.58
0.2825,0.7175	-8197.91
0.3245,0.6755	-8236.82
0.2910,0.7090	-8216.85
0.3038,0.6962	-8215.23
0.2837,0.7163	-8204.39
0.2898,0.7102	-8213.32
0.2735,0.7265	-8228.53
0.3020,0.6980	-8236.08
0.3262,0.6738	-8239.12
0.2997,0.7003	-8217.60
0.2685,0.7315	-8218.76
0.2847,0.7153	-8224.64
0.3002,0.6998	-8207.46
0.3004,0.6996	-8215.08
0.2983,0.7017	-8227.85
0.2785,0.7215	-8211.31
0.3269,0.6731	-8234.12
0.3153,0.6847	-8239.57
0.2879,0.7121	-8206.15
0.2801,0.7199	-8227.19
0.3126,0.6874	-8229.37
0.2805,0.7195	-8226.18
0.3327,0.6673	-8243.83
0.2996,0.7004	-8244.77
0.2957,0.7043	-8220.20
0.2800,0.7200	-8196.99
0.2939,0.7061	-8222.89
0.2863,0.7137	-8196.12
0.3063,0.6937	-8221.11
0.2885,0.7115	-8209.76
0.3273,0.6727	-8228.39
0.2692,0.7308	-8195.64
0.2994,0.7006	-8217.60
0.3013,0.6987	-8228.57
0.3045,0.6955	-8210.31
0.2829,0.7171	-8223.02
0.3107,0.6893	-8218.16
0.2718,0.7282	-8188.52
0.2918,0.7082	-8217.70
0.2931,0.7069	-8207.09
0.2782,0.7218	-8208.48
0.3011,0.6989	-8237.83
0.2895,0.7105	-8216.02
0.3118,0.6882	-8226.97
0.3027,0.6973	-8226.02
0.2568,0.7432	-8207.02
0.2897,0.7103	-8224.08
0.2901,0.7099	-8209.73
0.2756,0.7244	-8199.07
0.2803,0.7197	-8208.30
0.3001,0.6999	-8241.31
0.2722,0.7278	-8194.41
0.2940,0.7060	-8216.76
0.2953,0.7047	-8226.30
0.2807,0.7193	-8218.62
0.2676,0.7324	-8209.90
0.3090,0.6910	-8222.86
0.3028,0.6972	-8221.85
0.2984,0.7016	-8202.20
0.2949,0.7051	-8202.79
0.2971,0.7029	-8214.14
0.2989,0.7011	-8236.35
0.2807,0.7193	-8191.34
0.3001,0.6999	-8211.68
0.3020,0.6980	-8214.30
0.2946,0.7054	-8219.36
0.2985,0.7015	-8221.86
0.2943,0.7057	-8194.88
0.3250,0.6750	-8220.05
0.2927,0.7073	-8222.97
0.3123,0.6877	-8243.57
0.2844,0.7156	-8225.59
0.3222,0.6778	-8231.48
0.2890,0.7110	-8220.55
0.3235,0.6765	-8216.84
0.3000,0.7000	-8209.13
0.2867,0.7133	-8203.43
0.2859,0.7141	-8220.82
0.3043,0.6957	-8221.87
0.3166,0.6834	-8220.32
0.2946,0.7054	-8215.87
0.3021,0.6979	-8215.98
0.2977,0.7023	-8223.59
0.2938,0.7062	-8206.24
0.3149,0.6851	-8234.13
0.3026,0.6974	-8210.15
0.2907,0.7093	-8220.43
0.3198,0.6802	-8229.78
0.3052,0.6948	-8221.07
0.2940,0.7060	-8222.01
0.3277,0.6723	-8232.03
0.2856,0.7144	-8213.52
0.3014,0.6986	-8238.65
0.2844,0.7156	-8200.68
0.2982,0.7018	-8218.44
0.3289,0.6711	-8229.34
0.3181,0.6819	-8242.62
0.3031,0.6969	-8227.68
0.2795,0.7205	-8220.67
0.2862,0.7138	-8225.37
0.2996,0.7004	-8224.39
0.3250,0.6750	-8226.62
0.3289,0.6711	-8245.02
0.2786,0.7214	-8226.52
0.2684,0.7316	-8189.70
0.2817,0.7183	-8222.25
0.2878,0.7122	-8209.78
0.3099,0.6901	-8239.71
0.2933,0.7067	-8222.05
0.3056,0.6944	-8227.65
0.2896,0.7104	-8228.58
0.3017,0.6983	-8203.37
0.2847,0.7153	-8202.52
0.3266,0.6734	-8249.28
0.2988,0.7012	-8216.74
0.3213,0.6787	-8238.14
0.2902,0.7098	-8229.41
0.2942,0.7058	-8197.50
0.2975,0.7025	-8210.71
0.2963,0.7037	-8213.27
0.3022,0.6978	-8228.54
0.3465,0.6535	-8254.28
0.3225,0.6775	-8227.80
0.3184,0.6816	-8242.62
0.2927,0.7073	-8198.26
0.2848,0.7152	-8216.34
0.2903,0.7097	-8206.15
0.3396,0.6604	-8257.12
0.2930,0.7070	-8219.42
0.3020,0.6980	-8244.46
0.3138,0.6862	-8228.64
0.2925,0.7075	-8198.25
0.3368,0.6632	-8238.09
0.3101,0.6899	-8246.10
0.2913,0.7087	-8223.06
0.2818,0.7182	-8214.75
0.3337,0.6663	-8229.39
0.3020,0.6980	-8212.63
0.3240,0.6760	-8249.29
0.3215,0.6785	-8220.22
0.3153,0.6847	-8222.51
0.2948,0.7052	-8220.23
0.3019,0.6981	-8227.71
0.2979,0.7021	-8224.44
0.3040,0.6960	-8233.46
0.3036,0.6964	-8210.24
0.3329,0.6671	-8225.79
0.2959,0.7041	-8217.60
0.3125,0.6875	-8227.79
0.2794,0.7206	-8216.90
0.2978,0.7022	-8216.73
0.2931,0.7069	-8217.66
0.3002,0.6998	-8227.76
0.2829,0.7171	-8198.84
0.3141,0.6859	-8228.65
0.2938,0.7062	-8227.29
0.3148,0.6852	-8217.02
0.3200,0.6800	-8227.54
0.3058,0.6942	-8229.29
0.2873,0.7127	-8211.61
0.2998,0.7002	-8213.36
0.3033,0.6967	-8226.84
0.3139,0.6861	-8230.21
0.2980,0.7020	-8219.30
0.2873,0.7127	-8212.52
0.2790,0.7210	-8203.66
0.2937,0.7063	-8212.37
0.2658,0.7342	-8223.44
0.3046,0.6954	-8214.45
0.2752,0.7248	-8194.26
0.3005,0.6995	-8234.51
0.2939,0.7061	-8209.75
0.2719,0.7281	-8190.49
0.2640,0.7360	-8204.45
0.3114,0.6886	-8237.27
0.3325,0.6675	-8230.58
0.3041,0.6959	-8231.80
0.2986,0.7014	-8219.30
0.3057,0.6943	-8224.37
0.2701,0.7299	-8194.56
0.3104,0.6896	-8218.94
0.3121,0.6879	-8228.57
0.2909,0.7091	-8228.43
0.2943,0.7057	-8200.13
0.2755,0.7245	-8211.65
0.2977,0.7023	-8209.86
0.2893,0.7107	-8212.44
0.3198,0.6802	-8237.33
0.3029,0.6971	-8221.85
0.2774,0.7226	-8209.51
0.3213,0.6787	-8233.65
0.3148,0.6852	-8217.02
0.2876,0.7124	-8201.62
0.3004,0.6996	-8223.53
0.3686,0.6314	-8268.33
0.3057,0.6943	-8223.55
0.2791,0.7209	-8208.40
0.3289,0.6711	-8247.16
0.2964,0.7036	-8224.51
0.2951,0.7049	-8228.06
0.3510,0.6490	-8252.90
0.3272,0.6728	-8224.78
0.2907,0.7093	-8209.73
0.2903,0.7097	-8218.67
0.2959,0.7041	-8216.73
0.2752,0.7248	-8208.79
0.3254,0.6746	-8223.76
0.3044,0.6956	-8228.49
0.3011,0.6989	-8229.41
0.2984,0.7016	-8215.88
0.2878,0.7122	-8219.74
0.2721,0.7279	-8206.22
0.3168,0.6832	-8225.73
0.2914,0.7086	-8209.73
0.3041,0.6959	-8217.73
0.3055,0.6945	-8221.90
0.2900,0.7100	-8212.42
0.3105,0.6895	-8235.70
0.3135,0.6865	-8225.49
0.2939,0.7061	-8206.24
0.3008,0.6992	-8206.65
0.3181,0.6819	-8236.52
0.2992,0.7008	-8220.15
0.2995,0.7005	-8219.30
0.3067,0.6933	-8242.34
0.3207,0.6793	-8224.60
0.3052,0.6948	-8232.59
0.2934,0.7066	-8231.71
0.2932,0.7068	-8214.13
0.2608,0.7392	-8194.64
0.3039,0.6961	-8212.75
0.3178,0.6822	-8231.17
0.3444,0.6556	-8247.68
0.2844,0.7156	-8204.37
0.3004,0.6996	-8221.84
0.2791,0.7209	-8223.58
0.3251,0.6749	-8241.25
0.3359,0.6641	-8240.69
0.3211,0.6789	-8253.10
0.2950,0.7050	-8215.87
0.3400,0.6600	-8247.85
0.2843,0.7157	-8206.22
0.2899,0.7101	-8209.73
0.3619,0.6381	-8257.45
0.3012,0.6988	-8230.25
0.2916,0.7084	-8207.06
0.3066,0.6934	-8217.86
0.2793,0.7207	-8219.75
0.3166,0.6834	-8222.64
0.3094,0.6906	-8243.75
0.3135,0.6865	-8243.52
0.3205,0.6795	-8229.09
0.3265,0.6735	-8231.90
0.2933,0.7067	-8228.20
0.3101,0.6899	-8224.51
0.3220,0.6780	-8239.65
0.2766,0.7234	-8209.59
0.3139,0.6861	-8236.46
0.3209,0.6791	-8244.12
0.2935,0.7065	-8205.35
0.3169,0.6831	-8229.58
0.3138,0.6862	-8244.29
0.3019,0.6981	-8215.97
0.2864,0.7136	-8218.95
0.3264,0.6736	-8242.76
0.3201,0.6799	-8247.13
0.2790,0.7210	-8213.15
0.2819,0.7181	-8190.43
0.2852,0.7148	-8223.66
0.3118,0.6882	-8238.85
0.2836,0.7164	-8222.01
0.3121,0.6879	-8228.57
0.3164,0.6836	-8233.40
0.2999,0.7001	-8221.84
0.2910,0.7090	-8205.27
0.3179,0.6821	-8244.91
0.3205,0.6795	-8219.32
0.2989,0.7011	-8215.03
0.3039,0.6961	-8229.32
0.3282,0.6718	-8246.43
0.2635,0.7365	-8194.26
0.3296,0.6704	-8239.38
0.3074,0.6926	-8222.79
0.2668,0.7332	-8214.08
0.3147,0.6853	-8237.24
0.3309,0.6691	-8245.12
0.2689,0.7311	-8199.67
0.3105,0.6895	-8234.90
0.3220,0.6780	-8228.48
0.2898,0.7102	-8210.63
0.2963,0.7037	-8234.89
0.3019,0.6981	-8222.68
0.2857,0.7143	-8197.94
0.3258,0.6742	-8238.37
0.2870,0.7130	-8204.34
0.2888,0.7112	-8192.63
0.3008,0.6992	-8226.05
0.3385,0.6615	-8236.99
0.2896,0.7104	-8224.09
0.3340,0.6660	-8240.48
0.2851,0.7149	-8213.55
0.3300,0.6700	-8228.78
0.3050,0.6950	-8221.89
0.3149,0.6851	-8249.68
0.2979,0.7021	-8227.02
0.3467,0.6533	-8234.66
0.3070,0.6930	-8214.63
0.3018,0.6982	-8212.61
0.3183,0.6817	-8229.67
0.3338,0.6662	-8225.26
0.2986,0.7014	-8211.61
0.3272,0.6728	-8235.59
0.2960,0.7040	-8203.73
0.3051,0.6949	-8207.08
0.3166,0.6834	-8229.56
0.3445,0.6555	-8267.63
0.3095,0.6905	-8214.85
0.2872,0.7128	-8216.16
0.2880,0.7120	-8217.91
0.2855,0.7145	-8221.78
0.3106,0.6894	-8235.70
0.3570,0.6430	-8252.00
0.2842,0.7158	-8216.38
0.3030,0.6970	-8240.18
0.2899,0.7101	-8220.49
0.3022,0.6978	-8204.27
0.2860,0.7140	-8236.37
0.3428,0.6572	-8257.25
0.2848,0.7152	-8216.34
0.2870,0.7130	-8209.80
0.2932,0.7068	-8205.34
0.2850,0.7150	-8212.64
0.2696,0.7304	-8193.61
0.2980,0.7020	-8241.58
0.3177,0.6823	-8225.81
0.3005,0.6995	-8202.41
0.2910,0.7090	-8215.07
0.3046,0.6954	-8211.97
0.2745,0.7255	-8198.18
0.3063,0.6937	-8241.55
0.2839,0.7161	-8196.06
0.2943,0.7057	-8222.00
0.3243,0.6757	-8234.61
0.3166,0.6834	-8223.41
0.2879,0.7121	-8208.87
0.3169,0.6831	-8229.58
0.3008,0.6992	-8221.84
0.3043,0.6957	-8208.64
0.3515,0.6485	-8235.20
0.3256,0.6744	-8220.16
0.2998,0.7002	-8217.60
0.3089,0.6911	-8220.43
0.3008,0.6992	-8206.65
0.2975,0.7025	-8209.85
0.3241,0.6759	-8233.86
0.3252,0.6748	-8216.44
0.2781,0.7219	-8215.16
0.3115,0.6885	-8220.62
0.2999,0.7001	-8212.52
0.2814,0.7186	-8207.29
0.2829,0.7171	-8210.93
0.3315,0.6685	-8252.17
0.3161,0.6839	-8227.22
0.3195,0.6805	-8223.71
0.3191,0.6809	-8235.03
0.2973,0.7027	-8221.03
0.2843,0.7157	-8201.61
0.3320,0.6680	-8243.79
0.2988,0.7012	-8206.50
0.3019,0.6981	-8211.78
0.3190,0.6810	-8226.69
0.2765,0.7235	-8193.25
0.3140,0.6860	-8230.99
0.2822,0.7178	-8219.38
0.2824,0.7176	-8214.69
0.3140,0.6860	-8210.67
0.3268,0.6732	-8231.94
0.3104,0.6896	-8237.30
0.2812,0.7188	-8225.13
0.3233,0.6767	-8231.57
0.3068,0.6932	-8227.65
0.3015,0.6985	-8236.96
0.2968,0.7032	-8240.87
0.3238,0.6762	-8233.09
0.2756,0.7244	-8199.08
0.3154,0.6846	-8222.52
0.3036,0.6964	-8226.01
0.2913,0.7087	-8213.28
0.2913,0.7087	-8222.17
0.2984,0.7016	-8220.15
0.2980,0.7020	-8220.16
0.2879,0.7121	-8215.21
0.2924,0.7076	-8210.61
0.2965,0.7035	-8227.09
0.2736,0.7264	-8210.92
0.2770,0.7230	-8211.47
0.3034,0.6966	-8225.18
0.3025,0.6975	-8218.50
0.2818,0.7182	-8217.56
0.3025,0.6975	-8225.19
0.2991,0.7009	-8221.85
0.3185,0.6815	-8232.73
0.2797,0.7203	-8221.59
0.2880,0.7120	-8230.58
0.2866,0.7134	-8202.52
0.3058,0.6942	-8230.93
0.3069,0.6931	-8210.55
0.3323,0.6677	-8228.45
0.2627,0.7373	-8206.75
0.2966,0.7034	-8240.04
0.3193,0.6807	-8219.91
0.3034,0.6966	-8231.83
0.2941,0.7059	-8210.62
0.3039,0.6961	-8249.21
0.2924,0.7076	-8224.75
0.2890,0.7110	-8220.55
0.3041,0.6959	-8213.59
0.3053,0.6947	-8221.08
0.2662,0.7338	-8192.92
0.2738,0.7262	-8207.98
0.2784,0.7216	-8198.93
0.2915,0.7085	-8234.59
0.2703,0.7297	-8205.48
0.3265,0.6735	-8228.28
0.2781,0.7219	-8212.30
0.3043,0.6957	-8227.66
0.3118,0.6882	-8244.39
0.2956,0.7044	-8218.47
0.2942,0.7058	-8216.75
0.3184,0.6816	-8222.83
0.3082,0.6918	-8223.63
0.2804,0.7196	-8220.55
0.3235,0.6765	-8233.81
0.2860,0.7140	-8207.09
0.2768,0.7232	-8203.81
0.3124,0.6876	-8230.15
0.3034,0.6966	-8203.57
0.2903,0.7097	-8188.28
0.3033,0.6967	-8207.72
0.2927,0.7073	-8230.91
0.2564,0.7436	-8213.51
0.3223,0.6777	-8241.89
0.3060,0.6940	-8215.37
0.3310,0.6690	-8209.95
0.3289,0.6711	-8232.89
0.2846,0.7154	-8205.29
0.2622,0.7378	-8199.60
0.3172,0.6828	-8236.50
0.2772,0.7228	-8217.20
0.3077,0.6923	-8229.28
0.2959,0.7041	-8225.40
0.3064,0.6936	-8217.03
0.3058,0.6942	-8234.21
0.2932,0.7068	-8229.09
0.2689,0.7311	-8203.67
0.3120,0.6880	-8230.94
0.2849,0.7151	-8190.56
0.3025,0.6975	-8216.83
0.3083,0.6917	-8233.33
0.3113,0.6887	-8226.95
0.2778,0.7222	-8185.58
0.3179,0.6821	-8223.54
0.2809,0.7191	-8204.50
0.3038,0.6962	-8221.03
0.2795,0.7205	-8209.32
0.3190,0.6810	-8242.61
0.3004,0.6996	-8203.24
0.2797,0.7203	-8192.27
0.2685,0.7315	-8179.67
0.2702,0.7298	-8194.56
0.2909,0.7091	-8212.40
0.3022,0.6978	-8209.29
0.3298,0.6702	-8239.39
0.3090,0.6910	-8238.15
0.2943,0.7057	-8222.87
0.2855,0.7145	-8231.88
0.3076,0.6924	-8226.04
0.3285,0.6715	-8234.99
0.2986,0.7014	-8212.47
0.3004,0.6996	-8212.54
0.2849,0.7151	-8194.24
0.2978,0.7022	-8209.87
0.2914,0.7086	-8207.06
0.3224,0.6776	-8240.41
0.2908,0.7092	-8218.64
0.2895,0.7105	-8225.00
0.2807,0.7193	-8209.22
0.3199,0.6801	-8233.56
0.2875,0.7125	-8214.32
0.3117,0.6883	-8219.84
0.2878,0.7122	-8238.76
0.3066,0.6934	-8195.83
0.3100,0.6900	-8229.31
0.3063,0.6937	-8215.39
0.3112,0.6888	-8215.82
0.3121,0.6879	-8223.82
0.2864,0.7136	-8207.99
0.3138,0.6862	-8230.20
0.2989,0.7011	-8212.47
0.2893,0.7107	-8213.34
0.3239,0.6761	-8217.65
0.2906,0.7094	-8200.80
0.3216,0.6784	-8224.71
0.3197,0.6803	-8227.51
0.2934,0.7066	-8207.10
0.2870,0.7130	-8212.53
0.3325,0.6675	-8223.61
0.2905,0.7095	-8204.37
0.3142,0.6858	-8225.54
0.3098,0.6902	-8205.26
0.3017,0.6983	-8210.09
0.3027,0.6973	-8217.68
0.3283,0.6717	-8232.83
0.3178,0.6822	-8224.29
0.2968,0.7032	-8215.86
0.2843,0.7157	-8198.84
0.3059,0.6941	-8230.11
0.3146,0.6854	-8227.12
0.3076,0.6924	-8231.72
0.2838,0.7162	-8200.69
0.2877,0.7123	-8200.71
0.3100,0.6900	-8221.30
0.2859,0.7141	-8215.34
0.2914,0.7086	-8221.28
0.2937,0.7063	-8217.64
0.2844,0.7156	-8219.13
0.3042,0.6958	-8209.46
0.3128,0.6872	-8245.12
0.2643,0.7357	-8195.17
0.3107,0.6893	-8232.51
0.3037,0.6963	-8224.35
0.2796,0.7204	-8220.66
0.3116,0.6884	-8238.06
0.2838,0.7162	-8202.54
0.2854,0.7146	-8216.29
0.2778,0.7222	-8208.52
0.3100,0.6900	-8218.91
0.2831,0.7169	-8220.21
0.3036,0.6964	-8225.18
0.2932,0.7068	-8204.46
0.2712,0.7288	-8203.37
0.2710,0.7290	-8194.50
0.3041,0.6959	-8209.45
0.3133,0.6867	-8230.18
0.3142,0.6858	-8234.90
0.3035,0.6965	-8213.55
0.2903,0.7097	-8207.05
0.2714,0.7286	-8203.35
0.3013,0.6987	-8201.65
0.3085,0.6915	-8238.97
0.3043,0.6957	-8222.70
0.3110,0.6890	-8242.06
0.2747,0.7253	-8199.13
0.2981,0.7019	-8213.30
0.3164,0.6836	-8229.55
0.3072,0.6928	-8229.28
0.2817,0.7183	-8200.72
0.3323,0.6677	-8233.34
0.2625,0.7375	-8177.86
0.3076,0.6924	-8221.98
0.2818,0.7182	-8217.55
0.3112,0.6888	-8225.36
0.3063,0.6937	-8213.76
0.3341,0.6659	-8248.78
0.3090,0.6910	-8235.73
0.3200,0.6800	-8232.82
0.2714,0.7286	-8211.26
0.3036,0.6964	-8211.90
0.3002,0.6998	-8233.69
0.3144,0.6856	-8231.78
0.3222,0.6778	-8247.84
0.2853,0.7147	-8208.95
0.2781,0.7219	-8213.26
0.3040,0.6960	-8233.46
0.2950,0.7050	-8203.67
0.2824,0.7176	-8196.04
0.3073,0.6927	-8230.91
0.2720,0.7280	-8205.25
0.2877,0.7123	-8213.40
0.2960,0.7040	-8219.33
0.3123,0.6877	-8226.21
0.2939,0.7061	-8213.25
0.2976,0.7024	-8210.71
0.3184,0.6816	-8230.44
0.3231,0.6769	-8233.04
0.3074,0.6926	-8213.85
0.3011,0.6989	-8222.68
0.2993,0.7007	-8210.79
0.2881,0.7119	-8237.80
0.3225,0.6775	-8212.21
0.3027,0.6973	-8226.02
0.3232,0.6768	-8224.91
0.2822,0.7178	-8209.11
0.2544,0.7456	-8186.14
0.2947,0.7053	-8195.79
0.3261,0.6739	-8244.20
0.3138,0.6862	-8238.81
0.2890,0.7110	-8220.55
0.2788,0.7212	-8207.47
0.2679,0.7321	-8183.70
0.3077,0.6923	-8218.74
0.3072,0.6928	-8225.22
0.3012,0.6988	-8215.11
0.3162,0.6838	-8228.00
0.2849,0.7151	-8206.20
0.2974,0.7026	-8232.20
0.3147,0.6853	-8236.46
0.2876,0.7124	-8222.48
0.3207,0.6793	-8226.86
0.2912,0.7088	-8228.40
0.3016,0.6984	-8231.92
0.2880,0.7120	-8190.76
0.3141,0.6859	-8241.93
0.3092,0.6908	-8220.45
0.2960,0.7040	-8230.59
0.2954,0.7046	-8214.13
0.3040,0.6960	-8232.63
0.3070,0.6930	-8215.44
0.3370,0.6630	-8255.04
0.2878,0.7122	-8217.03
0.2866,0.7134	-8212.55
0.2899,0.7101	-8193.61
0.3161,0.6839	-8212.55
0.2909,0.7091	-8199.93
0.3235,0.6765	-8230.86
0.2914,0.7086	-8214.17
0.2930,0.7070	-8232.63
0.2967,0.7033	-8208.10
0.3506,0.6494	-8259.01
0.2913,0.7087	-8224.84
0.3236,0.6764	-8242.66
0.2726,0.7274	-8196.35
0.3077,0.6923	-8226.85
0.3121,0.6879	-8221.45
0.3612,0.6388	-8258.46
0.3244,0.6756	-8246.35
0.3224,0.6776	-8231.50
0.2831,0.7169	-8220.20
0.2863,0.7137	-8199.78
0.3047,0.6953	-8226.83
0.2908,0.7092	-8214.18
0.3080,0.6920	-8239.00
0.2927,0.7073	-8202.67
0.2877,0.7123	-8209.78
0.3256,0.6744	-8257.29
0.2771,0.7229	-8209.54
0.3029,0.6971	-8213.52
0.3049,0.6951	-8222.71
0.2753,0.7247	-8194.25
0.2911,0.7089	-8222.18
0.3320,0.6680	-8235.40
0.3153,0.6847	-8233.37
0.2853,0.7147	-8198.85
0.3094,0.6906	-8226.89
0.2816,0.7184	-8202.59
0.2710,0.7290	-8192.51
0.3262,0.6738	-8221.71
0.3081,0.6919	-8219.58
0.2870,0.7130	-8208.89
0.3088,0.6912	-8226.07
0.3112,0.6888	-8215.03
0.2795,0.7205	-8197.00
0.3215,0.6785	-8244.12
0.2886,0.7114	-8213.36
0.2896,0.7104	-8217.82
0.3022,0.6978	-8205.94
0.3154,0.6846	-8238.79
0.2877,0.7123	-8225.19
0.3193,0.6807	-8235.04
0.2689,0.7311	-8173.66
0.3101,0.6899	-8233.31
0.2811,0.7189	-8220.45
0.2983,0.7017	-8215.02
0.2750,0.7250	-8215.60
0.3293,0.6707	-8230.10
0.3075,0.6925	-8213.04
0.2933,0.7067	-8244.92
0.2966,0.7034	-8209.82
0.2954,0.7046	-8215.86
0.2721,0.7279	-8203.28
0.3111,0.6889	-8229.33
0.3166,0.6834	-8229.56
0.2806,0.7194	-8218.64
0.2973,0.7027	-8213.28
0.3169,0.6831	-8225.74
0.2806,0.7194	-8218.64
0.2957,0.7043	-8209.79
0.3004,0.6996	-8207.47
0.2858,0.7142	-8198.85
0.2919,0.7081	-8237.20
0.3114,0.6886	-8200.77
0.2970,0.7030	-8217.59
0.2964,0.7036	-8227.97
0.3203,0.6797	-8234.34
0.2716,0.7284	-8178.67
0.2818,0.7182	-8202.59
0.2973,0.7027	-8214.15
0.2825,0.7175	-8208.16
0.2841,0.7159	-8216.40
0.2884,0.7116	-8206.15
0.2721,0.7279	-8212.14
0.2732,0.7268	-8208.05
0.3152,0.6848	-8239.57
0.2804,0.7196	-8215.83
0.3044,0.6956	-8221.05
0.2765,0.7235	-8209.60
0.2901,0.7099	-8216.00
0.2867,0.7133	-8227.13
0.2891,0.7109	-8207.05
0.2913,0.7087	-8208.84
0.2845,0.7155	-8213.60
0.2790,0.7210	-8201.76
0.2941,0.7059	-8219.38
0.3284,0.6716	-8234.98
0.2874,0.7126	-8211.60
0.2882,0.7118	-8207.05
0.2895,0.7105	-8217.82
0.2902,0.7098	-8207.05
0.2907,0.7093	-8208.84
0.2823,0.7177	-8212.84
0.2746,0.7254	-8185.54
0.2774,0.7226	-8209.51
0.3061,0.6939	-8239.11
0.2878,0.7122	-8215.21
0.3424,0.6576	-8232.42
0.3117,0.6883	-8232.51
0.3028,0.6972	-8228.52
0.2924,0.7076	-8217.68
0.3250,0.6750	-8227.36
0.3050,0.6950	-8232.60
0.3161,0.6839	-8231.07
0.3084,0.6916	-8222.83
0.2830,0.7170	-8196.98
0.2888,0.7112	-8219.67
0.3082,0.6918	-8233.33
0.2961,0.7039	-8221.06
0.3044,0.6956	-8220.22
0.3242,0.6758	-8230.92
0.3004,0.6996	-8210.85
0.3243,0.6757	-8229.47
0.2953,0.7047	-8227.17
0.3166,0.6834	-8225.71
0.2863,0.7137	-8219.87
0.3059,0.6941	-8226.83
0.2890,0.7110	-8204.35
0.3147,0.6853	-8217.01
0.2835,0.7165	-8208.10
0.2994,0.7006	-8216.75
0.2964,0.7036	-8208.95
0.2950,0.7050	-8206.29
0.2876,0.7124	-8227.92
0.2783,0.7217	-8197.99
0.2993,0.7007	-8221.85
0.2951,0.7049	-8228.06
0.3100,0.6900	-8205.30
0.3238,0.6762	-8222.06
0.2990,0.7010	-8219.30
0.2573,0.7427	-8183.58
0.3120,0.6880	-8230.14
0.3163,0.6837	-8226.46
0.3170,0.6830	-8239.56
0.3385,0.6615	-8243.03
0.3035,0.6965	-8222.69
0.3207,0.6793	-8240.37
0.2998,0.7002	-8216.75
0.3074,0.6926	-8223.60
0.3042,0.6958	-8226.83
0.3168,0.6832	-8234.95
0.2921,0.7079	-8207.96
0.3074,0.6926	-8226.03
0.3136,0.6864	-8220.79
0.2747,0.7253	-8200.11
0.2831,0.7169	-8207.20
0.2641,0.7359	-8209.54
0.3009,0.6991	-8214.25
0.3088,0.6912	-8215.60
0.3193,0.6807	-8248.67
0.2747,0.7253	-8192.34
0.2806,0.7194	-8219.58
0.2827,0.7173	-8187.66
0.3160,0.6840	-8233.39
0.2797,0.7203	-8208.35
0.3039,0.6961	-8230.15
0.3187,0.6813	-8235.78
0.3148,0.6852	-8229.46
0.2571,0.7429	-8187.85
0.2871,0.7129	-8214.34
0.2982,0.7018	-8211.60
0.3213,0.6787	-8222.43
0.3193,0.6807	-8240.34
0.2709,0.7291	-8190.54
0.2729,0.7271	-8194.37
0.2917,0.7083	-8215.05
0.3135,0.6865	-8239.60
0.3017,0.6983	-8225.20
0.3081,0.6919	-8248.70
0.2732,0.7268	-8203.16
0.2911,0.7089	-8196.37
0.3056,0.6944	-8220.27
0.2812,0.7188	-8200.73
0.2916,0.7084	-8200.85
0.2939,0.7061	-8231.65
0.2867,0.7133	-8223.48
0.3000,0.7000	-8239.64
0.3095,0.6905	-8218.87
0.3095,0.6905	-8208.43
0.2985,0.7015	-8227.84
0.3087,0.6913	-8212.36
0.3058,0.6942	-8222.73
0.2953,0.7047	-8224.56
0.3152,0.6848	-8224.06
0.3190,0.6810	-8227.45
0.3001,0.6999	-8217.61
0.3569,0.6431	-8265.52
0.3080,0.6920	-8210.66
0.3164,0.6836	-8217.23
0.3252,0.6748	-8225.93
0.2896,0.7104	-8206.15
0.2972,0.7028	-8215.00
0.3065,0.6935	-8239.08
0.3166,0.6834	-8231.10
0.3032,0.6968	-8215.20
0.3471,0.6529	-8250.55
0.2940,0.7060	-8228.14
0.3080,0.6920	-8226.05
0.2937,0.7063	-8216.76
0.2859,0.7141	-8232.72
0.2834,0.7166	-8213.67
0.2923,0.7077	-8205.31
0.2871,0.7129	-8202.52
0.3232,0.6768	-8232.31
0.3270,0.6730	-8220.40
0.2898,0.7102	-8218.70
0.2918,0.7082	-8210.61
0.2940,0.7060	-8227.27
0.3046,0.6954	-8232.61
0.3107,0.6893	-8231.71
0.2939,0.7061	-8202.73
0.3126,0.6874	-8220.71
0.3196,0.6804	-8244.12
0.2912,0.7088	-8219.51
0.2922,0.7078	-8217.69
0.3034,0.6966	-8224.35
0.2946,0.7054	-8231.59
0.3200,0.6800	-8244.12
0.2976,0.7024	-8220.16
0.3127,0.6873	-8244.34
0.2876,0.7124	-8212.50
0.2715,0.7285	-8187.55
0.3172,0.6828	-8211.97
0.3095,0.6905	-8223.68
0.2856,0.7144	-8221.78
0.3058,0.6942	-8239.95
0.2777,0.7223	-8219.05
0.2726,0.7274	-8214.01
0.3008,0.6992	-8224.37
0.3134,0.6866	-8229.40
0.3013,0.6987	-8234.46
0.3388,0.6612	-8233.04
0.3110,0.6890	-8215.80
0.3019,0.6981	-8222.68
0.2809,0.7191	-8222.36
0.2954,0.7046	-8210.65
0.2858,0.7142	-8203.43
0.3201,0.6799	-8244.12
0.3020,0.6980	-8222.68
0.3043,0.6957	-8240.07
0.2833,0.7167	-8202.55
0.2905,0.7095	-8204.37
0.3045,0.6955	-8242.53
0.2927,0.7073	-8222.96
0.2947,0.7053	-8216.74
0.3034,0.6966	-8226.84
0.3070,0.6930	-8233.36
0.2876,0.7124	-8201.62
0.3121,0.6879	-8228.56
0.2942,0.7058	-8212.38
0.2932,0.7068	-8210.62
0.2918,0.7082	-8209.73
0.2847,0.7153	-8245.82
0.3102,0.6898	-8216.52
0.3019,0.6981	-8215.13
0.2885,0.7115	-8206.15
0.2796,0.7204	-8213.09
0.2880,0.7120	-8206.15
0.3091,0.6909	-8217.23
0.3160,0.6840	-8229.53
0.2942,0.7058	-8215.88
0.2944,0.7056	-8215.87
0.3194,0.6806	-8227.49
0.2977,0.7023	-8210.72
0.3102,0.6898	-8226.91
0.3095,0.6905	-8224.48
0.3009,0.6991	-8215.94
0.3119,0.6881	-8226.98
0.3307,0.6693	-8233.82
0.2768,0.7232	-8210.53
0.3165,0.6835	-8248.80
0.2893,0.7107	-8207.95
0.3099,0.6901	-8226.90
0.3017,0.6983	-8221.84
0.3005,0.6995	-8205.79
0.2964,0.7036	-8215.00
0.3191,0.6809	-8224.43
0.3278,0.6722	-8233.49
0.3100,0.6900	-8243.71
0.3013,0.6987	-8227.72
0.3022,0.6978	-8226.03
0.3130,0.6870	-8236.46
0.3033,0.6967	-8221.02
0.2949,0.7051	-8219.36
0.2928,0.7072	-8215.90
0.2720,0.7280	-8195.41
0.3218,0.6782	-8221.01
0.2840,0.7160	-8193.29
0.3347,0.6653	-8234.37
0.2677,0.7323	-8206.85
0.2919,0.7081	-8218.59
0.2959,0.7041	-8224.53
0.3192,0.6808	-8232.01
0.2936,0.7064	-8224.67
0.3009,0.6991	-8202.45
0.2868,0.7132	-8230.75
0.3201,0.6799	-8232.07
0.3157,0.6843	-8231.83
0.3125,0.6875	-8221.48
0.3091,0.6909	-8218.84
0.2934,0.7066	-8205.34
0.2964,0.7036	-8221.05
0.3076,0.6924	-8235.77
0.3001,0.6999	-8215.91
0.3121,0.6879	-8247.53
0.3102,0.6898	-8221.32
0.3124,0.6876	-8217.53
0.2808,0.7192	-8203.56
0.3022,0.6978	-8226.86
0.2890,0.7110	-8213.35
0.3164,0.6836	-8226.47
0.3003,0.6997	-8230.30
0.2925,0.7075	-8217.68
0.3085,0.6915	-8229.29
0.3019,0.6981	-8212.62
0.3019,0.6981	-8230.22
0.2822,0.7178	-8214.71
0.3176,0.6824	-8221.97
0.3149,0.6851	-8213.14
0.3045,0.6955	-8226.01
0.3091,0.6909	-8227.68
0.2958,0.7042	-8214.99
0.3088,0.6912	-8223.65
0.3040,0.6960	-8226.01
0.3087,0.6913	-8220.42
0.3233,0.6767	-8226.40
0.3065,0.6935	-8235.00
0.3218,0.6782	-8238.90
0.2855,0.7145	-8206.19
0.3010,0.6990	-8209.20
0.2932,0.7068	-8224.69
0.3129,0.6871	-8227.03
0.3080,0.6920	-8233.33
0.3212,0.6788	-8230.65
0.3054,0.6946	-8233.40
0.2983,0.7017	-8218.44
0.2869,0.7131	-8205.25
0.3051,0.6949	-8212.02
0.2982,0.7018	-8225.29
0.3241,0.6759	-8227.24
0.3230,0.6770	-8236.73
0.2929,0.7071	-8215.02
0.3138,0.6862	-8221.60
0.2972,0.7028	-8215.00
0.3086,0.6914	-8217.19
0.3112,0.6888	-8219.80
0.2830,0.7170	-8193.26
0.2891,0.7109	-8211.55
0.3215,0.6785	-8232.91
0.2944,0.7056	-8214.13
0.2904,0.7096	-8188.29
0.2942,0.7058	-8206.25
0.2938,0.7062	-8209.74
0.3038,0.6962	-8222.69
0.3481,0.6519	-8258.20
0.3045,0.6955	-8234.27
0.3222,0.6778	-8227.76
0.2903,0.7097	-8223.14
0.3039,0.6961	-8224.35
0.3194,0.6806	-8232.78
0.3228,0.6772	-8229.31
0.3150,0.6850	-8234.14
0.2943,0.7057	-8203.63
0.2969,0.7031	-8218.45
0.3008,0.6992	-8232.80
0.2888,0.7112	-8210.65
0.3124,0.6876	-8220.69
0.3025,0.6975	-8210.99
0.3304,0.6696	-8236.61
0.3064,0.6936	-8233.37
0.2858,0.7142	-8220.84
0.3088,0.6912	-8217.21
0.3206,0.6794	-8237.36
0.3041,0.6959	-8231.80
0.3005,0.6995	-8210.86
0.3196,0.6804	-8213.91
0.3140,0.6860	-8241.15
0.3110,0.6890	-8218.19
0.3097,0.6903	-8205.26
0.3305,0.6695	-8233.10
0.3026,0.6974	-8210.99
0.3234,0.6766	-8222.00
0.3092,0.6908	-8207.59
0.3248,0.6752	-8232.45
0.3014,0.6986	-8238.65
0.3225,0.6775	-8233.73
0.2967,0.7033	-8221.04
0.3146,0.6854	-8235.68
0.3111,0.6889	-8215.02
0.3104,0.6896	-8244.48
0.3293,0.6707	-8258.55
0.2843,0.7157	-8232.99
0.2769,0.7231	-8194.20
0.3092,0.6908	-8230.10
0.3048,0.6952	-8232.60
0.2945,0.7055	-8220.24
0.3547,0.6453	-8246.82
0.2960,0.7040	-8210.66
0.2886,0.7114	-8196.22
0.2999,0.7001	-8206.58
0.3258,0.6742	-8234.01
0.3030,0.6970	-8214.35
0.3501,0.6499	-8249.70
0.3078,0.6922	-8228.47
0.3010,0.6990	-8219.31
0.3009,0.6991	-8207.51
0.3384,0.6616	-8242.34
0.2776,0.7224	-8214.27
0.3057,0.6943	-8227.65
0.3017,0.6983	-8221.00
0.2892,0.7108	-8219.64
0.3149,0.6851	-8227.92
0.3119,0.6881	-8225.39
0.3070,0.6930	-8216.26
0.3068,0.6932	-8244.77
0.3107,0.6893	-8218.16
0.2809,0.7191	-8220.48
0.2974,0.7026	-8221.88
0.3106,0.6894	-8221.34
0.3322,0.6678	-8252.88
0.2792,0.7208	-8199.86
0.3116,0.6884	-8239.65
0.3216,0.6784	-8256.06
0.2777,0.7223	-8215.22
0.3063,0.6937	-8218.66
0.2898,0.7102	-8221.39
0.2930,0.7070	-8206.21
0.3149,0.6851	-8231.80
0.3095,0.6905	-8233.31
0.3153,0.6847	-8227.94
0.3355,0.6645	-8239.97
0.3102,0.6898	-8236.50
0.2901,0.7099	-8219.57
0.2798,0.7202	-8206.45
0.2750,0.7250	-8202.02
0.2981,0.7019	-8234.72
0.3249,0.6751	-8222.23
0.3166,0.6834	-8224.94
0.2692,0.7308	-8186.65
0.2919,0.7081	-8196.43
0.3124,0.6876	-8228.58
0.2807,0.7193	-8206.39
0.3112,0.6888	-8254.75
0.2882,0.7118	-8221.52
0.3184,0.6816	-8222.07
0.3127,0.6873	-8226.22
0.2874,0.7126	-8197.98
0.3372,0.6628	-8234.09
0.2920,0.7080	-8223.89
0.3218,0.6782	-8237.41
0.2841,0.7159	-8224.71
0.3035,0.6965	-8210.23
0.3038,0.6962	-8228.50
0.3251,0.6749	-8243.44
0.3135,0.6865	-8232.54
0.3044,0.6956	-8216.09
0.2982,0.7018	-8214.16
0.3183,0.6817	-8226.63
0.3081,0.6919	-8230.09
0.3187,0.6813	-8226.66
0.3254,0.6746	-8228.87
0.3021,0.6979	-8210.12
0.2917,0.7083	-8208.84
0.3204,0.6796	-8238.85
0.3220,0.6780	-8219.55
0.2999,0.7001	-8209.12
0.2865,0.7135	-8227.15
0.3143,0.6857	-8229.44
0.2976,0.7024	-8229.61
0.3184,0.6816	-8215.21
0.3265,0.6735	-8239.14
0.2744,0.7256	-8196.24
0.3136,0.6864	-8235.68
0.3025,0.6975	-8221.84
0.2813,0.7187	-8191.35
0.2983,0.7017	-8220.15
0.2947,0.7053	-8233.32
0.3050,0.6950	-8230.95
0.3072,0.6928	-8201.64
0.3280,0.6720	-8229.92
0.3326,0.6674	-8236.17
0.2873,0.7127	-8212.51
0.3133,0.6867	-8224.69
0.3123,0.6877	-8227.00
0.2858,0.7142	-8201.60
0.2989,0.7011	-8235.50
0.3229,0.6771	-8228.58
0.2862,0.7138	-8205.26
0.3113,0.6887	-8224.57
0.2974,0.7026	-8221.02
0.3084,0.6916	-8213.94
0.2797,0.7203	-8193.21
0.3258,0.6742	-8242.73
0.2963,0.7037	-8213.27
0.3241,0.6759	-8235.33
0.2839,0.7161	-8214.56
0.2932,0.7068	-8220.29
0.2808,0.7192	-8204.50
0.3032,0.6968	-8205.21
0.2968,0.7032	-8230.53
0.2837,0.7163	-8206.24
0.3197,0.6803	-8218.45
0.3019,0.6981	-8225.19
0.3006,0.6994	-8207.48
0.2996,0.7004	-8205.71
0.2819,0.7181	-8207.26
0.3046,0.6954	-8216.93
0.3375,0.6625	-8233.46
0.2927,0.7073	-8224.73
0.2768,0.7232	-8200.93
0.3400,0.6600	-8238.56
0.2975,0.7025	-8229.61
0.3386,0.6614	-8239.69
0.3025,0.6975	-8231.03
0.2789,0.7211	-8220.76
0.2842,0.7158	-8221.93
0.2977,0.7023	-8203.00
0.2795,0.7205	-8221.62
0.3041,0.6959	-8219.38
0.2926,0.7074	-8220.32
0.2871,0.7129	-8208.89
0.2875,0.7125	-8206.15
0.3199,0.6801	-8235.07
0.2964,0.7036	-8203.76
0.3016,0.6984	-8220.16
0.3160,0.6840	-8235.70
0.2930,0.7070	-8226.47
0.2791,0.7209	-8218.83
0.3082,0.6918	-8218.78
0.3110,0.6890	-8219.78
0.2853,0.7147	-8210.78
0.3148,0.6852	-8224.79
0.3061,0.6939	-8228.47
0.2944,0.7056	-8202.76
0.2979,0.7021	-8221.87
0.3006,0.6994	-8225.22
0.3051,0.6949	-8228.48
0.2836,0.7164	-8204.40
0.2889,0.7111	-8205.25
0.3140,0.6860	-8237.24
0.3045,0.6955	-8226.83
0.2910,0.7090	-8218.63
0.3190,0.6810	-8238.82
0.3023,0.6977	-8223.52
0.2911,0.7089	-8196.38
0.3258,0.6742	-8233.28
0.3381,0.6619	-8238.27
0.2861,0.7139	-8209.83
0.3237,0.6763	-8233.09
0.3250,0.6750	-8241.24
0.2707,0.7293	-8195.51
0.3197,0.6803	-8226.75
0.2880,0.7120	-8200.72
0.3135,0.6865	-8227.05
0.3063,0.6937	-8217.84
0.3294,0.6706	-8227.99
0.3088,0.6912	-8209.95
0.3147,0.6853	-8221.68
0.2845,0.7155	-8216.36
0.3135,0.6865	-8223.14
0.3165,0.6835	-8247.26
0.3353,0.6647	-8233.79
0.2902,0.7098	-8210.63
0.3095,0.6905	-8206.03
0.2995,0.7005	-8222.70
0.3089,0.6911	-8224.46
0.3132,0.6868	-8225.47
0.3254,0.6746	-8239.07
0.3332,0.6668	-8249.42
0.2718,0.7282	-8208.24
0.3233,0.6767	-8231.58
0.3284,0.6716	-8232.12
0.3039,0.6961	-8216.06
0.3346,0.6654	-8232.31
0.3166,0.6834	-8240.33
0.2919,0.7081	-8227.45
0.3247,0.6753	-8236.11
0.3070,0.6930	-8213.82
0.2987,0.7013	-8215.88
0.2877,0.7123	-8223.37
0.3094,0.6906	-8223.68
0.2888,0.7112	-8181.81
0.3089,0.6911	-8213.99
0.2904,0.7096	-8217.77
0.2963,0.7037	-8229.70
0.3010,0.6990	-8211.73
0.2876,0.7124	-8238.81
0.2959,0.7041	-8216.73
0.2911,0.7089	-8216.85
0.2778,0.7222	-8185.59
0.2946,0.7054	-8207.14
0.3152,0.6848	-8241.12
0.2732,0.7268	-8210.00
0.3037,0.6963	-8236.80
0.3315,0.6685	-8235.34
0.3145,0.6855	-8223.22
0.2784,0.7216	-8205.60
0.3041,0.6959	-8212.76
0.2819,0.7181	-8197.91
0.2769,0.7231	-8208.60
0.3093,0.6907	-8215.64
0.3360,0.6640	-8255.01
0.2578,0.7422	-8196.20
0.3159,0.6841	-8218.71
0.3027,0.6973	-8226.85
0.3015,0.6985	-8207.55
0.2959,0.7041	-8213.26
0.3062,0.6938	-8217.02
0.2799,0.7201	-8204.55
0.3150,0.6850	-8247.34
0.3261,0.6739	-8226.78
0.3263,0.6737	-8237.67
0.3170,0.6830	-8225.74
0.3115,0.6885	-8228.55
0.2684,0.7316	-8209.75
0.3225,0.6775	-8221.86
0.3210,0.6790	-8223.88
0.3431,0.6569	-8248.17
0.3142,0.6858	-8215.39
0.2993,0.7007	-8221.85
0.2774,0.7226	-8198.98
0.3025,0.6975	-8236.88
0.3250,0.6750	-8243.44
0.3200,0.6800	-8233.57
0.3238,0.6762	-8225.00
0.3341,0.6659	-8240.50
0.2775,0.7225	-8188.45
0.3310,0.6690	-8217.67
0.3146,0.6854	-8220.11
0.2903,0.7097	-8223.14
0.3004,0.6996	-8214.23
0.3350,0.6650	-8244.71
0.2851,0.7149	-8216.31
0.3208,0.6792	-8227.61
0.3231,0.6769	-8218.98
0.3056,0.6944	-8221.91
0.3108,0.6892	-8241.27
0.2821,0.7179	-8205.38
0.2846,0.7154	-8207.13
0.3215,0.6785	-8229.93
0.3126,0.6874	-8238.04
0.2964,0.7036	-8202.03
0.2930,0.7070	-8229.11
0.2975,0.7025	-8209.85
0.3036,0.6964	-8227.67
0.3157,0.6843	-8250.40
0.3008,0.6992	-8221.84
0.3392,0.6608	-8232.45
0.3011,0.6989	-8195.73
0.2835,0.7165	-8204.40
0.3475,0.6525	-8253.75
0.3099,0.6901	-8218.10
0.2947,0.7053	-8225.47
0.2870,0.7130	-8211.62
0.3075,0.6925	-8224.41
0.2708,0.7292	-8219.28
0.3054,0.6946	-8207.93
0.2991,0.7009	-8214.19
0.3230,0.6770	-8224.14
0.3248,0.6752	-8229.52
0.2900,0.7100	-8219.58
0.2835,0.7165	-8201.62
0.3087,0.6913	-8214.78
0.3016,0.6984	-8221.00
0.3221,0.6779	-8230.72
0.2981,0.7019	-8225.29
0.3233,0.6767	-8226.41
0.2759,0.7241	-8199.05
0.2815,0.7185	-8211.97
0.2849,0.7151	-8193.32
0.3279,0.6721	-8237.80
0.2986,0.7014	-8244.07
0.2871,0.7129	-8201.61
0.2892,0.7108	-8216.94
0.2990,0.7010	-8230.37
0.3124,0.6876	-8245.14
0.3119,0.6881	-8226.18
0.3047,0.6953	-8209.51
0.3069,0.6931	-8219.51
0.2750,0.7250	-8207.84
0.3147,0.6853	-8230.24
0.2869,0.7131	-8220.73
0.3198,0.6802	-8231.30
0.3101,0.6899	-8232.51
0.3049,0.6951	-8222.71
0.2998,0.7002	-8221.84
0.2873,0.7127	-8213.42
0.2950,0.7050	-8222.84
0.2946,0.7054	-8224.60
0.3198,0.6802	-8221.49
0.3108,0.6892	-8227.73
0.2930,0.7070	-8222.95
0.3025,0.6975	-8251.09
0.3109,0.6891	-8221.37
0.3035,0.6965	-8231.00
0.2849,0.7151	-8203.44
0.2955,0.7045	-8201.96
0.2966,0.7034	-8230.55
0.3261,0.6739	-8220.97
0.3071,0.6929	-8228.47
0.2952,0.7048	-8227.18
0.2928,0.7072	-8215.02
0.2948,0.7052	-8238.55
0.3111,0.6889	-8227.74
0.3066,0.6934	-8224.39
0.2944,0.7056	-8215.87
0.3029,0.6971	-8224.35
0.3181,0.6819	-8226.61
0.3103,0.6897	-8224.52
0.3077,0.6923	-8213.88
0.3344,0.6656	-8241.91
0.2860,0.7140	-8211.67
0.2898,0.7102	-8196.29
0.3160,0.6840	-8216.40
0.2958,0.7042	-8225.41
0.2935,0.7065	-8198.32
0.3318,0.6682	-8237.47
0.3254,0.6746	-8224.49
0.2694,0.7306	-8225.54
0.3204,0.6796	-8226.08
0.2968,0.7032	-8224.49
0.2882,0.7118	-8212.48
0.2948,0.7052	-8206.27
0.3228,0.6772	-8235.98
0.3086,0.6914	-8226.87
0.3280,0.6720	-8238.53
0.3137,0.6863	-8235.68
0.3071,0.6929	-8206.50
0.2932,0.7068	-8237.89
0.3071,0.6929	-8231.72
0.3341,0.6659	-8241.19
0.2798,0.7202	-8217.80
0.2977,0.7023	-8212.44
0.3209,0.6791	-8226.88
0.2871,0.7129	-8207.07
0.3120,0.6880	-8235.68
0.3007,0.6993	-8215.93
0.2869,0.7131	-8214.35
0.3024,0.6976	-8222.68
0.3016,0.6984	-8222.68
0.2838,0.7162	-8214.57
0.3242,0.6758	-8243.41
0.3222,0.6778	-8227.02
0.2977,0.7023	-8221.88
0.3186,0.6814	-8231.22
0.3361,0.6639	-8240.72
0.2974,0.7026	-8217.59
0.2954,0.7046	-8210.65
0.3312,0.6688	-8239.52
0.3238,0.6762	-8225.00
0.2875,0.7125	-8234.28
0.2924,0.7076	-8195.59
0.2868,0.7132	-8223.47
0.3150,0.6850	-8226.37
0.3144,0.6856	-8223.21
0.3077,0.6923	-8230.09
0.3061,0.6939	-8220.28
0.3205,0.6795	-8223.83
0.3174,0.6826	-8241.10
0.2822,0.7178	-8212.85
0.3095,0.6905	-8229.30
0.3046,0.6954	-8237.56
0.3094,0.6906	-8222.07
0.3019,0.6981	-8218.49
0.3106,0.6894	-8225.33
0.3199,0.6801	-8257.70
0.3219,0.6781	-8242.63
0.3353,0.6647	-8231.04
0.2850,0.7150	-8221.84
0.2909,0.7091	-8202.60
0.3172,0.6828	-8225.00
0.2902,0.7098	-8203.47
0.2846,0.7154	-8178.56
0.3449,0.6551	-8246.45
0.3061,0.6939	-8237.48
0.3139,0.6861	-8234.90
0.3141,0.6859	-8218.50
0.2815,0.7185	-8205.41
0.3024,0.6976	-8216.83
0.2823,0.7177	-8198.84
0.2986,0.7014	-8235.52
0.3347,0.6653	-8234.37
0.3070,0.6930	-8227.66
0.2811,0.7189	-8212.00
0.2915,0.7085	-8232.81
0.2807,0.7193	-8234.63
0.2845,0.7155	-8213.60
0.2820,0.7180	-8204.45
0.2955,0.7045	-8212.39
0.3093,0.6907	-8229.30
0.2669,0.7331	-8203.96
0.2930,0.7070	-8225.59
0.2942,0.7058	-8210.63
0.3003,0.6997	-8215.92
0.3148,0.6852	-8241.13
0.3494,0.6506	-8248.97
0.2965,0.7035	-8221.91
0.2828,0.7172	-8205.35
0.3207,0.6793	-8221.60
0.2927,0.7073	-8193.85
0.2886,0.7114	-8218.78
0.3310,0.6690	-8242.31
0.3088,0.6912	-8233.32
0.2827,0.7173	-8197.91
0.2850,0.7150	-8221.84
0.3127,0.6873	-8213.62
0.3099,0.6901	-8236.51
0.3049,0.6951	-8197.16
0.2839,0.7161	-8206.24
0.2939,0.7061	-8203.61
0.3175,0.6825	-8231.15
0.2704,0.7296	-8216.38
0.3237,0.6763	-8238.98
0.2893,0.7107	-8216.93
0.2918,0.7082	-8209.73
0.2983,0.7017	-8221.01
0.3037,0.6963	-8221.86
0.2904,0.7096	-8203.48
0.3210,0.6790	-8227.64
0.3287,0.6713	-8220.74
0.2857,0.7143	-8226.34
0.3206,0.6794	-8260.64
0.2791,0.7209	-8216.94
0.2753,0.7247	-8201.03
0.2716,0.7284	-8211.22
0.2925,0.7075	-8217.68
0.2786,0.7214	-8210.34
0.3121,0.6879	-8225.41
0.2957,0.7043	-8230.62
0.3043,0.6957	-8234.28
0.2786,0.7214	-8208.45
0.3073,0.6927	-8227.66
0.2684,0.7316	-8190.70
0.3105,0.6895	-8218.15
0.2962,0.7038	-8216.73
0.2784,0.7216	-8206.56
0.3281,0.6719	-8238.54
0.3071,0.6929	-8218.71
0.2773,0.7227	-8225.80
0.3078,0.6922	-8242.25
0.2707,0.7293	-8209.39
0.2941,0.7059	-8213.25
0.3139,0.6861	-8227.86
0.2842,0.7158	-8200.68
0.3062,0.6938	-8223.56
0.2956,0.7044	-8212.39
0.3087,0.6913	-8236.55
0.3133,0.6867	-8234.11
0.3128,0.6872	-8227.81
0.3013,0.6987	-8214.27
0.3052,0.6948	-8231.77
0.2938,0.7062	-8200.10
0.2956,0.7044	-8239.31
0.3063,0.6937	-8218.66
0.2945,0.7055	-8220.24
0.3070,0.6930	-8212.18
0.3151,0.6849	-8227.15
0.2932,0.7068	-8229.10
0.3030,0.6970	-8219.35
0.2990,0.7010	-8221.85
0.2854,0.7146	-8228.21
0.2995,0.7005	-8215.90
0.2877,0.7123	-8191.65
0.2865,0.7135	-8218.94
0.3059,0.6941	-8226.01
0.3181,0.6819	-8212.13
0.3033,0.6967	-8212.70
0.2837,0.7163	-8208.10
0.2838,0.7162	-8187.73
0.3030,0.6970	-8225.18
0.2914,0.7086	-8208.84
0.2939,0.7061	-8213.25
0.3189,0.6811	-8234.27
0.3051,0.6949	-8233.42
0.3042,0.6958	-8229.32
0.2926,0.7074	-8218.56
0.2933,0.7067	-8201.82
0.2968,0.7032	-8212.41
0.2866,0.7134	-8192.49
0.3065,0.6935	-8236.63
0.3047,0.6953	-8219.41
0.2852,0.7148	-8214.46
0.2820,0.7180	-8202.58
0.3157,0.6843	-8238.02
0.2983,0.7017	-8241.54
0.3246,0.6754	-8235.36
0.3054,0.6946	-8198.06
0.3207,0.6793	-8242.62
0.3027,0.6973	-8225.18
0.2890,0.7110	-8210.65
0.2849,0.7151	-8194.24
0.3163,0.6837	-8228.00
0.3041,0.6959	-8229.32
0.3417,0.6583	-8234.24
0.3018,0.6982	-8212.61
0.2866,0.7134	-8224.41
0.2818,0.7182	-8204.46
0.2937,0.7063	-8212.37
0.3172,0.6828	-8215.02
0.3081,0.6919	-8226.05
0.3037,0.6963	-8245.09
0.2839,0.7161	-8211.79
0.3028,0.6972	-8226.02
0.2722,0.7278	-8226.86
0.3044,0.6956	-8232.62
0.3147,0.6853	-8231.79
0.2991,0.7009	-8216.74
0.2819,0.7181	-8186.69
0.3252,0.6748	-8223.73
0.2642,0.7358	-8210.55
0.3032,0.6968	-8227.68
0.3160,0.6840	-8234.93
0.3126,0.6874	-8225.43
0.3014,0.6986	-8231.92
0.3022,0.6978	-8210.96
0.2898,0.7102	-8197.18
0.3173,0.6827	-8219.65
0.2991,0.7009	-8234.62
0.3039,0.6961	-8220.21
0.2921,0.7079	-8211.50
0.3137,0.6863	-8228.63
0.2881,0.7119	-8203.44
0.3005,0.6995	-8214.24
0.2792,0.7208	-8195.11
0.2856,0.7144	-8223.61
0.2836,0.7164	-8222.92
0.2813,0.7187	-8209.17
0.3160,0.6840	-8238.02
0.3112,0.6888	-8238.87
0.2859,0.7141	-8216.25
0.3098,0.6902	-8226.90
0.3012,0.6988	-8204.16
0.2905,0.7095	-8215.09
0.2871,0.7129	-8218.89
0.2941,0.7059	-8226.39
0.2988,0.7012	-8215.88
0.3020,0.6980	-8224.35
0.2625,0.7375	-8201.62
0.2777,0.7223	-8220.00
0.2893,0.7107	-8210.64
0.3048,0.6952	-8230.13
0.3317,0.6683	-8237.46
0.3141,0.6859	-8234.90
0.2945,0.7055	-8204.51
0.2871,0.7129	-8223.44
0.2882,0.7118	-8226.94
0.2843,0.7157	-8208.99
0.3098,0.6902	-8231.71
0.2945,0.7055	-8210.63
0.3136,0.6864	-8226.28
0.2759,0.7241	-8200.02
0.2709,0.7291	-8202.43
0.3013,0.6987	-8226.88
0.2861,0.7139	-8219.89
0.2738,0.7262	-8199.20
0.3033,0.6967	-8204.39
0.2984,0.7016	-8235.54
0.2868,0.7132	-8217.09
0.3007,0.6993	-8223.53
0.2843,0.7157	-8192.37
0.3045,0.6955	-8219.40
0.2934,0.7066	-8221.17
0.3126,0.6874	-8230.16
0.2998,0.7002	-8220.15
0.2878,0.7122	-8217.02
0.2813,0.7187	-8206.36
0.2950,0.7050	-8221.09
0.3087,0.6913	-8231.71
0.3081,0.6919	-8232.52
0.3052,0.6948	-8235.06
0.2658,0.7342	-8191.93
0.2693,0.7307	-8200.61
0.2764,0.7236	-8196.14
0.2729,0.7271	-8202.21
0.2989,0.7011	-8215.03
0.3083,0.6917	-8210.70
0.2812,0.7188	-8216.69
0.2805,0.7195	-8213.00
0.3096,0.6904	-8241.33
0.2715,0.7285	-8220.11
0.2946,0.7054	-8210.63
0.3099,0.6901	-8222.90
0.3040,0.6960	-8211.10
0.2942,0.7058	-8201.00
0.2931,0.7069	-8224.70
0.2780,0.7220	-8190.36
0.2929,0.7071	-8223.84
0.3329,0.6671	-8245.93
0.3322,0.6678	-8240.31
0.2997,0.7003	-8219.30
0.2925,0.7075	-8210.61
0.2956,0.7044	-8224.55
0.2932,0.7068	-8240.52
0.3099,0.6901	-8223.70
0.3100,0.6900	-8238.11
0.2979,0.7021	-8230.44
0.3086,0.6914	-8252.68
0.2919,0.7081	-8219.48
0.2905,0.7095	-8240.98
0.3113,0.6887	-8233.30
0.3033,0.6967	-8215.20
0.2961,0.7039	-8221.06
0.3076,0.6924	-8226.04
0.2994,0.7006	-8214.19
0.2972,0.7028	-8216.73
0.2978,0.7022	-8214.15
0.3096,0.6904	-8225.29
0.2985,0.7015	-8214.17
0.3083,0.6917	-8222.82
0.2957,0.7043	-8224.54
0.2702,0.7298	-8201.51
0.3374,0.6626	-8250.33
0.3065,0.6935	-8216.22
0.2872,0.7128	-8242.51
0.3104,0.6896	-8243.68
0.3076,0.6924	-8218.74
0.2910,0.7090	-8183.91
0.3540,0.6460	-8249.10
0.3054,0.6946	-8243.26
0.3079,0.6921	-8231.71
0.2820,0.7180	-8197.91
0.2988,0.7012	-8209.06
0.2992,0.7008	-8226.11
0.3465,0.6535	-8258.73
0.2852,0.7148	-8195.17
0.3083,0.6917	-8203.43
0.2636,0.7364	-8176.77
0.2948,0.7052	-8232.44
0.3387,0.6613	-8243.05
0.3311,0.6689	-8245.84
0.2938,0.7062	-8234.30
0.3305,0.6695	-8252.86
0.2815,0.7185	-8202.60
0.2765,0.7235	-8186.52
0.3220,0.6780	-8232.95
0.3224,0.6776	-8231.50
0.3034,0.6966	-8241.80
0.3044,0.6956	-8215.26
0.2981,0.7019	-8214.16
0.3330,0.6670	-8239.69
0.3008,0.6992	-8210.87
0.3178,0.6822	-8243.39
0.3001,0.6999	-8222.69
0.2933,0.7067	-8210.62
0.2963,0.7037	-8215.86
0.3055,0.6945	-8226.01
0.2937,0.7063	-8201.84
0.3506,0.6494	-8253.47
0.3048,0.6952	-8228.48
0.2965,0.7035	-8217.59
0.2768,0.7232	-8199.01
0.3085,0.6915	-8230.09
0.2947,0.7053	-8235.07
0.3132,0.6868	-8219.98
0.2862,0.7138	-8214.40
0.2848,0.7152	-8216.34
0.3013,0.6987	-8225.20
0.2914,0.7086	-8225.72
0.2811,0.7189	-8200.74
0.3200,0.6800	-8243.37
0.2951,0.7049	-8233.28
0.3234,0.6766	-8232.32
