#isoforms=['ENSG00000101294.SE.1.A.up_ENSG00000101294.SE.1.A.SE1_ENSG00000101294.SE.1.A.dn','ENSG00000101294.SE.1.B.up_ENSG00000101294.SE.1.B.dn']	exon_lens=('ENSG00000101294.SE.1.A.up',99),('ENSG00000101294.SE.1.A.SE1',376),('ENSG00000101294.SE.1.A.dn',89),('ENSG00000101294.SE.1.B.up',99),('ENSG00000101294.SE.1.B.dn',89)	iters=5000	burn_in=500	lag=10	percent_accept=98.02	proposal_type=drift	counts=(0,0):349,(1,0):90	assigned_counts=0:90	chrom=chr20	strand=+	mRNA_starts=31527484,31527484	mRNA_ends=31545035,31545035
sampled_psi	log_score
0.8878,0.1122	-554.72
0.9352,0.0648	-553.76
0.8165,0.1835	-556.35
0.9081,0.0919	-554.30
0.9181,0.0819	-554.10
0.9579,0.0421	-553.34
0.8996,0.1004	-554.48
0.9404,0.0596	-553.67
0.8000,0.2000	-556.76
0.9051,0.0949	-554.36
0.9335,0.0665	-553.80
0.9608,0.0392	-553.28
0.9014,0.0986	-554.44
0.9309,0.0691	-553.85
0.8332,0.1668	-555.94
0.8960,0.1040	-554.55
0.9249,0.0751	-553.97
0.9566,0.0434	-553.36
0.9016,0.0984	-554.43
0.9224,0.0776	-554.01
0.8373,0.1627	-555.85
0.9122,0.0878	-554.22
0.9311,0.0689	-553.84
0.9533,0.0467	-553.42
0.8977,0.1023	-554.51
0.9231,0.0769	-554.00
0.8456,0.1544	-555.65
0.8944,0.1056	-554.58
0.9471,0.0529	-553.54
0.9514,0.0486	-553.46
0.8949,0.1051	-554.57
0.9115,0.0885	-554.23
0.8363,0.1637	-555.87
0.8809,0.1191	-554.87
0.9427,0.0573	-553.62
0.9510,0.0490	-553.47
0.8985,0.1015	-554.50
0.8948,0.1052	-554.57
0.8084,0.1916	-556.55
0.8752,0.1248	-554.99
0.9427,0.0573	-553.62
0.9421,0.0579	-553.63
0.9012,0.0988	-554.44
0.8667,0.1333	-555.18
0.8363,0.1637	-555.87
0.8562,0.1438	-555.41
0.9471,0.0529	-553.54
0.9440,0.0560	-553.60
0.9165,0.0835	-554.13
0.8585,0.1415	-555.36
0.8644,0.1356	-555.23
0.8711,0.1289	-555.08
0.9651,0.0349	-553.21
0.9441,0.0559	-553.60
0.9346,0.0654	-553.78
0.8824,0.1176	-554.84
0.8678,0.1322	-555.15
0.8436,0.1564	-555.70
0.9643,0.0357	-553.22
0.9411,0.0589	-553.65
0.9408,0.0592	-553.66
0.8520,0.1480	-555.51
0.8845,0.1155	-554.79
0.8618,0.1382	-555.29
0.9601,0.0399	-553.30
0.9308,0.0692	-553.85
0.9400,0.0600	-553.67
0.8472,0.1528	-555.62
0.8930,0.1070	-554.61
0.8751,0.1249	-554.99
0.9566,0.0434	-553.36
0.9024,0.0976	-554.42
0.9354,0.0646	-553.76
0.8828,0.1172	-554.83
0.8752,0.1248	-554.99
0.8771,0.1229	-554.95
0.9407,0.0593	-553.66
0.8933,0.1067	-554.60
0.9415,0.0585	-553.64
0.8880,0.1120	-554.72
0.8704,0.1296	-555.10
0.8794,0.1206	-554.90
0.9518,0.0482	-553.45
0.8798,0.1202	-554.89
0.9415,0.0585	-553.64
0.8598,0.1402	-555.33
0.8617,0.1383	-555.29
0.8679,0.1321	-555.15
0.9378,0.0622	-553.72
0.8822,0.1178	-554.84
0.9338,0.0662	-553.79
0.8615,0.1385	-555.29
0.8750,0.1250	-555.00
0.8535,0.1465	-555.47
0.9361,0.0639	-553.75
0.8836,0.1164	-554.81
0.9387,0.0613	-553.70
0.8615,0.1385	-555.29
0.8881,0.1119	-554.72
0.7977,0.2023	-556.82
0.9364,0.0636	-553.74
0.8970,0.1030	-554.53
0.9397,0.0603	-553.68
0.8929,0.1071	-554.61
0.8843,0.1157	-554.80
0.7872,0.2128	-557.09
0.9300,0.0700	-553.87
0.8929,0.1071	-554.61
0.9440,0.0560	-553.60
0.9050,0.0950	-554.36
0.9118,0.0882	-554.22
0.7698,0.2302	-557.55
0.9446,0.0554	-553.59
0.8782,0.1218	-554.93
0.9477,0.0523	-553.53
0.9104,0.0896	-554.25
0.9169,0.0831	-554.12
0.7961,0.2039	-556.86
0.9357,0.0643	-553.76
0.8874,0.1126	-554.73
0.9495,0.0505	-553.49
0.9170,0.0830	-554.12
0.9180,0.0820	-554.10
0.7829,0.2171	-557.20
0.9442,0.0558	-553.59
0.8657,0.1343	-555.20
0.9630,0.0370	-553.24
0.9185,0.0815	-554.09
0.9111,0.0889	-554.24
0.8335,0.1665	-555.94
0.9499,0.0501	-553.49
0.8468,0.1532	-555.63
0.9538,0.0462	-553.41
0.9263,0.0737	-553.94
0.9315,0.0685	-553.84
0.8200,0.1800	-556.26
0.9415,0.0585	-553.64
0.8540,0.1460	-555.46
0.9471,0.0529	-553.54
0.9137,0.0863	-554.19
0.9291,0.0709	-553.88
0.8201,0.1799	-556.26
0.9490,0.0510	-553.50
0.8611,0.1389	-555.30
0.9359,0.0641	-553.75
0.9019,0.0981	-554.43
0.9343,0.0657	-553.78
0.8326,0.1674	-555.96
0.9569,0.0431	-553.36
0.8773,0.1227	-554.95
0.9403,0.0597	-553.67
0.9070,0.0930	-554.32
0.9296,0.0704	-553.87
0.8773,0.1227	-554.95
0.9680,0.0320	-553.15
0.8808,0.1192	-554.87
0.9418,0.0582	-553.64
0.9198,0.0802	-554.07
0.9442,0.0558	-553.59
0.8755,0.1245	-554.98
0.9719,0.0281	-553.08
0.8773,0.1227	-554.95
0.9391,0.0609	-553.69
0.8941,0.1059	-554.59
0.9542,0.0458	-553.40
0.8666,0.1334	-555.18
0.9687,0.0313	-553.14
0.8917,0.1083	-554.64
0.9483,0.0517	-553.51
0.8988,0.1012	-554.49
0.9604,0.0396	-553.29
0.8650,0.1350	-555.21
0.9700,0.0300	-553.12
0.9185,0.0815	-554.09
0.9424,0.0576	-553.63
0.8941,0.1059	-554.59
0.9626,0.0374	-553.25
0.8541,0.1459	-555.46
0.9680,0.0320	-553.15
0.9099,0.0901	-554.26
0.9476,0.0524	-553.53
0.8958,0.1042	-554.55
0.9641,0.0359	-553.22
0.8421,0.1579	-555.74
0.9747,0.0253	-553.03
0.8895,0.1105	-554.69
0.9470,0.0530	-553.54
0.9028,0.0972	-554.41
0.9632,0.0368	-553.24
0.8745,0.1255	-555.01
0.9719,0.0281	-553.08
0.8961,0.1039	-554.55
0.9513,0.0487	-553.46
0.9022,0.0978	-554.42
0.9672,0.0328	-553.17
0.8672,0.1328	-555.17
0.9660,0.0340	-553.19
0.8854,0.1146	-554.77
0.9494,0.0506	-553.49
0.9029,0.0971	-554.41
0.9693,0.0307	-553.13
0.8880,0.1120	-554.72
0.9481,0.0519	-553.52
0.8959,0.1041	-554.55
0.9452,0.0548	-553.57
0.8818,0.1182	-554.85
0.9678,0.0322	-553.16
0.8792,0.1208	-554.90
0.9370,0.0630	-553.73
0.8888,0.1112	-554.70
0.9312,0.0688	-553.84
0.8918,0.1082	-554.64
0.9619,0.0381	-553.26
0.8790,0.1210	-554.91
0.9424,0.0576	-553.63
0.8944,0.1056	-554.58
0.9351,0.0649	-553.77
0.8916,0.1084	-554.64
0.9614,0.0386	-553.27
0.8831,0.1169	-554.82
0.9387,0.0613	-553.70
0.8905,0.1095	-554.66
0.9209,0.0791	-554.04
0.9003,0.0997	-554.46
0.9565,0.0435	-553.36
0.8768,0.1232	-554.96
0.9434,0.0566	-553.61
0.9095,0.0905	-554.27
0.9065,0.0935	-554.33
0.9208,0.0792	-554.05
0.9391,0.0609	-553.69
0.8610,0.1390	-555.30
0.9508,0.0492	-553.47
0.9124,0.0876	-554.21
0.9094,0.0906	-554.27
0.9214,0.0786	-554.03
0.9347,0.0653	-553.77
0.8971,0.1029	-554.53
0.9445,0.0555	-553.59
0.8844,0.1156	-554.79
0.8979,0.1021	-554.51
0.9237,0.0763	-553.99
0.9425,0.0575	-553.62
0.9125,0.0875	-554.21
0.9465,0.0535	-553.55
0.8935,0.1065	-554.60
0.8999,0.1001	-554.47
0.9305,0.0695	-553.86
0.9499,0.0501	-553.49
0.9136,0.0864	-554.19
0.9385,0.0615	-553.70
0.8773,0.1227	-554.94
0.8876,0.1124	-554.73
0.9293,0.0707	-553.88
0.9500,0.0500	-553.48
0.9115,0.0885	-554.23
0.9349,0.0651	-553.77
0.8727,0.1273	-555.05
0.8502,0.1498	-555.55
0.9306,0.0694	-553.85
0.9507,0.0493	-553.47
0.9176,0.0824	-554.11
0.9425,0.0575	-553.63
0.8746,0.1254	-555.00
0.8807,0.1193	-554.87
0.9440,0.0560	-553.60
0.9605,0.0395	-553.29
0.9187,0.0813	-554.09
0.9391,0.0609	-553.69
0.8751,0.1249	-554.99
0.8808,0.1192	-554.87
0.9548,0.0452	-553.39
0.9501,0.0499	-553.48
0.9079,0.0921	-554.30
0.9477,0.0523	-553.53
0.8495,0.1505	-555.56
0.8891,0.1109	-554.69
0.9561,0.0439	-553.37
0.9523,0.0477	-553.44
0.9160,0.0840	-554.14
0.9308,0.0692	-553.85
0.8283,0.1717	-556.06
0.8562,0.1438	-555.41
0.9678,0.0322	-553.16
0.9413,0.0587	-553.65
0.8993,0.1007	-554.48
0.9262,0.0738	-553.94
0.8341,0.1659	-555.92
0.8581,0.1419	-555.37
0.9706,0.0294	-553.10
0.9419,0.0581	-553.64
0.9266,0.0734	-553.93
0.9201,0.0799	-554.06
0.8275,0.1725	-556.08
0.8871,0.1129	-554.74
0.9765,0.0235	-553.00
0.9495,0.0505	-553.49
0.9331,0.0669	-553.80
0.9090,0.0910	-554.28
0.8316,0.1684	-555.98
0.8861,0.1139	-554.76
0.9789,0.0211	-552.96
0.9559,0.0441	-553.37
0.9367,0.0633	-553.73
0.9106,0.0894	-554.25
0.8230,0.1770	-556.19
0.8821,0.1179	-554.84
0.9724,0.0276	-553.07
0.9598,0.0402	-553.30
0.9402,0.0598	-553.67
0.9160,0.0840	-554.14
0.8599,0.1401	-555.33
0.8550,0.1450	-555.44
0.9747,0.0253	-553.03
0.9498,0.0502	-553.49
0.9557,0.0443	-553.38
0.9163,0.0837	-554.14
0.8768,0.1232	-554.96
0.8553,0.1447	-555.43
0.9702,0.0298	-553.11
0.9600,0.0400	-553.30
0.9627,0.0373	-553.25
0.9167,0.0833	-554.13
0.8756,0.1244	-554.98
0.8303,0.1697	-556.01
0.9757,0.0243	-553.01
0.9565,0.0435	-553.36
0.9686,0.0314	-553.14
0.9115,0.0885	-554.23
0.8775,0.1225	-554.94
0.8433,0.1567	-555.71
0.9752,0.0248	-553.02
0.9514,0.0486	-553.46
0.9632,0.0368	-553.24
0.8936,0.1064	-554.60
0.8933,0.1067	-554.61
0.8388,0.1612	-555.81
0.9802,0.0198	-552.93
0.9549,0.0451	-553.39
0.9644,0.0356	-553.22
0.8853,0.1147	-554.77
0.9060,0.0940	-554.34
0.8194,0.1806	-556.28
0.9797,0.0203	-552.94
0.9487,0.0513	-553.51
0.9637,0.0363	-553.23
0.8901,0.1099	-554.67
0.9084,0.0916	-554.30
0.8209,0.1791	-556.24
0.9758,0.0242	-553.01
0.9465,0.0535	-553.55
0.9683,0.0317	-553.15
0.8762,0.1238	-554.97
0.8994,0.1006	-554.48
0.8232,0.1768	-556.18
0.9772,0.0228	-552.99
0.9420,0.0580	-553.63
0.9761,0.0239	-553.01
0.8837,0.1163	-554.81
0.9104,0.0896	-554.25
0.8054,0.1946	-556.62
0.9788,0.0212	-552.96
0.9463,0.0537	-553.55
0.9778,0.0222	-552.98
0.8743,0.1257	-555.01
0.8979,0.1021	-554.51
0.7826,0.2174	-557.21
0.9768,0.0232	-552.99
0.9492,0.0508	-553.50
0.9734,0.0266	-553.06
0.8946,0.1054	-554.58
0.9170,0.0830	-554.12
0.8023,0.1977	-556.70
0.9715,0.0285	-553.09
0.9506,0.0494	-553.47
0.9679,0.0321	-553.15
0.8841,0.1159	-554.80
0.9116,0.0884	-554.23
0.8299,0.1701	-556.02
0.9707,0.0293	-553.10
0.9541,0.0459	-553.41
0.9662,0.0338	-553.18
0.8712,0.1288	-555.08
0.9270,0.0730	-553.92
0.8529,0.1471	-555.49
0.9656,0.0344	-553.20
0.9562,0.0438	-553.37
0.9691,0.0309	-553.13
0.9004,0.0996	-554.46
0.9284,0.0716	-553.90
0.8369,0.1631	-555.86
0.9727,0.0273	-553.07
0.9481,0.0519	-553.52
0.9744,0.0256	-553.04
0.9152,0.0848	-554.16
0.9227,0.0773	-554.01
0.8694,0.1306	-555.12
0.9720,0.0280	-553.08
0.9410,0.0590	-553.65
0.9709,0.0291	-553.10
0.9423,0.0577	-553.63
0.9017,0.0983	-554.43
0.8691,0.1309	-555.12
0.9774,0.0226	-552.98
0.9394,0.0606	-553.68
0.9736,0.0264	-553.05
0.9425,0.0575	-553.63
0.9002,0.0998	-554.46
0.9129,0.0871	-554.20
0.9765,0.0235	-553.00
0.9473,0.0527	-553.53
0.9720,0.0280	-553.08
0.9299,0.0701	-553.87
0.8906,0.1094	-554.66
0.9174,0.0826	-554.11
0.9770,0.0230	-552.99
0.9601,0.0399	-553.30
0.9720,0.0280	-553.08
0.9194,0.0806	-554.07
0.8786,0.1214	-554.92
0.9392,0.0608	-553.69
0.9737,0.0263	-553.05
0.9583,0.0417	-553.33
0.9661,0.0339	-553.19
0.9062,0.0938	-554.34
0.8647,0.1353	-555.22
0.9374,0.0626	-553.72
0.9720,0.0280	-553.08
0.9552,0.0448	-553.39
0.9610,0.0390	-553.28
0.9073,0.0927	-554.32
0.8423,0.1577	-555.73
0.9426,0.0574	-553.62
0.9718,0.0282	-553.08
0.9540,0.0460	-553.41
0.9572,0.0428	-553.35
0.9268,0.0732	-553.93
0.8462,0.1538	-555.64
0.9439,0.0561	-553.60
0.9738,0.0262	-553.05
0.9608,0.0392	-553.28
0.9547,0.0453	-553.40
0.9185,0.0815	-554.09
0.8521,0.1479	-555.51
0.9511,0.0489	-553.46
0.9771,0.0229	-552.99
0.9547,0.0453	-553.40
0.9576,0.0424	-553.34
0.9035,0.0965	-554.39
0.8221,0.1779	-556.21
0.9412,0.0588	-553.65
0.9730,0.0270	-553.06
0.9507,0.0493	-553.47
0.9558,0.0442	-553.37
0.8930,0.1070	-554.61
0.7828,0.2172	-557.21
0.9378,0.0622	-553.72
0.9657,0.0343	-553.19
0.9577,0.0423	-553.34
0.9584,0.0416	-553.33
0.9119,0.0881	-554.22
0.7995,0.2005	-556.77
0.9267,0.0733	-553.93
0.9604,0.0396	-553.29
0.9601,0.0399	-553.30
0.9462,0.0538	-553.55
0.8966,0.1034	-554.54
0.7762,0.2238	-557.38
0.9440,0.0560	-553.60
0.9571,0.0429	-553.35
0.9641,0.0359	-553.22
0.9404,0.0596	-553.67
0.8870,0.1130	-554.74
0.7587,0.2413	-557.86
0.9262,0.0738	-553.94
0.9493,0.0507	-553.50
0.9749,0.0251	-553.03
0.9442,0.0558	-553.59
0.8739,0.1261	-555.02
0.7587,0.2413	-557.86
0.9133,0.0867	-554.19
0.9539,0.0461	-553.41
0.9795,0.0205	-552.95
0.9538,0.0462	-553.41
0.8733,0.1267	-555.03
0.7329,0.2671	-558.60
0.9074,0.0926	-554.32
0.9504,0.0496	-553.48
0.9787,0.0213	-552.96
0.9364,0.0636	-553.74
0.8910,0.1090	-554.65
0.7154,0.2846	-559.14
0.9005,0.0995	-554.46
0.9607,0.0393	-553.28
0.9756,0.0244	-553.02
0.9477,0.0523	-553.53
0.8860,0.1140	-554.76
0.7105,0.2895	-559.29
0.9047,0.0953	-554.37
0.9584,0.0416	-553.33
0.9702,0.0298	-553.11
0.9531,0.0469	-553.43
0.8551,0.1449	-555.44
0.6970,0.3030	-559.72
0.9194,0.0806	-554.07
0.9419,0.0581	-553.64
0.9693,0.0307	-553.13
0.9562,0.0438	-553.37
0.8378,0.1622	-555.83
0.7069,0.2931	-559.40
0.9267,0.0733	-553.93
0.9373,0.0627	-553.72
0.9722,0.0278	-553.08
0.9542,0.0458	-553.40
0.8526,0.1474	-555.49
0.7295,0.2705	-558.71
0.9174,0.0826	-554.11
0.9550,0.0450	-553.39
0.9788,0.0212	-552.96
0.9361,0.0639	-553.75
0.8672,0.1328	-555.17
0.7450,0.2550	-558.25
0.9240,0.0760	-553.98
0.9536,0.0464	-553.42
0.9787,0.0213	-552.96
0.9363,0.0637	-553.74
0.8726,0.1274	-555.05
0.7835,0.2165	-557.19
0.9253,0.0747	-553.96
0.9477,0.0523	-553.53
0.9843,0.0157	-552.86
0.9537,0.0463	-553.41
0.8684,0.1316	-555.14
0.8073,0.1927	-556.57
0.9407,0.0593	-553.66
0.9493,0.0507	-553.50
0.9848,0.0152	-552.85
0.9486,0.0514	-553.51
0.8712,0.1288	-555.08
0.8487,0.1513	-555.58
0.9474,0.0526	-553.53
0.9551,0.0449	-553.39
0.9849,0.0151	-552.85
0.9552,0.0448	-553.39
0.8574,0.1426	-555.39
0.8747,0.1253	-555.00
0.9445,0.0555	-553.59
0.9528,0.0472	-553.43
0.9849,0.0151	-552.85
0.9612,0.0388	-553.28
0.8462,0.1538	-555.64
0.8827,0.1173	-554.83
0.9497,0.0503	-553.49
0.9516,0.0484	-553.45
0.9852,0.0148	-552.84
0.9476,0.0524	-553.53
0.8196,0.1804	-556.27
0.8706,0.1294	-555.09
0.9432,0.0568	-553.61
0.9584,0.0416	-553.33
0.9879,0.0121	-552.80
0.9512,0.0488	-553.46
0.8492,0.1508	-555.57
0.8596,0.1404	-555.34
0.9571,0.0429	-553.35
0.9558,0.0442	-553.38
0.9900,0.0100	-552.76
0.9448,0.0552	-553.58
0.8766,0.1234	-554.96
0.8911,0.1089	-554.65
0.9613,0.0387	-553.27
0.9644,0.0356	-553.22
0.9831,0.0169	-552.88
0.9395,0.0605	-553.68
0.8826,0.1174	-554.83
0.9051,0.0949	-554.36
0.9592,0.0408	-553.31
0.9490,0.0510	-553.50
0.9816,0.0184	-552.91
0.9414,0.0586	-553.65
0.8808,0.1192	-554.87
0.8796,0.1204	-554.90
0.9456,0.0544	-553.57
0.9376,0.0624	-553.72
0.9795,0.0205	-552.95
0.9295,0.0705	-553.87
0.8809,0.1191	-554.87
0.8713,0.1287	-555.08
0.9454,0.0546	-553.57
0.9173,0.0827	-554.12
0.9782,0.0218	-552.97
0.9335,0.0665	-553.80
0.8956,0.1044	-554.56
0.8763,0.1237	-554.97
0.9447,0.0553	-553.58
0.9059,0.0941	-554.34
0.9792,0.0208	-552.95
0.9308,0.0692	-553.85
0.8859,0.1141	-554.76
0.8912,0.1088	-554.65
0.9452,0.0548	-553.57
0.9207,0.0793	-554.05
0.9769,0.0231	-552.99
0.9451,0.0549	-553.58
0.9043,0.0957	-554.38
0.8977,0.1023	-554.51
0.9354,0.0646	-553.76
0.9281,0.0719	-553.90
0.9749,0.0251	-553.03
0.9431,0.0569	-553.61
0.8881,0.1119	-554.71
0.9049,0.0951	-554.37
0.9423,0.0577	-553.63
0.9147,0.0853	-554.17
0.9787,0.0213	-552.96
0.9507,0.0493	-553.47
0.8811,0.1189	-554.86
0.8998,0.1002	-554.47
0.9551,0.0449	-553.39
0.9020,0.0980	-554.43
0.9754,0.0246	-553.02
0.9568,0.0432	-553.36
0.8919,0.1081	-554.64
0.9020,0.0980	-554.43
0.9369,0.0631	-553.73
0.8988,0.1012	-554.49
0.9779,0.0221	-552.97
0.9561,0.0439	-553.37
0.8908,0.1092	-554.66
0.9047,0.0953	-554.37
0.9394,0.0606	-553.68
0.9202,0.0798	-554.06
0.9745,0.0255	-553.04
0.9597,0.0403	-553.30
0.8749,0.1251	-555.00
0.8972,0.1028	-554.52
0.9340,0.0660	-553.79
0.9209,0.0791	-554.04
0.9634,0.0366	-553.24
0.9664,0.0336	-553.18
0.8904,0.1096	-554.67
0.8935,0.1065	-554.60
0.9422,0.0578	-553.63
0.9299,0.0701	-553.87
0.9636,0.0364	-553.23
0.9693,0.0307	-553.13
0.8703,0.1297	-555.10
0.9181,0.0819	-554.10
0.9507,0.0493	-553.47
0.9219,0.0781	-554.02
0.9651,0.0349	-553.20
0.9686,0.0314	-553.14
0.8930,0.1070	-554.61
0.9240,0.0760	-553.98
0.9520,0.0480	-553.45
0.9148,0.0852	-554.17
0.9694,0.0306	-553.13
0.9640,0.0360	-553.23
0.8995,0.1005	-554.48
0.9272,0.0728	-553.92
0.9602,0.0398	-553.29
0.9079,0.0921	-554.30
0.9762,0.0238	-553.01
0.9643,0.0357	-553.22
0.9040,0.0960	-554.39
0.9320,0.0680	-553.83
0.9568,0.0432	-553.36
0.8999,0.1001	-554.47
0.9764,0.0236	-553.00
0.9692,0.0308	-553.13
0.9146,0.0854	-554.17
0.9298,0.0702	-553.87
0.9546,0.0454	-553.40
0.8822,0.1178	-554.84
0.9794,0.0206	-552.95
0.9660,0.0340	-553.19
0.9306,0.0694	-553.85
0.9458,0.0542	-553.56
0.9447,0.0553	-553.58
0.8781,0.1219	-554.93
0.9795,0.0205	-552.95
0.9707,0.0293	-553.10
0.9220,0.0780	-554.02
0.9396,0.0604	-553.68
0.9472,0.0528	-553.54
0.8832,0.1168	-554.82
0.9821,0.0179	-552.90
0.9677,0.0323	-553.16
0.9357,0.0643	-553.75
0.9381,0.0619	-553.71
0.9505,0.0495	-553.47
0.8848,0.1152	-554.78
0.9843,0.0157	-552.86
0.9669,0.0331	-553.17
0.9211,0.0789	-554.04
0.9330,0.0670	-553.81
0.9504,0.0496	-553.48
0.8745,0.1255	-555.01
0.9824,0.0176	-552.90
0.9685,0.0315	-553.14
0.9211,0.0789	-554.04
0.9292,0.0708	-553.88
0.9366,0.0634	-553.74
0.8741,0.1259	-555.02
0.9809,0.0191	-552.92
0.9694,0.0306	-553.13
0.9306,0.0694	-553.85
0.9420,0.0580	-553.63
0.9409,0.0591	-553.65
0.9000,0.1000	-554.47
0.9816,0.0184	-552.91
0.9788,0.0212	-552.96
0.9198,0.0802	-554.07
0.9456,0.0544	-553.57
0.9310,0.0690	-553.85
0.9091,0.0909	-554.28
0.9814,0.0186	-552.91
0.9801,0.0199	-552.94
0.9110,0.0890	-554.24
0.9437,0.0563	-553.60
0.9447,0.0553	-553.58
0.8992,0.1008	-554.48
0.9790,0.0210	-552.95
0.9757,0.0243	-553.01
0.9342,0.0658	-553.78
0.9532,0.0468	-553.42
0.9447,0.0553	-553.58
0.9024,0.0976	-554.42
0.9809,0.0191	-552.92
0.9676,0.0324	-553.16
0.9398,0.0602	-553.68
0.9594,0.0406	-553.31
0.9589,0.0411	-553.32
0.9084,0.0916	-554.29
0.9798,0.0202	-552.94
0.9660,0.0340	-553.19
0.9399,0.0601	-553.67
0.9607,0.0393	-553.29
0.9602,0.0398	-553.30
0.9156,0.0844	-554.15
0.9780,0.0220	-552.97
0.9623,0.0377	-553.26
0.9427,0.0573	-553.62
0.9409,0.0591	-553.65
0.9505,0.0495	-553.47
0.9048,0.0952	-554.37
0.9792,0.0208	-552.95
0.9719,0.0281	-553.08
0.9366,0.0634	-553.74
0.9427,0.0573	-553.62
0.9396,0.0604	-553.68
0.9011,0.0989	-554.44
0.9758,0.0242	-553.01
0.9722,0.0278	-553.08
0.9350,0.0650	-553.77
0.9493,0.0507	-553.50
0.9314,0.0686	-553.84
0.8978,0.1022	-554.51
0.9768,0.0232	-552.99
0.9685,0.0315	-553.14
0.9568,0.0432	-553.36
0.9556,0.0444	-553.38
0.9484,0.0516	-553.51
0.8942,0.1058	-554.59
0.9773,0.0227	-552.99
0.9686,0.0314	-553.14
0.9594,0.0406	-553.31
0.9638,0.0362	-553.23
0.9483,0.0517	-553.51
0.9023,0.0977	-554.42
0.9824,0.0176	-552.89
0.9724,0.0276	-553.07
0.9599,0.0401	-553.30
0.9664,0.0336	-553.18
0.9596,0.0404	-553.30
0.9007,0.0993	-554.45
0.9817,0.0183	-552.91
0.9594,0.0406	-553.31
0.9629,0.0371	-553.24
0.9693,0.0307	-553.13
0.9625,0.0375	-553.25
0.9270,0.0730	-553.92
0.9861,0.0139	-552.83
0.9623,0.0377	-553.26
0.9655,0.0345	-553.20
0.9746,0.0254	-553.03
0.9585,0.0415	-553.33
0.9178,0.0822	-554.11
0.9853,0.0147	-552.84
0.9657,0.0343	-553.19
0.9623,0.0377	-553.26
0.9705,0.0295	-553.11
0.9574,0.0426	-553.35
0.8923,0.1077	-554.63
0.9817,0.0183	-552.91
0.9730,0.0270	-553.06
0.9541,0.0459	-553.41
0.9695,0.0305	-553.12
0.9495,0.0505	-553.49
0.9039,0.0961	-554.39
0.9770,0.0230	-552.99
0.9730,0.0270	-553.06
0.9430,0.0570	-553.62
0.9724,0.0276	-553.07
0.9561,0.0439	-553.37
0.9148,0.0852	-554.17
0.9803,0.0197	-552.93
0.9713,0.0287	-553.09
0.9407,0.0593	-553.66
0.9734,0.0266	-553.06
0.9496,0.0504	-553.49
0.9296,0.0704	-553.87
0.9793,0.0207	-552.95
0.9757,0.0243	-553.01
0.9461,0.0539	-553.56
0.9710,0.0290	-553.10
0.9468,0.0532	-553.54
0.9407,0.0593	-553.66
0.9733,0.0267	-553.06
0.9788,0.0212	-552.96
0.9430,0.0570	-553.62
0.9720,0.0280	-553.08
0.9460,0.0540	-553.56
0.9411,0.0589	-553.65
0.9716,0.0284	-553.09
0.9828,0.0172	-552.89
0.9354,0.0646	-553.76
0.9698,0.0302	-553.12
0.9488,0.0512	-553.51
0.9322,0.0678	-553.82
0.9755,0.0245	-553.02
0.9823,0.0177	-552.90
0.9420,0.0580	-553.63
0.9623,0.0377	-553.26
0.9438,0.0562	-553.60
0.9311,0.0689	-553.84
0.9683,0.0317	-553.15
0.9840,0.0160	-552.87
0.9477,0.0523	-553.53
0.9570,0.0430	-553.35
0.9427,0.0573	-553.62
0.9331,0.0669	-553.81
0.9710,0.0290	-553.10
0.9818,0.0182	-552.90
0.9571,0.0429	-553.35
0.9318,0.0682	-553.83
0.9405,0.0595	-553.66
0.9438,0.0562	-553.60
0.9715,0.0285	-553.09
0.9852,0.0148	-552.85
0.9545,0.0455	-553.40
0.9244,0.0756	-553.98
0.9343,0.0657	-553.78
0.9269,0.0731	-553.93
0.9729,0.0271	-553.06
0.9858,0.0142	-552.84
0.9599,0.0401	-553.30
0.9251,0.0749	-553.96
0.9432,0.0568	-553.61
0.9369,0.0631	-553.73
0.9722,0.0278	-553.08
0.9835,0.0165	-552.88
0.9674,0.0326	-553.16
0.9260,0.0740	-553.94
0.9453,0.0547	-553.57
0.9274,0.0726	-553.92
0.9788,0.0212	-552.96
0.9770,0.0230	-552.99
0.9674,0.0326	-553.16
0.9258,0.0742	-553.95
0.9337,0.0663	-553.79
0.9413,0.0587	-553.65
0.9738,0.0262	-553.05
0.9830,0.0170	-552.88
0.9747,0.0253	-553.03
0.9284,0.0716	-553.90
0.9280,0.0720	-553.90
0.9491,0.0509	-553.50
0.9729,0.0271	-553.06
0.9784,0.0216	-552.97
0.9740,0.0260	-553.04
0.9292,0.0708	-553.88
0.9403,0.0597	-553.67
0.9422,0.0578	-553.63
0.9733,0.0267	-553.06
0.9773,0.0227	-552.98
0.9738,0.0262	-553.05
0.9183,0.0817	-554.10
0.9365,0.0635	-553.74
0.9517,0.0483	-553.45
0.9658,0.0342	-553.19
0.9754,0.0246	-553.02
0.9754,0.0246	-553.02
0.9376,0.0624	-553.72
0.9411,0.0589	-553.65
0.9557,0.0443	-553.38
0.9750,0.0250	-553.03
0.9771,0.0229	-552.99
0.9770,0.0230	-552.99
0.9401,0.0599	-553.67
0.9405,0.0595	-553.66
0.9599,0.0401	-553.30
0.9723,0.0277	-553.07
0.9815,0.0185	-552.91
0.9771,0.0229	-552.99
0.9498,0.0502	-553.49
0.9353,0.0647	-553.76
0.9695,0.0305	-553.13
0.9731,0.0269	-553.06
0.9834,0.0166	-552.88
0.9746,0.0254	-553.03
0.9535,0.0465	-553.42
0.9388,0.0612	-553.70
0.9647,0.0353	-553.21
0.9670,0.0330	-553.17
0.9802,0.0198	-552.93
0.9739,0.0261	-553.05
0.9612,0.0388	-553.28
0.9364,0.0636	-553.74
0.9607,0.0393	-553.29
0.9702,0.0298	-553.11
0.9802,0.0198	-552.93
0.9693,0.0307	-553.13
0.9500,0.0500	-553.48
0.9198,0.0802	-554.07
0.9728,0.0272	-553.07
0.9659,0.0341	-553.19
0.9834,0.0166	-552.88
0.9644,0.0356	-553.22
0.9434,0.0566	-553.61
0.9175,0.0825	-554.11
0.9709,0.0291	-553.10
0.9714,0.0286	-553.09
0.9824,0.0176	-552.89
0.9650,0.0350	-553.21
0.9434,0.0566	-553.61
0.9157,0.0843	-554.15
0.9682,0.0318	-553.15
0.9707,0.0293	-553.10
0.9814,0.0186	-552.91
0.9636,0.0364	-553.23
0.9536,0.0464	-553.42
0.9166,0.0834	-554.13
0.9713,0.0287	-553.09
0.9677,0.0323	-553.16
0.9810,0.0190	-552.92
0.9600,0.0400	-553.30
0.9394,0.0606	-553.68
0.9043,0.0957	-554.38
0.9719,0.0281	-553.08
0.9632,0.0368	-553.24
0.9811,0.0189	-552.92
0.9607,0.0393	-553.29
0.9296,0.0704	-553.87
0.8990,0.1010	-554.49
0.9680,0.0320	-553.15
0.9652,0.0348	-553.20
0.9804,0.0196	-552.93
0.9639,0.0361	-553.23
0.9171,0.0829	-554.12
0.8883,0.1117	-554.71
0.9617,0.0383	-553.27
0.9589,0.0411	-553.32
0.9770,0.0230	-552.99
0.9671,0.0329	-553.17
0.8951,0.1049	-554.57
0.8865,0.1135	-554.75
0.9654,0.0346	-553.20
0.9494,0.0506	-553.49
0.9765,0.0235	-553.00
0.9601,0.0399	-553.30
0.8836,0.1164	-554.81
0.8589,0.1411	-555.35
0.9678,0.0322	-553.16
0.9538,0.0462	-553.41
0.9810,0.0190	-552.92
0.9690,0.0310	-553.13
0.8700,0.1300	-555.10
0.8930,0.1070	-554.61
0.9633,0.0367	-553.24
0.9486,0.0514	-553.51
0.9782,0.0218	-552.97
0.9681,0.0319	-553.15
0.8830,0.1170	-554.82
0.9148,0.0852	-554.17
0.9504,0.0496	-553.48
0.9545,0.0455	-553.40
0.9730,0.0270	-553.06
0.9674,0.0326	-553.16
0.8849,0.1151	-554.78
0.9272,0.0728	-553.92
0.9543,0.0457	-553.40
0.9567,0.0433	-553.36
0.9608,0.0392	-553.28
0.9589,0.0411	-553.32
0.8686,0.1314	-555.14
0.9279,0.0721	-553.91
0.9448,0.0552	-553.58
0.9559,0.0441	-553.37
0.9638,0.0362	-553.23
0.9726,0.0274	-553.07
0.8863,0.1137	-554.75
0.9299,0.0701	-553.87
0.9379,0.0621	-553.71
0.9671,0.0329	-553.17
0.9633,0.0367	-553.24
0.9674,0.0326	-553.16
0.8777,0.1223	-554.94
0.9204,0.0796	-554.05
0.9408,0.0592	-553.66
0.9717,0.0283	-553.08
0.9656,0.0344	-553.19
0.9656,0.0344	-553.20
0.8752,0.1248	-554.99
0.9242,0.0758	-553.98
0.9213,0.0787	-554.04
0.9738,0.0262	-553.05
0.9638,0.0362	-553.23
0.9679,0.0321	-553.15
0.8870,0.1130	-554.74
0.9252,0.0748	-553.96
0.9292,0.0708	-553.88
0.9752,0.0248	-553.02
0.9656,0.0344	-553.20
0.9528,0.0472	-553.43
0.8788,0.1212	-554.91
0.9254,0.0746	-553.96
0.9364,0.0636	-553.74
0.9733,0.0267	-553.06
0.9650,0.0350	-553.21
0.9509,0.0491	-553.47
0.8828,0.1172	-554.83
0.9331,0.0669	-553.80
0.9356,0.0644	-553.76
0.9709,0.0291	-553.10
0.9699,0.0301	-553.12
0.9483,0.0517	-553.52
0.8901,0.1099	-554.67
0.9097,0.0903	-554.27
0.9363,0.0637	-553.74
0.9598,0.0402	-553.30
0.9689,0.0311	-553.14
0.9596,0.0404	-553.31
0.8830,0.1170	-554.82
0.9022,0.0978	-554.42
0.9237,0.0763	-553.99
0.9676,0.0324	-553.16
0.9713,0.0287	-553.09
0.9734,0.0266	-553.05
0.8995,0.1005	-554.48
0.9000,0.1000	-554.47
0.9033,0.0967	-554.40
0.9667,0.0333	-553.18
0.9722,0.0278	-553.08
0.9758,0.0242	-553.01
0.8821,0.1179	-554.84
0.8970,0.1030	-554.53
0.8897,0.1103	-554.68
0.9689,0.0311	-553.14
0.9683,0.0317	-553.15
0.9762,0.0238	-553.00
0.8667,0.1333	-555.18
0.9105,0.0895	-554.25
0.8739,0.1261	-555.02
0.9716,0.0284	-553.09
0.9567,0.0433	-553.36
0.9718,0.0282	-553.08
0.8813,0.1187	-554.86
0.8917,0.1083	-554.64
0.8809,0.1191	-554.87
0.9730,0.0270	-553.06
0.9583,0.0417	-553.33
0.9612,0.0388	-553.28
0.8322,0.1678	-555.97
0.8894,0.1106	-554.69
0.8580,0.1420	-555.37
0.9774,0.0226	-552.98
0.9586,0.0414	-553.32
0.9681,0.0319	-553.15
0.8228,0.1772	-556.19
0.9184,0.0816	-554.09
0.8286,0.1714	-556.05
0.9789,0.0211	-552.96
0.9596,0.0404	-553.30
0.9677,0.0323	-553.16
0.8173,0.1827	-556.33
0.8847,0.1153	-554.79
0.8390,0.1610	-555.81
0.9795,0.0205	-552.95
0.9635,0.0365	-553.23
0.9753,0.0247	-553.02
0.8082,0.1918	-556.55
0.8878,0.1122	-554.72
0.8659,0.1341	-555.19
0.9827,0.0173	-552.89
0.9636,0.0364	-553.23
0.9763,0.0237	-553.00
0.8391,0.1609	-555.80
0.8797,0.1203	-554.89
0.8964,0.1036	-554.54
0.9873,0.0127	-552.81
0.9696,0.0304	-553.12
0.9784,0.0216	-552.97
0.8528,0.1472	-555.49
0.8860,0.1140	-554.76
0.8764,0.1236	-554.97
0.9894,0.0106	-552.77
0.9629,0.0371	-553.25
0.9770,0.0230	-552.99
0.8329,0.1671	-555.95
0.8983,0.1017	-554.50
0.8604,0.1396	-555.32
0.9916,0.0084	-552.73
0.9465,0.0535	-553.55
0.9692,0.0308	-553.13
0.8477,0.1523	-555.60
0.8996,0.1004	-554.47
0.8529,0.1471	-555.49
0.9923,0.0077	-552.72
0.9555,0.0445	-553.38
0.9743,0.0257	-553.04
0.8539,0.1461	-555.46
0.8901,0.1099	-554.67
0.8415,0.1585	-555.75
0.9915,0.0085	-552.74
0.9584,0.0416	-553.33
0.9749,0.0251	-553.03
0.8447,0.1553	-555.67
0.8755,0.1245	-554.98
0.8660,0.1340	-555.19
0.9929,0.0071	-552.71
0.9515,0.0485	-553.46
0.9679,0.0321	-553.15
0.8650,0.1350	-555.22
0.8934,0.1066	-554.60
0.8811,0.1189	-554.86
0.9923,0.0077	-552.72
0.9578,0.0422	-553.34
0.9696,0.0304	-553.12
0.8597,0.1403	-555.33
0.8865,0.1135	-554.75
0.8967,0.1033	-554.54
0.9925,0.0075	-552.72
0.9581,0.0419	-553.33
0.9735,0.0265	-553.05
0.8592,0.1408	-555.34
0.9104,0.0896	-554.25
0.9080,0.0920	-554.30
0.9928,0.0072	-552.71
0.9363,0.0637	-553.74
0.9729,0.0271	-553.06
0.8635,0.1365	-555.25
0.9025,0.0975	-554.41
0.8778,0.1222	-554.93
0.9925,0.0075	-552.72
0.9499,0.0501	-553.49
0.9721,0.0279	-553.08
0.8676,0.1324	-555.16
0.9090,0.0910	-554.28
0.8745,0.1255	-555.01
0.9932,0.0068	-552.71
0.9504,0.0496	-553.48
0.9683,0.0317	-553.15
0.8532,0.1468	-555.48
0.8940,0.1060	-554.59
0.8852,0.1148	-554.78
0.9920,0.0080	-552.73
0.9371,0.0629	-553.73
0.9695,0.0305	-553.12
0.8590,0.1410	-555.35
0.8963,0.1037	-554.54
0.8645,0.1355	-555.23
0.9900,0.0100	-552.76
0.9453,0.0547	-553.57
0.9643,0.0357	-553.22
0.8171,0.1829	-556.33
0.9155,0.0845	-554.15
0.8521,0.1479	-555.50
0.9884,0.0116	-552.79
0.9430,0.0570	-553.62
0.9642,0.0358	-553.22
0.8195,0.1805	-556.27
0.9209,0.0791	-554.04
0.8709,0.1291	-555.09
0.9864,0.0136	-552.82
0.9397,0.0603	-553.68
0.9617,0.0383	-553.27
0.8124,0.1876	-556.45
0.9303,0.0697	-553.86
0.8649,0.1351	-555.22
0.9862,0.0138	-552.83
0.9483,0.0517	-553.52
0.9632,0.0368	-553.24
0.8485,0.1515	-555.59
0.9282,0.0718	-553.90
0.8742,0.1258	-555.01
0.9863,0.0137	-552.83
0.9465,0.0535	-553.55
0.9688,0.0312	-553.14
0.8625,0.1375	-555.27
0.9309,0.0691	-553.85
0.9009,0.0991	-554.45
0.9868,0.0132	-552.82
0.9530,0.0470	-553.43
0.9713,0.0287	-553.09
0.8622,0.1378	-555.28
0.9292,0.0708	-553.88
0.8718,0.1282	-555.07
0.9832,0.0168	-552.88
0.9498,0.0502	-553.49
0.9746,0.0254	-553.03
0.8754,0.1246	-554.99
0.9467,0.0533	-553.55
0.8875,0.1125	-554.73
0.9827,0.0173	-552.89
0.9617,0.0383	-553.27
0.9765,0.0235	-553.00
0.8797,0.1203	-554.89
0.9516,0.0484	-553.45
0.9106,0.0894	-554.25
0.9833,0.0167	-552.88
0.9616,0.0384	-553.27
0.9752,0.0248	-553.02
0.8847,0.1153	-554.79
0.9460,0.0540	-553.56
0.8907,0.1093	-554.66
0.9795,0.0205	-552.95
0.9679,0.0321	-553.15
0.9692,0.0308	-553.13
0.8761,0.1239	-554.97
0.9540,0.0460	-553.41
0.9041,0.0959	-554.38
0.9811,0.0189	-552.92
0.9750,0.0250	-553.03
0.9713,0.0287	-553.09
0.8790,0.1210	-554.91
0.9459,0.0541	-553.56
0.8790,0.1210	-554.91
0.9870,0.0130	-552.81
0.9751,0.0249	-553.03
0.9730,0.0270	-553.06
0.8703,0.1297	-555.10
0.9556,0.0444	-553.38
0.8768,0.1232	-554.96
0.9892,0.0108	-552.78
0.9749,0.0251	-553.03
0.9715,0.0285	-553.09
0.8673,0.1327	-555.16
0.9523,0.0477	-553.44
0.8938,0.1062	-554.59
0.9882,0.0118	-552.79
0.9714,0.0286	-553.09
0.9685,0.0315	-553.14
0.8683,0.1317	-555.14
0.9549,0.0451	-553.39
0.8741,0.1259	-555.02
0.9835,0.0165	-552.88
0.9780,0.0220	-552.97
0.9750,0.0250	-553.03
0.8893,0.1107	-554.69
0.9653,0.0347	-553.20
0.8713,0.1287	-555.08
0.9810,0.0190	-552.92
0.9733,0.0267	-553.06
0.9771,0.0229	-552.99
0.8909,0.1091	-554.66
0.9685,0.0315	-553.14
0.8904,0.1096	-554.67
0.9860,0.0140	-552.83
0.9732,0.0268	-553.06
0.9763,0.0237	-553.00
0.8996,0.1004	-554.47
0.9634,0.0366	-553.24
0.8777,0.1223	-554.94
0.9856,0.0144	-552.84
0.9700,0.0300	-553.12
0.9754,0.0246	-553.02
0.8915,0.1085	-554.64
0.9733,0.0267	-553.06
0.8678,0.1322	-555.15
0.9855,0.0145	-552.84
0.9750,0.0250	-553.03
0.9789,0.0211	-552.96
0.8982,0.1018	-554.50
0.9651,0.0349	-553.20
0.8744,0.1256	-555.01
0.9873,0.0127	-552.81
0.9703,0.0297	-553.11
0.9815,0.0185	-552.91
0.9126,0.0874	-554.21
0.9587,0.0413	-553.32
0.8830,0.1170	-554.82
0.9833,0.0167	-552.88
0.9709,0.0291	-553.10
0.9809,0.0191	-552.92
0.9135,0.0865	-554.19
0.9582,0.0418	-553.33
0.8876,0.1124	-554.73
0.9842,0.0158	-552.86
0.9756,0.0244	-553.02
0.9797,0.0203	-552.94
0.9094,0.0906	-554.27
0.9629,0.0371	-553.24
0.8683,0.1317	-555.14
0.9859,0.0141	-552.83
0.9785,0.0215	-552.96
0.9807,0.0193	-552.92
0.9030,0.0970	-554.40
0.9590,0.0410	-553.32
0.8426,0.1574	-555.72
0.9853,0.0147	-552.84
0.9788,0.0212	-552.96
0.9821,0.0179	-552.90
0.9022,0.0978	-554.42
0.9644,0.0356	-553.22
0.8520,0.1480	-555.51
0.9871,0.0129	-552.81
0.9821,0.0179	-552.90
0.9838,0.0162	-552.87
0.9183,0.0817	-554.10
0.9638,0.0362	-553.23
0.8475,0.1525	-555.61
0.9884,0.0116	-552.79
0.9855,0.0145	-552.84
0.9857,0.0143	-552.84
0.9146,0.0854	-554.17
0.9638,0.0362	-553.23
0.7859,0.2141	-557.12
0.9869,0.0131	-552.82
0.9847,0.0153	-552.85
0.9821,0.0179	-552.90
0.9241,0.0759	-553.98
0.9531,0.0469	-553.42
0.7872,0.2128	-557.09
0.9817,0.0183	-552.91
0.9832,0.0168	-552.88
0.9771,0.0229	-552.99
0.8992,0.1008	-554.48
0.9526,0.0474	-553.44
0.7979,0.2021	-556.81
0.9808,0.0192	-552.92
0.9809,0.0191	-552.92
0.9762,0.0238	-553.01
0.8966,0.1034	-554.54
0.9523,0.0477	-553.44
0.8126,0.1874	-556.44
0.9786,0.0214	-552.96
0.9813,0.0187	-552.91
0.9774,0.0226	-552.98
0.8951,0.1049	-554.57
0.9623,0.0377	-553.26
0.7611,0.2389	-557.80
0.9756,0.0244	-553.02
0.9814,0.0186	-552.91
0.9838,0.0162	-552.87
0.8753,0.1247	-554.99
0.9592,0.0408	-553.31
0.7696,0.2304	-557.56
0.9666,0.0334	-553.18
0.9795,0.0205	-552.95
0.9863,0.0137	-552.83
0.8735,0.1265	-555.03
0.9563,0.0437	-553.37
0.7762,0.2238	-557.38
0.9707,0.0293	-553.10
0.9818,0.0182	-552.91
0.9861,0.0139	-552.83
0.8784,0.1216	-554.92
0.9509,0.0491	-553.47
0.7538,0.2462	-558.00
0.9726,0.0274	-553.07
0.9824,0.0176	-552.89
0.9853,0.0147	-552.84
0.8785,0.1215	-554.92
0.9494,0.0506	-553.50
0.7596,0.2404	-557.83
0.9741,0.0259	-553.04
0.9802,0.0198	-552.93
0.9864,0.0136	-552.82
0.8594,0.1406	-555.34
0.9588,0.0412	-553.32
0.7817,0.2183	-557.24
0.9779,0.0221	-552.97
0.9836,0.0164	-552.87
0.9883,0.0117	-552.79
0.8777,0.1223	-554.94
0.9571,0.0429	-553.35
0.7825,0.2175	-557.21
0.9829,0.0171	-552.89
0.9819,0.0181	-552.90
0.9897,0.0103	-552.77
0.8862,0.1138	-554.76
0.9574,0.0426	-553.35
0.7940,0.2060	-556.91
0.9784,0.0216	-552.97
0.9791,0.0209	-552.95
0.9887,0.0113	-552.78
0.8849,0.1151	-554.78
0.9697,0.0303	-553.12
0.8181,0.1819	-556.31
0.9807,0.0193	-552.93
0.9804,0.0196	-552.93
0.9877,0.0123	-552.80
0.8742,0.1258	-555.01
0.9657,0.0343	-553.19
0.8167,0.1833	-556.34
0.9795,0.0205	-552.95
0.9749,0.0251	-553.03
0.9885,0.0115	-552.79
0.8830,0.1170	-554.82
0.9573,0.0427	-553.35
0.8306,0.1694	-556.01
0.9785,0.0215	-552.96
0.9786,0.0214	-552.96
0.9887,0.0113	-552.78
0.9048,0.0952	-554.37
0.9675,0.0325	-553.16
0.8361,0.1639	-555.88
0.9803,0.0197	-552.93
0.9706,0.0294	-553.11
0.9902,0.0098	-552.76
0.9117,0.0883	-554.23
0.9584,0.0416	-553.33
0.8707,0.1293	-555.09
0.9827,0.0173	-552.89
0.9626,0.0374	-553.25
0.9888,0.0112	-552.78
0.9077,0.0923	-554.31
0.9719,0.0281	-553.08
0.8472,0.1528	-555.62
0.9842,0.0158	-552.86
0.9633,0.0367	-553.24
0.9870,0.0130	-552.81
0.9180,0.0820	-554.10
0.9726,0.0274	-553.07
0.8412,0.1588	-555.76
0.9855,0.0145	-552.84
0.9616,0.0384	-553.27
0.9852,0.0148	-552.85
0.9089,0.0911	-554.28
0.9712,0.0288	-553.09
0.8343,0.1657	-555.92
0.9846,0.0154	-552.86
0.9593,0.0407	-553.31
0.9862,0.0138	-552.83
0.9090,0.0910	-554.28
0.9717,0.0283	-553.09
0.8260,0.1740	-556.12
0.9811,0.0189	-552.92
0.9594,0.0406	-553.31
0.9854,0.0146	-552.84
0.9114,0.0886	-554.23
0.9594,0.0406	-553.31
0.8316,0.1684	-555.98
0.9810,0.0190	-552.92
0.9699,0.0301	-553.12
0.9863,0.0137	-552.83
0.9006,0.0994	-554.45
0.9653,0.0347	-553.20
0.8247,0.1753	-556.15
0.9768,0.0232	-552.99
0.9743,0.0257	-553.04
0.9852,0.0148	-552.85
0.8949,0.1051	-554.57
0.9633,0.0367	-553.24
0.8184,0.1816	-556.30
0.9789,0.0211	-552.96
0.9650,0.0350	-553.21
0.9865,0.0135	-552.82
0.8888,0.1112	-554.70
0.9616,0.0384	-553.27
0.8473,0.1527	-555.61
0.9811,0.0189	-552.92
0.9642,0.0358	-553.22
0.9862,0.0138	-552.83
0.8939,0.1061	-554.59
0.9474,0.0526	-553.53
0.8602,0.1398	-555.32
0.9804,0.0196	-552.93
0.9630,0.0370	-553.24
0.9874,0.0126	-552.81
0.9005,0.0995	-554.46
0.9490,0.0510	-553.50
0.8719,0.1281	-555.06
0.9739,0.0261	-553.05
0.9658,0.0342	-553.19
0.9863,0.0137	-552.83
0.9152,0.0848	-554.16
0.9526,0.0474	-553.44
0.9101,0.0899	-554.26
0.9697,0.0303	-553.12
0.9553,0.0447	-553.39
0.9821,0.0179	-552.90
0.9057,0.0943	-554.35
0.9582,0.0418	-553.33
0.8910,0.1090	-554.65
0.9665,0.0335	-553.18
0.9549,0.0451	-553.39
0.9801,0.0199	-552.94
0.9049,0.0951	-554.37
0.9578,0.0422	-553.34
0.8879,0.1121	-554.72
0.9609,0.0391	-553.28
0.9599,0.0401	-553.30
0.9793,0.0207	-552.95
0.9162,0.0838	-554.14
0.9531,0.0469	-553.43
0.8908,0.1092	-554.66
0.9555,0.0445	-553.38
0.9721,0.0279	-553.08
0.9809,0.0191	-552.92
0.9067,0.0933	-554.33
0.9494,0.0506	-553.50
0.8866,0.1134	-554.75
0.9561,0.0439	-553.37
0.9727,0.0273	-553.07
0.9796,0.0204	-552.95
0.8912,0.1088	-554.65
0.9540,0.0460	-553.41
0.8730,0.1270	-555.04
0.9641,0.0359	-553.22
0.9764,0.0236	-553.00
0.9790,0.0210	-552.95
0.8630,0.1370	-555.26
0.9588,0.0412	-553.32
0.8704,0.1296	-555.10
0.9584,0.0416	-553.33
0.9752,0.0248	-553.02
0.9793,0.0207	-552.95
0.8636,0.1364	-555.25
0.9659,0.0341	-553.19
0.8970,0.1030	-554.53
0.9526,0.0474	-553.43
0.9790,0.0210	-552.95
0.9738,0.0262	-553.05
0.8573,0.1427	-555.39
0.9593,0.0407	-553.31
0.8981,0.1019	-554.51
0.9489,0.0511	-553.50
0.9825,0.0175	-552.89
0.9714,0.0286	-553.09
0.8701,0.1299	-555.10
0.9585,0.0415	-553.33
0.9052,0.0948	-554.36
0.9599,0.0401	-553.30
0.9835,0.0165	-552.88
0.9746,0.0254	-553.03
0.8427,0.1573	-555.72
0.9628,0.0372	-553.25
0.9153,0.0847	-554.16
0.9471,0.0529	-553.54
0.9870,0.0130	-552.81
0.9604,0.0396	-553.29
0.8282,0.1718	-556.06
0.9681,0.0319	-553.15
0.9012,0.0988	-554.44
0.9423,0.0577	-553.63
0.9850,0.0150	-552.85
0.9640,0.0360	-553.23
0.8497,0.1503	-555.56
0.9650,0.0350	-553.21
0.9044,0.0956	-554.38
0.9452,0.0548	-553.57
0.9856,0.0144	-552.84
0.9642,0.0358	-553.22
0.8343,0.1657	-555.92
0.9651,0.0349	-553.20
0.9040,0.0960	-554.38
0.9407,0.0593	-553.66
0.9840,0.0160	-552.87
0.9621,0.0379	-553.26
0.8529,0.1471	-555.49
0.9588,0.0412	-553.32
0.8918,0.1082	-554.64
0.9291,0.0709	-553.88
0.9846,0.0154	-552.86
0.9671,0.0329	-553.17
0.8318,0.1682	-555.98
0.9589,0.0411	-553.32
0.8775,0.1225	-554.94
0.9316,0.0684	-553.83
0.9801,0.0199	-552.94
0.9693,0.0307	-553.13
0.8635,0.1365	-555.25
0.9529,0.0471	-553.43
0.8864,0.1136	-554.75
0.9240,0.0760	-553.98
0.9777,0.0223	-552.98
0.9672,0.0328	-553.17
0.8527,0.1473	-555.49
0.9546,0.0454	-553.40
0.8886,0.1114	-554.70
0.9230,0.0770	-554.00
0.9823,0.0177	-552.90
0.9558,0.0442	-553.38
0.8471,0.1529	-555.62
0.9563,0.0437	-553.37
0.8966,0.1034	-554.54
0.9067,0.0933	-554.33
0.9805,0.0195	-552.93
0.9549,0.0451	-553.39
0.8379,0.1621	-555.83
0.9707,0.0293	-553.10
0.8962,0.1038	-554.55
0.8877,0.1123	-554.72
0.9695,0.0305	-553.13
0.9617,0.0383	-553.27
0.8251,0.1749	-556.14
0.9726,0.0274	-553.07
0.8708,0.1292	-555.09
0.8927,0.1073	-554.62
0.9722,0.0278	-553.08
0.9611,0.0389	-553.28
0.8398,0.1602	-555.79
0.9690,0.0310	-553.13
0.8767,0.1233	-554.96
0.9018,0.0982	-554.43
0.9763,0.0237	-553.00
0.9336,0.0664	-553.80
0.8512,0.1488	-555.53
0.9711,0.0289	-553.10
0.8715,0.1285	-555.07
0.9042,0.0958	-554.38
0.9680,0.0320	-553.15
0.9320,0.0680	-553.83
0.8595,0.1405	-555.34
0.9733,0.0267	-553.06
0.8718,0.1282	-555.06
0.9104,0.0896	-554.25
0.9694,0.0306	-553.13
0.9279,0.0721	-553.91
0.8740,0.1260	-555.02
0.9737,0.0263	-553.05
0.8560,0.1440	-555.42
0.9114,0.0886	-554.23
0.9700,0.0300	-553.12
0.9073,0.0927	-554.32
0.8655,0.1345	-555.20
0.9697,0.0303	-553.12
0.8278,0.1722	-556.07
0.9156,0.0844	-554.15
0.9683,0.0317	-553.15
0.9091,0.0909	-554.28
0.8398,0.1602	-555.79
0.9772,0.0228	-552.99
0.8560,0.1440	-555.42
0.8993,0.1007	-554.48
0.9706,0.0294	-553.10
0.9210,0.0790	-554.04
0.8597,0.1403	-555.33
0.9755,0.0245	-553.02
0.8387,0.1613	-555.81
0.8986,0.1014	-554.49
0.9729,0.0271	-553.06
0.9395,0.0605	-553.68
0.8871,0.1129	-554.74
0.9822,0.0178	-552.90
0.8550,0.1450	-555.44
0.8809,0.1191	-554.87
0.9705,0.0295	-553.11
0.9336,0.0664	-553.79
0.8686,0.1314	-555.13
0.9823,0.0177	-552.90
0.8389,0.1611	-555.81
0.8781,0.1219	-554.93
0.9662,0.0338	-553.19
0.9223,0.0777	-554.02
0.8663,0.1337	-555.19
0.9803,0.0197	-552.93
0.8509,0.1491	-555.53
0.8656,0.1344	-555.20
0.9601,0.0399	-553.30
0.9065,0.0935	-554.33
0.8743,0.1257	-555.01
0.9798,0.0202	-552.94
0.8662,0.1338	-555.19
0.8657,0.1343	-555.20
0.9646,0.0354	-553.21
0.8989,0.1011	-554.49
0.8733,0.1267	-555.03
0.9789,0.0211	-552.96
0.8399,0.1601	-555.79
0.8674,0.1326	-555.16
0.9624,0.0376	-553.25
0.9132,0.0868	-554.20
0.8875,0.1125	-554.73
0.9751,0.0249	-553.02
0.8189,0.1811	-556.29
0.8537,0.1463	-555.47
0.9678,0.0322	-553.16
0.9052,0.0948	-554.36
0.9069,0.0931	-554.32
0.9766,0.0234	-553.00
0.8560,0.1440	-555.42
0.8574,0.1426	-555.38
0.9638,0.0362	-553.23
0.9171,0.0829	-554.12
0.9226,0.0774	-554.01
0.9767,0.0233	-553.00
0.8528,0.1472	-555.49
0.8596,0.1404	-555.34
0.9668,0.0332	-553.17
0.9276,0.0724	-553.91
0.9299,0.0701	-553.87
0.9774,0.0226	-552.98
0.8425,0.1575	-555.73
0.8710,0.1290	-555.08
0.9674,0.0326	-553.16
0.9376,0.0624	-553.72
0.9285,0.0715	-553.90
0.9762,0.0238	-553.00
0.8371,0.1629	-555.85
0.8837,0.1163	-554.81
0.9625,0.0375	-553.25
0.9326,0.0674	-553.81
0.9369,0.0631	-553.73
0.9747,0.0253	-553.03
0.8150,0.1850	-556.38
0.8756,0.1244	-554.98
0.9657,0.0343	-553.19
0.9486,0.0514	-553.51
0.9415,0.0585	-553.64
0.9675,0.0325	-553.16
0.8505,0.1495	-555.54
0.8815,0.1185	-554.85
0.9668,0.0332	-553.17
0.9468,0.0532	-553.54
0.9364,0.0636	-553.74
0.9645,0.0355	-553.22
0.8779,0.1221	-554.93
0.8689,0.1311	-555.13
0.9639,0.0361	-553.23
0.9420,0.0580	-553.64
0.9537,0.0463	-553.42
0.9745,0.0255	-553.04
0.8881,0.1119	-554.71
0.8662,0.1338	-555.19
0.9555,0.0445	-553.38
0.9547,0.0453	-553.40
0.9665,0.0335	-553.18
0.9718,0.0282	-553.08
0.8836,0.1164	-554.81
0.8738,0.1262	-555.02
0.9508,0.0492	-553.47
0.9633,0.0367	-553.24
0.9664,0.0336	-553.18
0.9720,0.0280	-553.08
0.9038,0.0962	-554.39
0.8888,0.1112	-554.70
0.9489,0.0511	-553.50
0.9639,0.0361	-553.23
0.9686,0.0314	-553.14
0.9653,0.0347	-553.20
0.9087,0.0913	-554.29
0.8936,0.1064	-554.60
0.9577,0.0423	-553.34
0.9584,0.0416	-553.33
0.9671,0.0329	-553.17
0.9664,0.0336	-553.18
0.9091,0.0909	-554.28
0.9057,0.0943	-554.35
0.9539,0.0461	-553.41
0.9504,0.0496	-553.48
0.9713,0.0287	-553.09
0.9671,0.0329	-553.17
0.9248,0.0752	-553.97
0.8977,0.1023	-554.51
0.9514,0.0486	-553.46
0.9542,0.0458	-553.40
0.9677,0.0323	-553.16
0.9684,0.0316	-553.14
0.9386,0.0614	-553.70
0.8733,0.1267	-555.03
0.9476,0.0524	-553.53
0.9578,0.0422	-553.34
0.9690,0.0310	-553.13
0.9703,0.0297	-553.11
0.9243,0.0757	-553.98
0.8703,0.1297	-555.10
0.9482,0.0518	-553.52
0.9526,0.0474	-553.44
0.9762,0.0238	-553.00
0.9675,0.0325	-553.16
0.9134,0.0866	-554.19
0.8744,0.1256	-555.01
0.9617,0.0383	-553.27
0.9452,0.0548	-553.57
0.9729,0.0271	-553.06
0.9733,0.0267	-553.06
0.9232,0.0768	-554.00
0.8882,0.1118	-554.71
0.9596,0.0404	-553.31
0.9547,0.0453	-553.40
0.9723,0.0277	-553.07
0.9756,0.0244	-553.02
0.9254,0.0746	-553.96
0.8907,0.1093	-554.66
0.9560,0.0440	-553.37
0.9554,0.0446	-553.38
0.9765,0.0235	-553.00
0.9762,0.0238	-553.01
0.9084,0.0916	-554.29
0.9121,0.0879	-554.22
0.9567,0.0433	-553.36
0.9623,0.0377	-553.26
0.9781,0.0219	-552.97
0.9790,0.0210	-552.96
0.9219,0.0781	-554.02
0.9133,0.0867	-554.20
0.9507,0.0493	-553.47
0.9693,0.0307	-553.13
0.9774,0.0226	-552.98
0.9777,0.0223	-552.98
0.9265,0.0735	-553.93
0.8949,0.1051	-554.57
0.9549,0.0451	-553.39
0.9746,0.0254	-553.03
0.9757,0.0243	-553.01
0.9833,0.0167	-552.88
0.9230,0.0770	-554.00
0.8996,0.1004	-554.47
0.9563,0.0437	-553.37
0.9733,0.0267	-553.06
0.9757,0.0243	-553.01
0.9823,0.0177	-552.90
0.9361,0.0639	-553.75
0.9035,0.0965	-554.39
0.9596,0.0404	-553.30
0.9778,0.0222	-552.98
0.9762,0.0238	-553.01
0.9826,0.0174	-552.89
0.9324,0.0676	-553.82
0.9127,0.0873	-554.21
0.9555,0.0445	-553.38
0.9772,0.0228	-552.99
0.9702,0.0298	-553.11
0.9812,0.0188	-552.92
0.9443,0.0557	-553.59
0.9112,0.0888	-554.24
0.9522,0.0478	-553.44
0.9746,0.0254	-553.03
0.9669,0.0331	-553.17
0.9797,0.0203	-552.94
0.9410,0.0590	-553.65
0.9183,0.0817	-554.10
0.9596,0.0404	-553.31
0.9767,0.0233	-553.00
0.9607,0.0393	-553.28
0.9759,0.0241	-553.01
0.9403,0.0597	-553.67
0.9171,0.0829	-554.12
0.9534,0.0466	-553.42
0.9803,0.0197	-552.93
0.9565,0.0435	-553.36
0.9739,0.0261	-553.05
0.9423,0.0577	-553.63
0.9161,0.0839	-554.14
0.9497,0.0503	-553.49
0.9818,0.0182	-552.90
0.9545,0.0455	-553.40
0.9782,0.0218	-552.97
0.9403,0.0597	-553.67
0.9284,0.0716	-553.90
0.9520,0.0480	-553.45
0.9785,0.0215	-552.96
0.9460,0.0540	-553.56
0.9741,0.0259	-553.04
0.9506,0.0494	-553.47
0.9283,0.0717	-553.90
0.9568,0.0432	-553.36
0.9790,0.0210	-552.96
0.9514,0.0486	-553.46
0.9748,0.0252	-553.03
0.9364,0.0636	-553.74
0.9328,0.0672	-553.81
0.9593,0.0407	-553.31
0.9815,0.0185	-552.91
0.9600,0.0400	-553.30
0.9770,0.0230	-552.99
0.9329,0.0671	-553.81
0.9334,0.0666	-553.80
0.9569,0.0431	-553.36
0.9809,0.0191	-552.92
0.9517,0.0483	-553.45
0.9754,0.0246	-553.02
0.9227,0.0773	-554.01
0.9383,0.0617	-553.70
0.9484,0.0516	-553.51
0.9759,0.0241	-553.01
0.9456,0.0544	-553.57
0.9722,0.0278	-553.08
0.9331,0.0669	-553.80
0.9359,0.0641	-553.75
0.9430,0.0570	-553.62
0.9737,0.0263	-553.05
0.9447,0.0553	-553.58
0.9772,0.0228	-552.99
0.9314,0.0686	-553.84
0.9267,0.0733	-553.93
0.9392,0.0608	-553.69
0.9731,0.0269	-553.06
0.9605,0.0395	-553.29
0.9706,0.0294	-553.11
0.9148,0.0852	-554.17
0.9253,0.0747	-553.96
0.9356,0.0644	-553.76
0.9726,0.0274	-553.07
0.9606,0.0394	-553.29
0.9723,0.0277	-553.08
0.9258,0.0742	-553.95
0.9220,0.0780	-554.02
0.9490,0.0510	-553.50
0.9764,0.0236	-553.00
0.9592,0.0408	-553.31
0.9678,0.0322	-553.16
0.9278,0.0722	-553.91
0.9249,0.0751	-553.96
0.9511,0.0489	-553.46
0.9725,0.0275	-553.07
0.9479,0.0521	-553.52
0.9700,0.0300	-553.12
0.9321,0.0679	-553.82
0.9351,0.0649	-553.77
0.9555,0.0445	-553.38
0.9670,0.0330	-553.17
0.9422,0.0578	-553.63
0.9764,0.0236	-553.00
0.9277,0.0723	-553.91
0.9271,0.0729	-553.92
0.9487,0.0513	-553.51
0.9626,0.0374	-553.25
0.9500,0.0500	-553.48
0.9773,0.0227	-552.99
0.9295,0.0705	-553.87
0.9234,0.0766	-553.99
0.9358,0.0642	-553.75
0.9544,0.0456	-553.40
0.9493,0.0507	-553.50
0.9782,0.0218	-552.97
0.9315,0.0685	-553.84
0.9235,0.0765	-553.99
0.9275,0.0725	-553.91
0.9539,0.0461	-553.41
0.9536,0.0464	-553.42
0.9746,0.0254	-553.03
0.9343,0.0657	-553.78
0.9162,0.0838	-554.14
0.9333,0.0667	-553.80
0.9615,0.0385	-553.27
0.9573,0.0427	-553.35
0.9745,0.0255	-553.03
0.9341,0.0659	-553.79
0.9103,0.0897	-554.26
0.9444,0.0556	-553.59
0.9517,0.0483	-553.45
0.9633,0.0367	-553.24
0.9720,0.0280	-553.08
0.9494,0.0506	-553.49
0.9183,0.0817	-554.10
0.9490,0.0510	-553.50
0.9442,0.0558	-553.59
0.9639,0.0361	-553.23
0.9729,0.0271	-553.06
0.9610,0.0390	-553.28
0.9269,0.0731	-553.93
0.9583,0.0417	-553.33
0.9455,0.0545	-553.57
0.9646,0.0354	-553.21
0.9718,0.0282	-553.08
0.9575,0.0425	-553.34
0.9239,0.0761	-553.98
0.9563,0.0437	-553.37
0.9454,0.0546	-553.57
0.9589,0.0411	-553.32
0.9771,0.0229	-552.99
0.9648,0.0352	-553.21
0.9216,0.0784	-554.03
0.9501,0.0499	-553.48
0.9357,0.0643	-553.76
0.9675,0.0325	-553.16
0.9778,0.0222	-552.98
0.9696,0.0304	-553.12
0.9079,0.0921	-554.30
0.9403,0.0597	-553.67
0.9284,0.0716	-553.90
0.9698,0.0302	-553.12
0.9777,0.0223	-552.98
0.9690,0.0310	-553.13
0.9105,0.0895	-554.25
0.9432,0.0568	-553.61
0.9405,0.0595	-553.66
0.9598,0.0402	-553.30
0.9784,0.0216	-552.97
0.9634,0.0366	-553.24
0.8854,0.1146	-554.77
0.9383,0.0617	-553.70
0.9450,0.0550	-553.58
0.9628,0.0372	-553.25
0.9738,0.0262	-553.05
0.9617,0.0383	-553.27
0.8584,0.1416	-555.36
0.9450,0.0550	-553.58
0.9528,0.0472	-553.43
0.9548,0.0452	-553.39
0.9677,0.0323	-553.16
0.9435,0.0565	-553.61
0.8584,0.1416	-555.36
0.9583,0.0417	-553.33
0.9570,0.0430	-553.35
0.9387,0.0613	-553.70
0.9671,0.0329	-553.17
0.9559,0.0441	-553.37
0.8708,0.1292	-555.09
0.9671,0.0329	-553.17
0.9566,0.0434	-553.36
0.9450,0.0550	-553.58
0.9624,0.0376	-553.25
0.9649,0.0351	-553.21
0.8656,0.1344	-555.20
0.9664,0.0336	-553.18
0.9639,0.0361	-553.23
0.9529,0.0471	-553.43
0.9546,0.0454	-553.40
0.9723,0.0277	-553.07
0.8855,0.1145	-554.77
0.9711,0.0289	-553.10
0.9645,0.0355	-553.22
0.9502,0.0498	-553.48
0.9544,0.0456	-553.40
0.9792,0.0208	-552.95
0.8889,0.1111	-554.70
0.9625,0.0375	-553.25
0.9623,0.0377	-553.26
0.9450,0.0550	-553.58
0.9585,0.0415	-553.33
0.9765,0.0235	-553.00
0.8917,0.1083	-554.64
0.9488,0.0512	-553.51
0.9633,0.0367	-553.24
0.9393,0.0607	-553.69
0.9582,0.0418	-553.33
0.9739,0.0261	-553.05
0.8754,0.1246	-554.99
0.9362,0.0638	-553.75
0.9592,0.0408	-553.31
0.9358,0.0642	-553.75
0.9611,0.0389	-553.28
0.9672,0.0328	-553.17
0.8487,0.1513	-555.58
0.9289,0.0711	-553.89
0.9590,0.0410	-553.32
0.9428,0.0572	-553.62
0.9676,0.0324	-553.16
0.9678,0.0322	-553.16
0.8805,0.1195	-554.88
0.9335,0.0665	-553.80
0.9700,0.0300	-553.12
0.9415,0.0585	-553.64
0.9610,0.0390	-553.28
0.9641,0.0359	-553.22
0.9067,0.0933	-554.33
0.9202,0.0798	-554.06
0.9720,0.0280	-553.08
0.9505,0.0495	-553.47
0.9544,0.0456	-553.40
0.9596,0.0404	-553.31
0.8948,0.1052	-554.57
0.9064,0.0936	-554.34
0.9722,0.0278	-553.08
0.9573,0.0427	-553.35
0.9451,0.0549	-553.58
0.9507,0.0493	-553.47
0.8748,0.1252	-555.00
0.9054,0.0946	-554.36
0.9723,0.0277	-553.07
0.9622,0.0378	-553.26
0.9541,0.0459	-553.41
0.9445,0.0555	-553.59
0.8835,0.1165	-554.81
0.9003,0.0997	-554.46
0.9785,0.0215	-552.96
0.9627,0.0373	-553.25
0.9520,0.0480	-553.45
0.9543,0.0457	-553.40
0.8977,0.1023	-554.51
0.9034,0.0966	-554.40
0.9828,0.0172	-552.89
0.9591,0.0409	-553.31
0.9461,0.0539	-553.56
0.9628,0.0372	-553.25
0.9083,0.0917	-554.30
0.9226,0.0774	-554.01
0.9829,0.0171	-552.89
0.9609,0.0391	-553.28
0.9586,0.0414	-553.32
0.9609,0.0391	-553.28
0.9175,0.0825	-554.11
0.9260,0.0740	-553.94
0.9862,0.0138	-552.83
0.9500,0.0500	-553.48
0.9554,0.0446	-553.38
0.9617,0.0383	-553.27
0.9079,0.0921	-554.30
0.9074,0.0926	-554.32
0.9891,0.0109	-552.78
0.9545,0.0455	-553.40
0.9577,0.0423	-553.34
0.9571,0.0429	-553.35
0.8861,0.1139	-554.76
0.8965,0.1035	-554.54
0.9868,0.0132	-552.82
0.9617,0.0383	-553.27
0.9678,0.0322	-553.16
0.9586,0.0414	-553.32
0.8739,0.1261	-555.02
0.8791,0.1209	-554.91
0.9873,0.0127	-552.81
0.9692,0.0308	-553.13
0.9696,0.0304	-553.12
0.9481,0.0519	-553.52
0.8845,0.1155	-554.79
0.8861,0.1139	-554.76
0.9863,0.0137	-552.83
0.9673,0.0327	-553.17
0.9758,0.0242	-553.01
0.9555,0.0445	-553.38
0.8913,0.1087	-554.65
0.9150,0.0850	-554.16
0.9887,0.0113	-552.78
0.9611,0.0389	-553.28
0.9717,0.0283	-553.09
0.9578,0.0422	-553.34
0.8947,0.1053	-554.58
0.9318,0.0682	-553.83
0.9873,0.0127	-552.81
0.9508,0.0492	-553.47
0.9656,0.0344	-553.20
0.9510,0.0490	-553.46
0.8960,0.1040	-554.55
0.9452,0.0548	-553.57
0.9845,0.0155	-552.86
0.9587,0.0413	-553.32
0.9738,0.0262	-553.05
0.9516,0.0484	-553.45
0.9080,0.0920	-554.30
0.9562,0.0438	-553.37
0.9830,0.0170	-552.88
0.9553,0.0447	-553.39
0.9752,0.0248	-553.02
0.9555,0.0445	-553.38
0.9126,0.0874	-554.21
0.9566,0.0434	-553.36
0.9811,0.0189	-552.92
0.9598,0.0402	-553.30
0.9788,0.0212	-552.96
0.9543,0.0457	-553.40
0.9023,0.0977	-554.42
0.9539,0.0461	-553.41
0.9817,0.0183	-552.91
0.9576,0.0424	-553.34
0.9780,0.0220	-552.97
0.9549,0.0451	-553.39
0.8974,0.1026	-554.52
0.9593,0.0407	-553.31
0.9757,0.0243	-553.01
0.9515,0.0485	-553.46
0.9788,0.0212	-552.96
0.9610,0.0390	-553.28
0.8928,0.1072	-554.62
0.9565,0.0435	-553.36
0.9807,0.0193	-552.93
0.9465,0.0535	-553.55
0.9813,0.0187	-552.92
0.9617,0.0383	-553.27
0.9175,0.0825	-554.11
0.9536,0.0464	-553.42
0.9823,0.0177	-552.90
0.9308,0.0692	-553.85
0.9818,0.0182	-552.91
0.9597,0.0403	-553.30
0.9328,0.0672	-553.81
0.9632,0.0368	-553.24
0.9803,0.0197	-552.93
0.9261,0.0739	-553.94
0.9804,0.0196	-552.93
0.9580,0.0420	-553.34
0.9373,0.0627	-553.72
0.9646,0.0354	-553.21
0.9738,0.0262	-553.05
0.9346,0.0654	-553.78
0.9817,0.0183	-552.91
0.9677,0.0323	-553.16
0.9472,0.0528	-553.54
0.9604,0.0396	-553.29
0.9768,0.0232	-552.99
0.9430,0.0570	-553.62
0.9836,0.0164	-552.87
0.9677,0.0323	-553.16
0.9479,0.0521	-553.52
0.9568,0.0432	-553.36
0.9758,0.0242	-553.01
0.9476,0.0524	-553.53
0.9858,0.0142	-552.84
0.9681,0.0319	-553.15
0.9546,0.0454	-553.40
0.9556,0.0444	-553.38
0.9753,0.0247	-553.02
0.9500,0.0500	-553.48
0.9832,0.0168	-552.88
0.9713,0.0287	-553.09
0.9629,0.0371	-553.25
0.9625,0.0375	-553.25
0.9793,0.0207	-552.95
0.9467,0.0533	-553.55
0.9852,0.0148	-552.85
0.9778,0.0222	-552.98
0.9549,0.0451	-553.39
0.9712,0.0288	-553.09
0.9809,0.0191	-552.92
0.9324,0.0676	-553.82
0.9840,0.0160	-552.87
0.9799,0.0201	-552.94
0.9569,0.0431	-553.35
0.9718,0.0282	-553.08
0.9811,0.0189	-552.92
0.9363,0.0637	-553.74
0.9855,0.0145	-552.84
0.9862,0.0138	-552.83
0.9594,0.0406	-553.31
0.9665,0.0335	-553.18
0.9757,0.0243	-553.01
0.9327,0.0673	-553.81
0.9843,0.0157	-552.86
0.9848,0.0152	-552.85
0.9580,0.0420	-553.34
0.9681,0.0319	-553.15
0.9767,0.0233	-553.00
0.9370,0.0630	-553.73
0.9845,0.0155	-552.86
0.9846,0.0154	-552.86
0.9573,0.0427	-553.35
0.9740,0.0260	-553.04
0.9743,0.0257	-553.04
0.9467,0.0533	-553.55
0.9866,0.0134	-552.82
0.9870,0.0130	-552.81
0.9604,0.0396	-553.29
0.9733,0.0267	-553.06
0.9744,0.0256	-553.04
0.9403,0.0597	-553.67
0.9879,0.0121	-552.80
0.9851,0.0149	-552.85
0.9589,0.0411	-553.32
0.9738,0.0262	-553.05
0.9737,0.0263	-553.05
0.9481,0.0519	-553.52
0.9851,0.0149	-552.85
0.9856,0.0144	-552.84
0.9573,0.0427	-553.35
0.9741,0.0259	-553.04
0.9738,0.0262	-553.05
0.9496,0.0504	-553.49
0.9850,0.0150	-552.85
0.9862,0.0138	-552.83
0.9596,0.0404	-553.30
0.9716,0.0284	-553.09
0.9746,0.0254	-553.03
0.9516,0.0484	-553.45
0.9849,0.0151	-552.85
0.9847,0.0153	-552.85
0.9589,0.0411	-553.32
0.9675,0.0325	-553.16
0.9735,0.0265	-553.05
0.9491,0.0509	-553.50
0.9873,0.0127	-552.81
0.9839,0.0161	-552.87
0.9588,0.0412	-553.32
0.9604,0.0396	-553.29
0.9745,0.0255	-553.04
0.9421,0.0579	-553.63
0.9872,0.0128	-552.81
0.9847,0.0153	-552.85
0.9555,0.0445	-553.38
0.9604,0.0396	-553.29
0.9693,0.0307	-553.13
0.9299,0.0701	-553.87
0.9881,0.0119	-552.80
0.9895,0.0105	-552.77
0.9458,0.0542	-553.56
0.9546,0.0454	-553.40
0.9708,0.0292	-553.10
0.9315,0.0685	-553.84
0.9914,0.0086	-552.74
0.9921,0.0079	-552.73
0.9535,0.0465	-553.42
0.9414,0.0586	-553.65
0.9685,0.0315	-553.14
0.9150,0.0850	-554.16
0.9901,0.0099	-552.76
0.9909,0.0091	-552.75
0.9496,0.0504	-553.49
0.9302,0.0698	-553.86
0.9679,0.0321	-553.15
0.9215,0.0785	-554.03
0.9894,0.0106	-552.77
0.9919,0.0081	-552.73
0.9485,0.0515	-553.51
0.9138,0.0862	-554.19
0.9664,0.0336	-553.18
0.9074,0.0926	-554.31
0.9890,0.0110	-552.78
0.9899,0.0101	-552.76
0.9527,0.0473	-553.43
0.9185,0.0815	-554.09
0.9666,0.0334	-553.18
0.8925,0.1075	-554.62
0.9898,0.0102	-552.77
0.9906,0.0094	-552.75
0.9676,0.0324	-553.16
0.9246,0.0754	-553.97
0.9664,0.0336	-553.18
0.8878,0.1122	-554.72
0.9909,0.0091	-552.75
0.9887,0.0113	-552.78
0.9648,0.0352	-553.21
0.9232,0.0768	-554.00
0.9686,0.0314	-553.14
0.8957,0.1043	-554.56
0.9915,0.0085	-552.74
0.9892,0.0108	-552.78
0.9515,0.0485	-553.46
0.9060,0.0940	-554.34
0.9728,0.0272	-553.06
0.9248,0.0752	-553.97
0.9914,0.0086	-552.74
0.9911,0.0089	-552.74
0.9639,0.0361	-553.23
0.9131,0.0869	-554.20
0.9718,0.0282	-553.08
0.9232,0.0768	-554.00
0.9928,0.0072	-552.71
0.9894,0.0106	-552.77
0.9559,0.0441	-553.37
0.9260,0.0740	-553.94
0.9769,0.0231	-552.99
0.9315,0.0685	-553.84
0.9945,0.0055	-552.68
0.9880,0.0120	-552.80
0.9492,0.0508	-553.50
0.9375,0.0625	-553.72
0.9789,0.0211	-552.96
0.9353,0.0647	-553.76
0.9945,0.0055	-552.68
0.9856,0.0144	-552.84
0.9558,0.0442	-553.38
0.9311,0.0689	-553.84
0.9768,0.0232	-552.99
0.9196,0.0804	-554.07
0.9953,0.0047	-552.67
0.9875,0.0125	-552.80
0.9613,0.0387	-553.27
0.9161,0.0839	-554.14
0.9690,0.0310	-553.13
0.9229,0.0771	-554.00
0.9951,0.0049	-552.67
0.9852,0.0148	-552.85
0.9726,0.0274	-553.07
0.9254,0.0746	-553.96
0.9718,0.0282	-553.08
0.9193,0.0807	-554.08
0.9935,0.0065	-552.70
0.9846,0.0154	-552.86
0.9686,0.0314	-553.14
0.9278,0.0722	-553.91
0.9708,0.0292	-553.10
0.9221,0.0779	-554.02
0.9944,0.0056	-552.69
0.9858,0.0142	-552.84
0.9658,0.0342	-553.19
0.9179,0.0821	-554.10
0.9654,0.0346	-553.20
0.9317,0.0683	-553.83
0.9946,0.0054	-552.68
0.9809,0.0191	-552.92
0.9574,0.0426	-553.35
0.8979,0.1021	-554.51
0.9590,0.0410	-553.32
0.9267,0.0733	-553.93
0.9944,0.0056	-552.69
0.9801,0.0199	-552.94
0.9642,0.0358	-553.22
0.8738,0.1262	-555.02
0.9641,0.0359	-553.22
0.9225,0.0775	-554.01
0.9917,0.0083	-552.73
0.9717,0.0283	-553.09
0.9654,0.0346	-553.20
0.8430,0.1570	-555.71
0.9585,0.0415	-553.33
0.9242,0.0758	-553.98
0.9925,0.0075	-552.72
0.9618,0.0382	-553.27
0.9617,0.0383	-553.27
0.8399,0.1601	-555.79
0.9490,0.0510	-553.50
0.9086,0.0914	-554.29
0.9930,0.0070	-552.71
0.9568,0.0432	-553.36
0.9606,0.0394	-553.29
0.8494,0.1506	-555.57
0.9390,0.0610	-553.69
0.9116,0.0884	-554.23
0.9938,0.0062	-552.70
0.9460,0.0540	-553.56
0.9589,0.0411	-553.32
0.8512,0.1488	-555.52
0.9430,0.0570	-553.62
0.9180,0.0820	-554.10
0.9945,0.0055	-552.68
0.9618,0.0382	-553.26
0.9540,0.0460	-553.41
0.8813,0.1187	-554.86
0.9250,0.0750	-553.96
0.9142,0.0858	-554.18
0.9933,0.0067	-552.70
0.9548,0.0452	-553.39
0.9438,0.0562	-553.60
0.8938,0.1062	-554.60
0.9371,0.0629	-553.73
0.9212,0.0788	-554.04
0.9937,0.0063	-552.70
0.9627,0.0373	-553.25
0.9392,0.0608	-553.69
0.8949,0.1051	-554.57
0.9285,0.0715	-553.89
0.9177,0.0823	-554.11
0.9914,0.0086	-552.74
0.9573,0.0427	-553.35
0.9453,0.0547	-553.57
0.8948,0.1052	-554.57
0.9224,0.0776	-554.01
0.9237,0.0763	-553.99
0.9914,0.0086	-552.74
0.9664,0.0336	-553.18
0.9648,0.0352	-553.21
0.8860,0.1140	-554.76
0.9065,0.0935	-554.33
0.9244,0.0756	-553.98
0.9930,0.0070	-552.71
0.9684,0.0316	-553.14
0.9608,0.0392	-553.28
0.8873,0.1127	-554.73
0.8924,0.1076	-554.62
0.9298,0.0702	-553.87
0.9943,0.0057	-552.69
0.9556,0.0444	-553.38
0.9511,0.0489	-553.46
0.8542,0.1458	-555.46
0.8747,0.1253	-555.00
0.9185,0.0815	-554.09
0.9955,0.0045	-552.67
0.9499,0.0501	-553.48
0.9520,0.0480	-553.45
0.8471,0.1529	-555.62
0.9038,0.0962	-554.39
0.9194,0.0806	-554.07
0.9936,0.0064	-552.70
0.9556,0.0444	-553.38
0.9534,0.0466	-553.42
0.8428,0.1572	-555.72
0.9349,0.0651	-553.77
0.8955,0.1045	-554.56
0.9930,0.0070	-552.71
0.9535,0.0465	-553.42
0.9587,0.0413	-553.32
0.8790,0.1210	-554.91
0.9542,0.0458	-553.40
0.8676,0.1324	-555.16
0.9928,0.0072	-552.71
0.9478,0.0522	-553.52
0.9522,0.0478	-553.44
0.9015,0.0985	-554.44
0.9571,0.0429	-553.35
0.8654,0.1346	-555.21
0.9924,0.0076	-552.72
0.9509,0.0491	-553.47
0.9527,0.0473	-553.43
0.9099,0.0901	-554.26
0.9672,0.0328	-553.17
0.8606,0.1394	-555.31
0.9915,0.0085	-552.74
0.9610,0.0390	-553.28
0.9449,0.0551	-553.58
0.9240,0.0760	-553.98
0.9703,0.0297	-553.11
0.8916,0.1084	-554.64
0.9920,0.0080	-552.73
0.9535,0.0465	-553.42
0.9527,0.0473	-553.43
0.9276,0.0724	-553.91
0.9696,0.0304	-553.12
0.9030,0.0970	-554.40
0.9929,0.0071	-552.71
0.9562,0.0438	-553.37
0.9561,0.0439	-553.37
0.9219,0.0781	-554.02
0.9621,0.0379	-553.26
0.9183,0.0817	-554.10
0.9926,0.0074	-552.72
0.9471,0.0529	-553.54
0.9525,0.0475	-553.44
0.9169,0.0831	-554.12
0.9563,0.0437	-553.37
0.9210,0.0790	-554.04
0.9928,0.0072	-552.71
0.9416,0.0584	-553.64
0.9557,0.0443	-553.38
0.9277,0.0723	-553.91
0.9633,0.0367	-553.24
0.9091,0.0909	-554.28
0.9919,0.0081	-552.73
0.9238,0.0762	-553.99
0.9439,0.0561	-553.60
0.9324,0.0676	-553.82
0.9621,0.0379	-553.26
0.9308,0.0692	-553.85
0.9911,0.0089	-552.74
0.9338,0.0662	-553.79
0.9297,0.0703	-553.87
0.9320,0.0680	-553.83
0.9664,0.0336	-553.18
0.9337,0.0663	-553.79
0.9922,0.0078	-552.72
0.9230,0.0770	-554.00
0.9310,0.0690	-553.85
0.9328,0.0672	-553.81
0.9616,0.0384	-553.27
0.9201,0.0799	-554.06
0.9911,0.0089	-552.74
0.9250,0.0750	-553.96
0.9279,0.0721	-553.91
0.9316,0.0684	-553.83
0.9658,0.0342	-553.19
0.9001,0.0999	-554.46
0.9915,0.0085	-552.74
0.9244,0.0756	-553.97
0.9230,0.0770	-554.00
0.9318,0.0682	-553.83
0.9671,0.0329	-553.17
0.9021,0.0979	-554.42
0.9911,0.0089	-552.74
0.9192,0.0808	-554.08
0.9269,0.0731	-553.92
0.9321,0.0679	-553.83
0.9633,0.0367	-553.24
0.9019,0.0981	-554.43
0.9902,0.0098	-552.76
0.9016,0.0984	-554.43
0.9205,0.0795	-554.05
0.9182,0.0818	-554.10
0.9564,0.0436	-553.36
0.9041,0.0959	-554.38
0.9893,0.0107	-552.77
0.8777,0.1223	-554.94
0.9050,0.0950	-554.36
0.9310,0.0690	-553.85
0.9612,0.0388	-553.28
0.9056,0.0944	-554.35
0.9882,0.0118	-552.79
0.8782,0.1218	-554.93
0.9213,0.0787	-554.04
0.9327,0.0673	-553.81
0.9740,0.0260	-553.04
0.9020,0.0980	-554.42
0.9885,0.0115	-552.79
0.9090,0.0910	-554.28
0.9050,0.0950	-554.36
0.9361,0.0639	-553.75
0.9729,0.0271	-553.06
0.8834,0.1166	-554.81
0.9880,0.0120	-552.80
0.9182,0.0818	-554.10
0.9177,0.0823	-554.11
0.9389,0.0611	-553.69
0.9733,0.0267	-553.06
0.8850,0.1150	-554.78
0.9883,0.0117	-552.79
0.9259,0.0741	-553.95
0.9226,0.0774	-554.01
0.9217,0.0783	-554.03
0.9792,0.0208	-552.95
0.8858,0.1142	-554.76
0.9863,0.0137	-552.83
0.9286,0.0714	-553.89
0.9241,0.0759	-553.98
0.9158,0.0842	-554.15
0.9762,0.0238	-553.01
0.8661,0.1339	-555.19
0.9899,0.0101	-552.76
0.9215,0.0785	-554.03
0.9226,0.0774	-554.01
0.9353,0.0647	-553.76
0.9803,0.0197	-552.93
0.8978,0.1022	-554.51
0.9869,0.0131	-552.82
0.9349,0.0651	-553.77
0.9038,0.0962	-554.39
0.9208,0.0792	-554.05
0.9822,0.0178	-552.90
0.9012,0.0988	-554.44
0.9835,0.0165	-552.88
0.9231,0.0769	-554.00
0.9045,0.0955	-554.37
0.9239,0.0761	-553.98
0.9835,0.0165	-552.88
0.8974,0.1026	-554.52
0.9810,0.0190	-552.92
0.9358,0.0642	-553.75
0.9112,0.0888	-554.24
0.9232,0.0768	-554.00
0.9774,0.0226	-552.98
0.8758,0.1242	-554.98
0.9836,0.0164	-552.87
0.9405,0.0595	-553.66
0.8921,0.1079	-554.63
0.9268,0.0732	-553.93
0.9752,0.0248	-553.02
0.8788,0.1212	-554.91
0.9837,0.0163	-552.87
0.9429,0.0571	-553.62
0.8952,0.1048	-554.57
0.9151,0.0849	-554.16
0.9737,0.0263	-553.05
0.8528,0.1472	-555.49
0.9805,0.0195	-552.93
0.9480,0.0520	-553.52
0.8851,0.1149	-554.78
0.9122,0.0878	-554.22
0.9717,0.0283	-553.08
0.8491,0.1509	-555.57
0.9770,0.0230	-552.99
0.9515,0.0485	-553.46
0.8909,0.1091	-554.66
0.9167,0.0833	-554.13
0.9739,0.0261	-553.05
0.8628,0.1372	-555.26
0.9761,0.0239	-553.01
0.9523,0.0477	-553.44
0.8873,0.1127	-554.73
0.9043,0.0957	-554.38
0.9788,0.0212	-552.96
0.8469,0.1531	-555.62
0.9813,0.0187	-552.91
0.9537,0.0463	-553.41
0.8913,0.1087	-554.65
0.8982,0.1018	-554.50
0.9762,0.0238	-553.00
0.8406,0.1594	-555.77
0.9791,0.0209	-552.95
0.9446,0.0554	-553.58
0.8715,0.1285	-555.07
0.9110,0.0890	-554.24
0.9745,0.0255	-553.04
0.8544,0.1456	-555.45
0.9805,0.0195	-552.93
0.9434,0.0566	-553.61
0.8590,0.1410	-555.35
0.9177,0.0823	-554.11
0.9755,0.0245	-553.02
0.8662,0.1338	-555.19
0.9805,0.0195	-552.93
0.9377,0.0623	-553.72
0.8774,0.1226	-554.94
0.9255,0.0745	-553.95
0.9724,0.0276	-553.07
0.8881,0.1119	-554.72
0.9808,0.0192	-552.92
0.9429,0.0571	-553.62
0.8659,0.1341	-555.19
0.9251,0.0749	-553.96
0.9763,0.0237	-553.00
0.8941,0.1059	-554.59
0.9799,0.0201	-552.94
0.9515,0.0485	-553.46
0.8615,0.1385	-555.29
0.9155,0.0845	-554.15
0.9777,0.0223	-552.98
0.8789,0.1211	-554.91
0.9786,0.0214	-552.96
0.9463,0.0537	-553.55
0.8498,0.1502	-555.56
0.9265,0.0735	-553.93
0.9820,0.0180	-552.90
0.8891,0.1109	-554.69
0.9802,0.0198	-552.93
0.9392,0.0608	-553.69
0.8310,0.1690	-555.99
0.9219,0.0781	-554.02
0.9860,0.0140	-552.83
0.9086,0.0914	-554.29
