#isoforms=['ENSG00000186575.SE.4.A.up_ENSG00000186575.SE.4.A.SE1_ENSG00000186575.SE.4.A.dn','ENSG00000186575.SE.4.B.up_ENSG00000186575.SE.4.B.dn']	exon_lens=('ENSG00000186575.SE.4.A.up',128),('ENSG00000186575.SE.4.A.SE1',163),('ENSG00000186575.SE.4.A.dn',3847),('ENSG00000186575.SE.4.B.up',128),('ENSG00000186575.SE.4.B.dn',194)	iters=5000	burn_in=500	lag=10	percent_accept=97.03	proposal_type=drift	counts=(0,0):174,(1,0):1075,(1,1):38	assigned_counts=0:1112,1:1	chrom=chr22	strand=+	mRNA_starts=29678196,29678196	mRNA_ends=29698598,29694945
sampled_psi	log_score
0.8897,0.1103	-9257.71
0.9541,0.0459	-9250.81
0.9478,0.0522	-9245.17
0.8538,0.1462	-9266.35
0.9291,0.0709	-9261.90
0.9406,0.0594	-9253.95
0.9020,0.0980	-9261.75
0.9468,0.0532	-9253.87
0.9503,0.0497	-9250.90
0.8663,0.1337	-9256.81
0.9356,0.0644	-9248.68
0.9376,0.0624	-9251.29
0.9165,0.0835	-9264.13
0.9416,0.0584	-9248.37
0.9463,0.0537	-9245.27
0.8615,0.1385	-9257.08
0.9446,0.0554	-9259.56
0.9410,0.0590	-9253.94
0.9093,0.0907	-9259.41
0.9507,0.0493	-9253.85
0.9477,0.0523	-9248.07
0.8883,0.1117	-9259.84
0.9451,0.0549	-9256.73
0.9512,0.0488	-9265.73
0.9237,0.0763	-9254.33
0.9236,0.0764	-9254.33
0.9471,0.0529	-9250.98
0.9053,0.0947	-9254.96
0.9499,0.0501	-9250.91
0.9520,0.0480	-9250.86
0.9242,0.0758	-9256.81
0.9268,0.0732	-9249.16
0.9491,0.0509	-9253.85
0.9105,0.0895	-9254.76
0.9493,0.0507	-9253.85
0.9505,0.0495	-9244.98
0.9249,0.0751	-9251.78
0.9451,0.0549	-9251.04
0.9472,0.0528	-9250.98
0.9071,0.0929	-9254.88
0.9497,0.0503	-9245.03
0.9475,0.0525	-9248.08
0.9145,0.0855	-9254.62
0.9359,0.0641	-9254.03
0.9421,0.0579	-9256.71
0.9209,0.0791	-9256.86
0.9480,0.0520	-9259.67
0.9416,0.0584	-9245.59
0.9351,0.0649	-9256.71
0.9319,0.0681	-9246.26
0.9443,0.0557	-9245.40
0.9007,0.0993	-9259.55
0.9500,0.0500	-9256.79
0.9427,0.0573	-9248.31
0.9502,0.0498	-9247.95
0.9137,0.0863	-9252.29
0.9460,0.0540	-9251.02
0.8934,0.1066	-9255.45
0.9516,0.0484	-9250.87
0.9416,0.0584	-9251.15
0.9588,0.0412	-9253.87
0.9039,0.0961	-9255.01
0.9507,0.0493	-9247.93
0.8827,0.1173	-9255.96
0.9431,0.0569	-9251.10
0.9433,0.0567	-9251.10
0.9562,0.0438	-9247.68
0.8899,0.1101	-9255.62
0.9600,0.0400	-9244.35
0.8807,0.1193	-9254.06
0.9366,0.0634	-9248.63
0.9472,0.0528	-9253.87
0.9596,0.0404	-9257.05
0.8993,0.1007	-9255.20
0.9597,0.0403	-9250.71
0.8640,0.1360	-9253.24
0.9432,0.0568	-9256.72
0.9544,0.0456	-9253.84
0.9513,0.0487	-9250.87
0.9040,0.0960	-9252.77
0.9676,0.0324	-9254.04
0.8897,0.1103	-9263.98
0.9448,0.0552	-9245.37
0.9643,0.0357	-9247.36
0.9583,0.0417	-9247.59
0.9079,0.0921	-9254.85
0.9683,0.0317	-9247.22
0.8840,0.1160	-9257.93
0.9478,0.0522	-9250.97
0.9669,0.0331	-9250.64
0.9641,0.0359	-9250.66
0.9092,0.0908	-9259.41
0.9669,0.0331	-9250.64
0.8744,0.1256	-9256.38
0.9467,0.0533	-9253.87
0.9687,0.0313	-9243.77
0.9660,0.0340	-9250.65
0.9269,0.0731	-9261.86
0.9706,0.0294	-9247.15
0.8838,0.1162	-9257.93
0.9484,0.0516	-9248.04
0.9586,0.0414	-9250.72
0.9644,0.0356	-9244.05
0.9286,0.0714	-9249.06
0.9729,0.0271	-9247.09
0.8896,0.1104	-9255.63
0.9508,0.0492	-9259.77
0.9543,0.0457	-9247.77
0.9557,0.0443	-9256.92
0.9150,0.0850	-9256.98
0.9738,0.0262	-9243.44
0.9053,0.0947	-9250.44
0.9476,0.0524	-9250.97
0.9622,0.0378	-9253.91
0.9582,0.0418	-9250.73
0.9237,0.0763	-9249.34
0.9744,0.0256	-9243.41
0.9076,0.0924	-9252.58
0.9364,0.0636	-9259.40
0.9557,0.0443	-9247.70
0.9591,0.0409	-9253.87
0.9403,0.0597	-9248.44
0.9724,0.0276	-9247.10
0.9223,0.0777	-9249.42
0.9413,0.0587	-9248.39
0.9612,0.0388	-9247.48
0.9627,0.0373	-9244.17
0.9462,0.0538	-9248.14
0.9750,0.0250	-9250.70
0.9239,0.0761	-9254.32
0.9496,0.0504	-9250.92
0.9640,0.0360	-9247.37
0.9684,0.0316	-9250.64
0.9323,0.0677	-9251.48
0.9727,0.0273	-9247.09
0.9286,0.0714	-9254.19
0.9516,0.0484	-9244.91
0.9658,0.0342	-9243.96
0.9605,0.0395	-9257.08
0.9374,0.0626	-9248.59
0.9759,0.0241	-9243.31
0.9207,0.0793	-9254.41
0.9631,0.0369	-9253.93
0.9697,0.0303	-9243.71
0.9639,0.0361	-9250.66
0.9452,0.0548	-9256.73
0.9753,0.0247	-9243.35
0.9230,0.0770	-9249.38
0.9605,0.0395	-9247.50
0.9680,0.0320	-9254.05
0.9651,0.0349	-9250.65
0.9484,0.0516	-9256.77
0.9777,0.0223	-9243.19
0.9371,0.0629	-9256.71
0.9596,0.0404	-9247.54
0.9663,0.0337	-9247.29
0.9664,0.0336	-9250.64
0.9444,0.0556	-9253.89
0.9809,0.0191	-9246.93
0.9356,0.0644	-9262.06
0.9556,0.0444	-9256.92
0.9620,0.0380	-9257.14
0.9649,0.0351	-9247.34
0.9308,0.0692	-9256.74
0.9804,0.0196	-9246.94
0.9306,0.0694	-9259.33
0.9524,0.0476	-9250.85
0.9658,0.0342	-9250.65
0.9488,0.0512	-9245.10
0.9283,0.0717	-9254.20
0.9831,0.0169	-9242.85
0.9391,0.0609	-9253.97
0.9346,0.0654	-9251.39
0.9748,0.0252	-9247.04
0.9617,0.0383	-9247.46
0.9222,0.0778	-9256.84
0.9818,0.0182	-9250.91
0.9310,0.0690	-9248.93
0.9440,0.0560	-9248.25
0.9625,0.0375	-9247.43
0.9721,0.0279	-9250.66
0.9180,0.0820	-9254.50
0.9818,0.0182	-9250.91
0.9160,0.0840	-9249.79
0.9222,0.0778	-9246.95
0.9559,0.0441	-9244.62
0.9740,0.0260	-9247.06
0.9230,0.0770	-9251.86
0.9838,0.0162	-9242.81
0.9120,0.0880	-9257.04
0.9196,0.0804	-9254.45
0.9563,0.0437	-9253.85
0.9829,0.0171	-9246.92
0.9193,0.0807	-9254.46
0.9814,0.0186	-9246.93
0.9106,0.0894	-9252.43
0.9271,0.0729	-9254.23
0.9562,0.0438	-9244.60
0.9850,0.0150	-9246.92
0.9217,0.0783	-9256.85
0.9787,0.0213	-9243.13
0.9058,0.0942	-9254.94
0.9253,0.0747	-9249.24
0.9611,0.0389	-9247.48
0.9833,0.0167	-9242.84
0.9096,0.0904	-9252.48
0.9826,0.0174	-9246.92
0.8945,0.1055	-9253.27
0.9305,0.0695	-9248.96
0.9643,0.0357	-9247.36
0.9838,0.0162	-9246.91
0.9072,0.0928	-9257.16
0.9842,0.0158	-9242.78
0.8624,0.1376	-9264.37
0.9322,0.0678	-9251.48
0.9674,0.0326	-9247.25
0.9805,0.0195	-9243.02
0.9229,0.0771	-9249.38
0.9875,0.0125	-9242.57
0.8603,0.1397	-9264.42
0.9310,0.0690	-9256.74
0.9712,0.0288	-9247.13
0.9810,0.0190	-9242.99
0.9262,0.0738	-9254.26
0.9875,0.0125	-9242.57
0.8804,0.1196	-9258.07
0.9347,0.0653	-9251.39
0.9695,0.0305	-9247.18
0.9799,0.0201	-9246.94
0.9191,0.0809	-9254.46
0.9864,0.0136	-9242.65
0.8565,0.1435	-9264.51
0.9390,0.0610	-9256.70
0.9682,0.0318	-9243.81
0.9794,0.0206	-9243.08
0.9256,0.0744	-9254.27
0.9839,0.0161	-9246.91
0.8404,0.1596	-9269.97
0.9324,0.0676	-9256.73
0.9735,0.0265	-9247.07
0.9811,0.0189	-9254.83
0.9288,0.0712	-9249.05
0.9809,0.0191	-9242.99
0.8438,0.1562	-9259.82
0.9474,0.0526	-9256.76
0.9702,0.0298	-9247.16
0.9713,0.0287	-9250.65
0.9202,0.0798	-9256.87
0.9788,0.0212	-9243.12
0.8696,0.1304	-9262.32
0.9453,0.0547	-9245.34
0.9696,0.0304	-9243.72
0.9639,0.0361	-9253.94
0.9179,0.0821	-9249.68
0.9785,0.0215	-9246.96
0.8369,0.1631	-9265.11
0.9617,0.0383	-9244.24
0.9672,0.0328	-9247.26
0.9621,0.0379	-9244.21
0.9111,0.0889	-9264.05
0.9690,0.0310	-9250.64
0.8272,0.1728	-9260.77
0.9649,0.0351	-9250.65
0.9600,0.0400	-9250.70
0.9663,0.0337	-9250.64
0.9178,0.0822	-9252.09
0.9611,0.0389	-9257.10
0.8000,0.2000	-9270.86
0.9688,0.0312	-9247.21
0.9329,0.0671	-9248.83
0.9675,0.0325	-9243.85
0.9225,0.0775	-9259.31
0.9609,0.0391	-9253.89
0.7537,0.2463	-9271.68
0.9678,0.0322	-9250.64
0.9326,0.0674	-9254.10
0.9669,0.0331	-9243.90
0.9274,0.0726	-9246.58
0.9709,0.0291	-9243.63
0.7359,0.2641	-9270.72
0.9656,0.0344	-9250.65
0.9387,0.0613	-9259.43
0.9699,0.0301	-9247.17
0.9323,0.0677	-9248.86
0.9739,0.0261	-9247.06
0.7242,0.2758	-9277.41
0.9626,0.0374	-9250.67
0.9386,0.0614	-9253.98
0.9663,0.0337	-9250.64
0.9433,0.0567	-9251.10
0.9748,0.0252	-9250.69
0.7485,0.2515	-9274.17
0.9667,0.0333	-9254.01
0.9373,0.0627	-9251.30
0.9621,0.0379	-9247.44
0.9405,0.0595	-9251.19
0.9768,0.0232	-9243.25
0.7769,0.2231	-9271.71
0.9736,0.0264	-9247.07
0.9278,0.0722	-9256.77
0.9572,0.0428	-9250.75
0.9322,0.0678	-9248.86
0.9751,0.0249	-9250.70
0.7950,0.2050	-9268.31
0.9727,0.0273	-9247.09
0.8993,0.1007	-9257.39
0.9579,0.0421	-9247.61
0.9279,0.0721	-9251.66
0.9767,0.0233	-9243.26
0.8035,0.1965	-9267.93
0.9685,0.0315	-9243.79
0.9124,0.0876	-9257.03
0.9539,0.0461	-9247.78
0.9270,0.0730	-9254.23
0.9769,0.0231	-9246.99
0.7895,0.2105	-9268.57
0.9652,0.0348	-9253.97
0.9092,0.0908	-9247.90
0.9504,0.0496	-9253.85
0.9163,0.0837	-9254.56
0.9704,0.0296	-9250.65
0.8084,0.1916	-9267.73
0.9572,0.0428	-9247.64
0.9163,0.0837	-9254.56
0.9398,0.0602	-9248.46
0.9095,0.0905	-9259.41
0.9614,0.0386	-9247.47
0.8147,0.1853	-9267.48
0.9588,0.0412	-9247.58
0.9263,0.0737	-9254.25
0.9379,0.0621	-9251.27
0.8957,0.1043	-9251.05
0.9616,0.0384	-9247.46
0.8206,0.1794	-9267.26
0.9554,0.0446	-9244.65
0.9223,0.0777	-9251.89
0.9444,0.0556	-9256.73
0.9104,0.0896	-9257.08
0.9658,0.0342	-9243.96
0.8513,0.1487	-9259.42
0.9529,0.0471	-9259.86
0.9243,0.0757	-9254.31
0.9473,0.0527	-9253.87
0.9053,0.0947	-9259.47
0.9728,0.0272	-9243.51
0.8613,0.1387	-9262.57
0.9569,0.0431	-9250.75
0.9267,0.0733	-9259.32
0.9412,0.0588	-9245.62
0.9065,0.0935	-9250.37
0.9802,0.0198	-9246.94
0.8534,0.1466	-9259.31
0.9563,0.0437	-9250.77
0.9303,0.0697	-9254.15
0.9373,0.0627	-9256.71
0.9026,0.0974	-9255.06
0.9800,0.0200	-9250.83
0.8448,0.1552	-9271.62
0.9601,0.0399	-9247.52
0.9323,0.0677	-9254.10
0.9254,0.0746	-9254.28
0.8950,0.1050	-9255.38
0.9759,0.0241	-9247.01
0.8699,0.1301	-9266.12
0.9556,0.0444	-9247.71
0.9163,0.0837	-9259.34
0.9176,0.0824	-9264.15
0.9192,0.0808	-9254.46
0.9740,0.0260	-9250.68
0.8835,0.1165	-9259.97
0.9494,0.0506	-9250.92
0.9128,0.0872	-9257.03
0.9165,0.0835	-9259.34
0.9239,0.0761	-9261.81
0.9733,0.0267	-9254.27
0.8888,0.1112	-9257.75
0.9528,0.0472	-9247.83
0.8997,0.1003	-9261.76
0.9117,0.0883	-9254.72
0.9305,0.0695	-9254.15
0.9725,0.0275	-9247.10
0.9153,0.0847	-9256.97
0.9554,0.0446	-9250.78
0.9115,0.0885	-9250.06
0.9004,0.0996	-9263.96
0.9132,0.0868	-9257.02
0.9737,0.0263	-9250.68
0.9375,0.0625	-9251.29
0.9571,0.0429	-9250.75
0.9051,0.0949	-9252.71
0.9002,0.0998	-9257.36
0.9232,0.0768	-9251.85
0.9692,0.0308	-9247.19
0.9431,0.0569	-9245.49
0.9622,0.0378	-9253.91
0.9254,0.0746	-9254.28
0.9167,0.0833	-9259.34
0.9223,0.0777	-9249.42
0.9709,0.0291	-9247.14
0.9372,0.0628	-9251.30
0.9632,0.0368	-9244.13
0.9136,0.0864	-9252.29
0.9191,0.0809	-9249.60
0.9252,0.0748	-9256.80
0.9751,0.0249	-9243.36
0.9482,0.0518	-9250.95
0.9673,0.0327	-9243.87
0.9208,0.0792	-9251.96
0.9172,0.0828	-9252.12
0.9089,0.0911	-9257.12
0.9714,0.0286	-9247.13
0.9568,0.0432	-9247.66
0.9671,0.0329	-9243.88
0.9283,0.0717	-9259.32
0.9018,0.0982	-9259.53
0.8898,0.1102	-9253.53
0.9746,0.0254	-9247.04
0.9631,0.0369	-9247.40
0.9673,0.0327	-9243.87
0.9338,0.0662	-9251.42
0.8926,0.1074	-9255.49
0.8950,0.1050	-9255.39
0.9750,0.0250	-9247.03
0.9638,0.0362	-9244.10
0.9701,0.0299	-9243.68
0.9315,0.0685	-9248.90
0.8915,0.1085	-9257.65
0.8856,0.1144	-9255.82
0.9731,0.0269	-9247.08
0.9661,0.0339	-9243.94
0.9690,0.0310	-9247.20
0.9324,0.0676	-9254.10
0.8888,0.1112	-9253.59
0.8826,0.1174	-9264.03
0.9681,0.0319	-9247.23
0.9682,0.0318	-9243.81
0.9687,0.0313	-9247.21
0.9156,0.0844	-9249.81
0.8896,0.1104	-9255.63
0.8869,0.1131	-9253.69
0.9699,0.0301	-9243.70
0.9674,0.0326	-9250.64
0.9674,0.0326	-9247.25
0.9037,0.0963	-9250.54
0.9089,0.0911	-9252.52
0.8822,0.1178	-9251.96
0.9692,0.0308	-9250.64
0.9726,0.0274	-9254.23
0.9661,0.0339	-9247.30
0.9077,0.0923	-9252.58
0.9219,0.0781	-9249.44
0.8861,0.1139	-9257.85
0.9731,0.0269	-9247.08
0.9790,0.0210	-9243.11
0.9516,0.0484	-9253.84
0.9358,0.0642	-9256.71
0.9385,0.0615	-9262.15
0.8899,0.1101	-9257.70
0.9762,0.0238	-9243.29
0.9764,0.0236	-9243.28
0.9571,0.0429	-9256.96
0.9409,0.0591	-9248.41
0.9414,0.0586	-9251.16
0.8849,0.1151	-9259.93
0.9745,0.0255	-9247.04
0.9743,0.0257	-9247.05
0.9550,0.0450	-9250.79
0.9385,0.0615	-9248.53
0.9465,0.0535	-9253.87
0.8844,0.1156	-9255.87
0.9758,0.0242	-9243.32
0.9717,0.0283	-9254.19
0.9433,0.0567	-9259.53
0.9244,0.0756	-9251.80
0.9490,0.0510	-9248.01
0.9061,0.0939	-9257.19
0.9757,0.0243	-9250.71
0.9713,0.0287	-9247.13
0.9603,0.0397	-9247.51
0.9230,0.0770	-9251.86
0.9580,0.0420	-9247.61
0.9163,0.0837	-9256.95
0.9829,0.0171	-9242.86
0.9737,0.0263	-9250.68
0.9624,0.0376	-9250.67
0.9257,0.0743	-9254.27
0.9589,0.0411	-9247.57
0.9274,0.0726	-9249.13
0.9729,0.0271	-9247.08
0.9681,0.0319	-9250.64
0.9537,0.0463	-9244.77
0.9157,0.0843	-9256.96
0.9567,0.0433	-9244.57
0.9416,0.0584	-9251.15
0.9740,0.0260	-9250.68
0.9700,0.0300	-9243.69
0.9586,0.0414	-9250.72
0.9338,0.0662	-9259.36
0.9584,0.0416	-9247.59
0.9471,0.0529	-9256.75
0.9739,0.0261	-9247.06
0.9725,0.0275	-9243.53
0.9562,0.0438	-9244.60
0.9353,0.0647	-9256.71
0.9606,0.0394	-9250.70
0.9520,0.0480	-9247.87
0.9775,0.0225	-9243.21
0.9794,0.0206	-9243.09
0.9577,0.0423	-9247.62
0.9240,0.0760	-9254.32
0.9591,0.0409	-9247.56
0.9562,0.0438	-9256.93
0.9810,0.0190	-9242.99
0.9770,0.0230	-9243.24
0.9498,0.0502	-9250.91
0.9279,0.0721	-9254.21
0.9688,0.0312	-9250.64
0.9521,0.0479	-9250.86
0.9822,0.0178	-9242.91
0.9757,0.0243	-9243.32
0.9478,0.0522	-9250.96
0.9294,0.0706	-9259.33
0.9683,0.0317	-9243.80
0.9457,0.0543	-9245.31
0.9849,0.0151	-9246.92
0.9780,0.0220	-9243.18
0.9413,0.0587	-9251.16
0.9266,0.0734	-9254.24
0.9738,0.0262	-9247.06
0.9558,0.0442	-9260.00
0.9844,0.0156	-9251.06
0.9782,0.0218	-9243.16
0.9365,0.0635	-9245.94
0.9229,0.0771	-9251.87
0.9743,0.0257	-9243.41
0.9575,0.0425	-9244.51
0.9838,0.0162	-9246.91
0.9737,0.0263	-9247.06
0.9160,0.0840	-9256.95
0.9138,0.0862	-9259.36
0.9783,0.0217	-9243.16
0.9589,0.0411	-9253.87
0.9868,0.0132	-9246.93
0.9693,0.0307	-9254.09
0.9118,0.0882	-9250.04
0.9296,0.0704	-9256.75
0.9810,0.0190	-9242.98
0.9605,0.0395	-9250.70
0.9851,0.0149	-9246.92
0.9692,0.0308	-9247.19
0.9256,0.0744	-9254.27
0.9148,0.0852	-9249.86
0.9848,0.0152	-9242.74
0.9622,0.0378	-9244.20
0.9819,0.0181	-9246.92
0.9536,0.0464	-9253.84
0.9395,0.0605	-9251.22
0.8962,0.1038	-9255.33
0.9881,0.0119	-9242.54
0.9694,0.0306	-9247.19
0.9801,0.0199	-9250.84
0.9450,0.0550	-9251.04
0.9372,0.0628	-9251.30
0.8985,0.1015	-9255.23
0.9892,0.0108	-9246.99
0.9704,0.0296	-9243.67
0.9781,0.0219	-9243.17
0.9511,0.0489	-9253.85
0.9357,0.0643	-9254.03
0.8910,0.1090	-9261.87
0.9883,0.0117	-9246.96
0.9604,0.0396	-9253.89
0.9762,0.0238	-9243.29
0.9471,0.0529	-9253.87
0.9424,0.0576	-9262.31
0.8952,0.1048	-9257.52
0.9852,0.0148	-9242.72
0.9536,0.0464	-9247.80
0.9808,0.0192	-9246.93
0.9507,0.0493	-9247.93
0.9392,0.0608	-9259.44
0.9050,0.0950	-9252.71
0.9854,0.0146	-9242.71
0.9659,0.0341	-9243.96
0.9823,0.0177	-9242.91
0.9520,0.0480	-9250.86
0.9449,0.0551	-9251.05
0.9053,0.0947	-9248.19
0.9824,0.0176	-9242.90
0.9630,0.0370	-9247.41
0.9753,0.0247	-9247.02
0.9661,0.0339	-9247.29
0.9546,0.0454	-9244.71
0.9125,0.0875	-9250.00
0.9805,0.0195	-9246.94
0.9582,0.0418	-9244.47
0.9728,0.0272	-9243.51
0.9621,0.0379	-9247.44
0.9616,0.0384	-9250.68
0.9261,0.0739	-9256.79
0.9804,0.0196	-9246.94
0.9553,0.0447	-9250.79
0.9718,0.0282	-9247.11
0.9663,0.0337	-9247.29
0.9654,0.0346	-9263.97
0.9289,0.0711	-9254.19
0.9787,0.0213	-9250.79
0.9545,0.0455	-9247.76
0.9760,0.0240	-9250.72
0.9657,0.0343	-9250.65
0.9664,0.0336	-9243.93
0.9278,0.0722	-9256.77
0.9850,0.0150	-9242.73
0.9630,0.0370	-9250.67
0.9759,0.0241	-9250.71
0.9631,0.0369	-9247.41
0.9604,0.0396	-9244.32
0.9358,0.0642	-9251.35
0.9860,0.0140	-9246.92
0.9666,0.0334	-9247.28
0.9773,0.0227	-9254.51
0.9494,0.0506	-9253.85
0.9634,0.0366	-9247.39
0.9388,0.0612	-9253.97
0.9894,0.0106	-9246.99
0.9674,0.0326	-9250.64
0.9791,0.0209	-9243.11
0.9457,0.0543	-9245.31
0.9660,0.0340	-9247.30
0.9532,0.0468	-9247.81
0.9900,0.0100	-9242.42
0.9725,0.0275	-9250.66
0.9790,0.0210	-9246.96
0.9306,0.0694	-9256.74
0.9624,0.0376	-9247.43
0.9510,0.0490	-9244.95
0.9921,0.0079	-9242.29
0.9739,0.0261	-9247.06
0.9791,0.0209	-9258.49
0.9390,0.0610	-9259.44
0.9615,0.0385	-9244.25
0.9511,0.0489	-9247.91
0.9924,0.0076	-9242.27
0.9736,0.0264	-9247.07
0.9807,0.0193	-9246.93
0.9241,0.0759	-9249.32
0.9670,0.0330	-9243.89
0.9587,0.0413	-9253.87
0.9940,0.0060	-9242.17
0.9720,0.0280	-9250.66
0.9821,0.0179	-9242.92
0.9065,0.0935	-9257.18
0.9674,0.0326	-9257.42
0.9630,0.0370	-9253.93
0.9940,0.0060	-9242.17
0.9732,0.0268	-9247.08
0.9839,0.0161	-9242.80
0.9147,0.0853	-9256.98
0.9682,0.0318	-9250.64
0.9690,0.0310	-9247.20
0.9925,0.0075	-9242.26
0.9783,0.0217	-9243.16
0.9856,0.0144	-9242.69
0.8937,0.1063	-9259.70
0.9678,0.0322	-9247.24
0.9714,0.0286	-9247.13
0.9931,0.0069	-9242.23
0.9779,0.0221	-9243.18
0.9866,0.0134	-9242.63
0.8954,0.1046	-9257.52
0.9743,0.0257	-9247.05
0.9737,0.0263	-9243.45
0.9937,0.0063	-9242.19
0.9766,0.0234	-9247.00
0.9837,0.0163	-9242.81
0.8764,0.1236	-9256.27
0.9725,0.0275	-9247.10
0.9734,0.0266	-9243.47
0.9926,0.0074	-9242.26
0.9792,0.0208	-9246.95
0.9837,0.0163	-9242.81
0.8739,0.1261	-9258.34
0.9683,0.0317	-9247.22
0.9763,0.0237	-9247.00
0.9932,0.0068	-9252.18
0.9790,0.0210	-9243.11
0.9853,0.0147	-9242.71
0.8833,0.1167	-9262.00
0.9619,0.0381	-9244.22
0.9791,0.0209	-9250.80
0.9944,0.0056	-9242.15
0.9756,0.0244	-9250.71
0.9835,0.0165	-9255.09
0.8744,0.1256	-9264.14
0.9620,0.0380	-9257.14
0.9723,0.0277	-9247.10
0.9952,0.0048	-9242.10
0.9758,0.0242	-9247.01
0.9888,0.0112	-9242.50
0.8763,0.1237	-9252.36
0.9543,0.0457	-9253.84
0.9697,0.0303	-9243.71
0.9952,0.0048	-9242.10
0.9760,0.0240	-9247.01
0.9857,0.0143	-9242.69
0.8800,0.1200	-9260.08
0.9586,0.0414	-9250.72
0.9699,0.0301	-9247.17
0.9942,0.0058	-9242.16
0.9783,0.0217	-9246.97
0.9830,0.0170	-9246.92
0.8974,0.1026	-9255.28
0.9590,0.0410	-9244.42
0.9760,0.0240	-9243.31
0.9941,0.0059	-9242.16
0.9758,0.0242	-9247.01
0.9826,0.0174	-9250.95
0.9176,0.0824	-9252.10
0.9621,0.0379	-9244.21
0.9770,0.0230	-9250.74
0.9941,0.0059	-9242.17
0.9664,0.0336	-9254.00
0.9787,0.0213	-9246.96
0.9254,0.0746	-9256.79
0.9629,0.0371	-9247.41
0.9816,0.0184	-9246.92
0.9935,0.0065	-9247.23
0.9757,0.0243	-9243.32
0.9817,0.0183	-9242.94
0.9356,0.0644	-9248.68
0.9659,0.0341	-9247.30
0.9823,0.0177	-9246.92
0.9948,0.0052	-9242.12
0.9751,0.0249	-9250.70
0.9807,0.0193	-9246.93
0.9461,0.0539	-9253.88
0.9682,0.0318	-9247.23
0.9811,0.0189	-9242.98
0.9957,0.0043	-9242.07
0.9724,0.0276	-9247.10
0.9766,0.0234	-9243.26
0.9501,0.0499	-9262.69
0.9627,0.0373	-9253.92
0.9792,0.0208	-9246.95
0.9954,0.0046	-9247.45
0.9701,0.0299	-9243.69
0.9793,0.0207	-9246.95
0.9538,0.0462	-9247.79
0.9659,0.0341	-9243.96
0.9845,0.0155	-9246.92
0.9957,0.0043	-9242.07
0.9705,0.0295	-9243.66
0.9797,0.0203	-9246.94
0.9488,0.0512	-9248.02
0.9598,0.0402	-9247.53
0.9853,0.0147	-9251.12
0.9961,0.0039	-9242.04
0.9667,0.0333	-9254.01
0.9786,0.0214	-9250.79
0.9477,0.0523	-9250.97
0.9666,0.0334	-9254.01
0.9870,0.0130	-9242.60
0.9959,0.0041	-9242.05
0.9658,0.0342	-9243.96
0.9776,0.0224	-9243.20
0.9510,0.0490	-9253.85
0.9637,0.0363	-9247.38
0.9872,0.0128	-9242.59
0.9959,0.0041	-9247.55
0.9578,0.0422	-9250.74
0.9793,0.0207	-9246.95
0.9487,0.0513	-9248.02
0.9618,0.0382	-9257.13
0.9847,0.0153	-9251.08
0.9960,0.0040	-9242.04
0.9561,0.0439	-9247.69
0.9794,0.0206	-9243.09
0.9590,0.0410	-9250.72
0.9685,0.0315	-9247.22
0.9816,0.0184	-9246.92
0.9963,0.0037	-9242.03
0.9535,0.0465	-9247.80
0.9782,0.0218	-9243.16
0.9635,0.0365	-9250.66
0.9673,0.0327	-9247.25
0.9807,0.0193	-9250.86
0.9965,0.0035	-9242.02
0.9367,0.0633	-9248.62
0.9763,0.0237	-9247.00
0.9727,0.0273	-9243.52
0.9668,0.0332	-9250.64
0.9784,0.0216	-9243.15
0.9970,0.0030	-9241.98
0.9404,0.0596	-9253.95
0.9786,0.0214	-9243.14
0.9704,0.0296	-9254.14
0.9685,0.0315	-9243.79
0.9819,0.0181	-9242.93
0.9976,0.0024	-9241.95
0.9155,0.0845	-9252.20
0.9809,0.0191	-9246.93
0.9688,0.0312	-9247.20
0.9698,0.0302	-9250.64
0.9813,0.0187	-9250.89
0.9972,0.0028	-9241.98
0.9362,0.0638	-9251.33
0.9780,0.0220	-9246.97
0.9719,0.0281	-9247.11
0.9662,0.0338	-9250.65
0.9822,0.0178	-9246.92
0.9965,0.0035	-9242.01
0.9247,0.0753	-9249.28
0.9760,0.0240	-9247.01
0.9704,0.0296	-9243.67
0.9631,0.0369	-9244.14
0.9809,0.0191	-9246.93
0.9958,0.0042	-9242.06
0.9157,0.0843	-9252.19
0.9775,0.0225	-9246.98
0.9760,0.0240	-9247.01
0.9627,0.0373	-9247.42
0.9815,0.0185	-9246.93
0.9958,0.0042	-9242.06
0.9378,0.0622	-9251.28
0.9743,0.0257	-9243.41
0.9800,0.0200	-9243.05
0.9619,0.0381	-9244.22
0.9822,0.0178	-9246.92
0.9963,0.0037	-9242.03
0.9274,0.0726	-9249.13
0.9675,0.0325	-9250.64
0.9828,0.0172	-9242.87
0.9640,0.0360	-9250.66
0.9838,0.0162	-9246.91
0.9957,0.0043	-9247.51
0.9171,0.0829	-9254.53
0.9637,0.0363	-9244.10
0.9868,0.0132	-9242.62
0.9642,0.0358	-9244.07
0.9782,0.0218	-9250.77
0.9962,0.0038	-9242.03
0.9020,0.0980	-9259.53
0.9566,0.0434	-9250.76
0.9864,0.0136	-9242.64
0.9739,0.0261	-9247.06
0.9784,0.0216	-9250.78
0.9956,0.0044	-9242.07
0.8927,0.1073	-9257.61
0.9492,0.0508	-9250.93
0.9879,0.0121	-9242.55
0.9684,0.0316	-9247.22
0.9754,0.0246	-9243.34
0.9971,0.0029	-9241.98
0.8822,0.1178	-9268.06
0.9422,0.0578	-9251.13
0.9889,0.0111	-9242.49
0.9624,0.0376	-9247.43
0.9729,0.0271	-9243.50
0.9969,0.0031	-9241.99
0.8683,0.1317	-9262.36
0.9457,0.0543	-9251.02
0.9887,0.0113	-9242.50
0.9633,0.0367	-9247.40
0.9767,0.0233	-9243.26
0.9969,0.0031	-9241.99
0.8649,0.1351	-9260.60
0.9482,0.0518	-9248.04
0.9873,0.0127	-9242.59
0.9613,0.0387	-9250.69
0.9819,0.0181	-9246.92
0.9961,0.0039	-9242.04
0.8736,0.1264	-9262.22
0.9473,0.0527	-9253.87
0.9882,0.0118	-9242.53
0.9533,0.0467	-9253.84
0.9838,0.0162	-9246.91
0.9966,0.0034	-9247.68
0.8838,0.1162	-9261.99
0.9423,0.0577	-9253.92
0.9878,0.0122	-9242.55
0.9676,0.0324	-9247.24
0.9814,0.0186	-9246.93
0.9962,0.0038	-9242.03
0.8993,0.1007	-9259.58
0.9299,0.0701	-9256.74
0.9872,0.0128	-9242.59
0.9736,0.0264	-9250.67
0.9816,0.0184	-9242.95
0.9960,0.0040	-9242.05
0.8941,0.1059	-9261.82
0.9288,0.0712	-9254.19
0.9841,0.0159	-9246.91
0.9811,0.0189	-9246.93
0.9736,0.0264	-9243.46
0.9955,0.0045	-9242.08
0.9148,0.0852	-9249.86
0.8928,0.1072	-9255.48
0.9882,0.0118	-9246.96
0.9840,0.0160	-9242.79
0.9712,0.0288	-9247.13
0.9961,0.0039	-9242.04
0.9264,0.0736	-9259.31
0.8990,0.1010	-9259.59
0.9866,0.0134	-9242.63
0.9791,0.0209	-9246.95
0.9674,0.0326	-9247.25
0.9952,0.0048	-9242.09
0.9103,0.0897	-9252.45
0.8839,0.1161	-9257.93
0.9860,0.0140	-9246.92
0.9735,0.0265	-9254.28
0.9727,0.0273	-9243.51
0.9947,0.0053	-9242.13
0.9201,0.0799	-9251.99
0.8847,0.1153	-9253.82
0.9840,0.0160	-9242.80
0.9748,0.0252	-9247.04
0.9766,0.0234	-9250.73
0.9945,0.0055	-9242.14
0.9212,0.0788	-9256.86
0.9016,0.0984	-9257.32
0.9855,0.0145	-9242.70
0.9743,0.0257	-9243.41
0.9738,0.0262	-9243.45
0.9924,0.0076	-9247.14
0.9124,0.0876	-9254.69
0.9058,0.0942	-9254.94
0.9894,0.0106	-9246.99
0.9754,0.0246	-9247.02
0.9711,0.0289	-9243.62
0.9938,0.0062	-9242.19
0.9213,0.0787	-9251.94
0.8775,0.1225	-9260.16
0.9909,0.0091	-9242.36
0.9723,0.0277	-9254.22
0.9515,0.0485	-9247.89
0.9927,0.0073	-9247.17
0.9247,0.0753	-9249.28
0.8898,0.1102	-9259.80
0.9912,0.0088	-9256.51
0.9711,0.0289	-9243.62
0.9555,0.0445	-9259.98
0.9942,0.0058	-9242.16
0.9339,0.0661	-9251.42
0.8775,0.1225	-9266.06
0.9902,0.0098	-9247.02
0.9687,0.0313	-9243.78
0.9342,0.0658	-9259.37
0.9942,0.0058	-9242.16
0.9410,0.0590	-9251.17
0.9047,0.0953	-9254.98
0.9878,0.0122	-9246.95
0.9687,0.0313	-9250.64
0.9291,0.0709	-9251.61
0.9949,0.0051	-9242.11
0.9453,0.0547	-9248.19
0.9086,0.0914	-9250.24
0.9873,0.0127	-9242.59
0.9668,0.0332	-9254.01
0.9319,0.0681	-9254.11
0.9944,0.0056	-9242.14
0.9493,0.0507	-9245.06
0.9219,0.0781	-9249.44
0.9857,0.0143	-9242.69
0.9648,0.0352	-9250.65
0.9317,0.0683	-9248.89
0.9949,0.0051	-9242.11
0.9560,0.0440	-9247.69
0.9288,0.0712	-9256.76
0.9881,0.0119	-9242.54
0.9609,0.0391	-9244.29
0.9439,0.0561	-9259.55
0.9959,0.0041	-9242.05
0.9551,0.0449	-9244.67
0.9412,0.0588	-9251.16
0.9870,0.0130	-9242.61
0.9645,0.0355	-9250.65
0.9380,0.0620	-9253.99
0.9948,0.0052	-9242.12
0.9629,0.0371	-9247.41
0.9466,0.0534	-9259.62
0.9875,0.0125	-9251.31
0.9604,0.0396	-9247.51
0.9448,0.0552	-9248.21
0.9935,0.0065	-9242.20
0.9663,0.0337	-9243.93
0.9569,0.0431	-9247.65
0.9900,0.0100	-9242.42
0.9646,0.0354	-9247.35
0.9394,0.0606	-9251.22
0.9926,0.0074	-9242.26
0.9678,0.0322	-9243.83
0.9478,0.0522	-9253.86
0.9857,0.0143	-9251.15
0.9656,0.0344	-9250.65
0.9468,0.0532	-9259.63
0.9925,0.0075	-9242.26
0.9722,0.0278	-9243.55
0.9437,0.0563	-9248.27
0.9830,0.0170	-9250.98
0.9655,0.0345	-9250.65
0.9566,0.0434	-9253.85
0.9924,0.0076	-9242.27
0.9758,0.0242	-9243.32
0.9499,0.0501	-9247.96
0.9868,0.0132	-9246.93
0.9705,0.0295	-9243.66
0.9445,0.0555	-9251.06
0.9909,0.0091	-9242.36
0.9774,0.0226	-9250.75
0.9481,0.0519	-9250.96
0.9877,0.0123	-9242.57
0.9738,0.0262	-9247.06
0.9548,0.0452	-9247.75
0.9919,0.0081	-9247.11
0.9801,0.0199	-9250.84
0.9437,0.0563	-9256.72
0.9880,0.0120	-9242.54
0.9772,0.0228	-9246.99
0.9336,0.0664	-9256.72
0.9915,0.0085	-9242.33
0.9795,0.0205	-9250.81
0.9443,0.0557	-9251.07
0.9873,0.0127	-9242.59
0.9825,0.0175	-9242.89
0.9474,0.0526	-9248.08
0.9924,0.0076	-9242.27
0.9839,0.0161	-9242.80
0.9307,0.0693	-9248.94
0.9874,0.0126	-9242.58
0.9855,0.0145	-9246.92
0.9402,0.0598	-9253.95
0.9927,0.0073	-9242.25
0.9805,0.0195	-9243.02
0.9355,0.0645	-9259.38
0.9850,0.0150	-9242.73
0.9853,0.0147	-9242.71
0.9387,0.0613	-9245.79
0.9935,0.0065	-9247.23
0.9832,0.0168	-9246.92
0.9456,0.0544	-9248.17
0.9851,0.0149	-9242.72
0.9835,0.0165	-9242.83
0.9436,0.0564	-9256.72
0.9927,0.0073	-9242.25
0.9847,0.0153	-9246.92
0.9462,0.0538	-9253.88
0.9828,0.0172	-9242.87
0.9823,0.0177	-9242.91
0.9285,0.0715	-9246.50
0.9925,0.0075	-9242.27
0.9854,0.0146	-9242.71
0.9590,0.0410	-9250.72
0.9796,0.0204	-9243.07
0.9830,0.0170	-9246.92
0.9156,0.0844	-9259.35
0.9925,0.0075	-9242.26
0.9872,0.0128	-9246.94
0.9578,0.0422	-9244.50
0.9838,0.0162	-9242.81
0.9822,0.0178	-9242.91
0.9033,0.0967	-9252.80
0.9920,0.0080	-9242.30
0.9850,0.0150	-9246.92
0.9547,0.0453	-9250.80
0.9864,0.0136	-9242.64
0.9779,0.0221	-9250.76
0.8841,0.1159	-9259.95
0.9915,0.0085	-9242.33
0.9877,0.0123	-9246.95
0.9632,0.0368	-9260.46
0.9826,0.0174	-9246.92
0.9803,0.0197	-9246.94
0.8889,0.1111	-9255.66
0.9901,0.0099	-9242.41
0.9831,0.0169	-9242.85
0.9681,0.0319	-9243.81
0.9830,0.0170	-9246.92
0.9836,0.0164	-9246.91
0.9063,0.0937	-9259.46
0.9896,0.0104	-9242.45
0.9828,0.0172	-9242.87
0.9655,0.0345	-9253.98
0.9791,0.0209	-9243.10
0.9806,0.0194	-9246.93
0.9060,0.0940	-9254.93
0.9899,0.0101	-9242.42
0.9860,0.0140	-9242.67
0.9750,0.0250	-9243.37
0.9736,0.0264	-9243.46
0.9810,0.0190	-9242.98
0.9100,0.0900	-9257.09
0.9918,0.0082	-9242.31
0.9848,0.0152	-9246.92
0.9708,0.0292	-9243.64
0.9760,0.0240	-9250.72
0.9821,0.0179	-9242.92
0.9159,0.0841	-9254.57
0.9923,0.0077	-9242.27
0.9850,0.0150	-9242.73
0.9741,0.0259	-9247.05
0.9825,0.0175	-9242.89
0.9813,0.0187	-9246.93
0.9132,0.0868	-9257.01
0.9923,0.0077	-9242.28
0.9836,0.0164	-9242.82
0.9703,0.0297	-9243.67
0.9792,0.0208	-9243.10
0.9821,0.0179	-9254.93
0.9346,0.0654	-9246.08
0.9895,0.0105	-9247.00
0.9818,0.0182	-9246.92
0.9765,0.0235	-9250.73
0.9853,0.0147	-9242.71
0.9839,0.0161	-9251.03
0.9385,0.0615	-9251.25
0.9901,0.0099	-9242.41
0.9822,0.0178	-9246.92
0.9735,0.0265	-9247.07
0.9851,0.0149	-9246.92
0.9816,0.0184	-9246.92
0.9527,0.0473	-9250.84
0.9919,0.0081	-9242.30
0.9792,0.0208	-9243.10
0.9764,0.0236	-9243.28
0.9860,0.0140	-9242.67
0.9777,0.0223	-9243.20
0.9619,0.0381	-9253.91
0.9920,0.0080	-9247.12
0.9677,0.0323	-9254.04
0.9795,0.0205	-9250.81
0.9853,0.0147	-9251.12
0.9779,0.0221	-9243.18
0.9662,0.0338	-9243.94
0.9918,0.0082	-9247.10
0.9650,0.0350	-9244.02
0.9828,0.0172	-9246.92
0.9863,0.0137	-9242.65
0.9833,0.0167	-9242.84
0.9631,0.0369	-9244.14
0.9920,0.0080	-9247.12
0.9527,0.0473	-9250.84
0.9857,0.0143	-9246.92
0.9850,0.0150	-9242.73
0.9836,0.0164	-9242.82
0.9624,0.0376	-9247.43
0.9945,0.0055	-9242.14
0.9517,0.0483	-9244.90
0.9811,0.0189	-9242.98
0.9868,0.0132	-9242.62
0.9804,0.0196	-9246.94
0.9603,0.0397	-9244.33
0.9940,0.0060	-9242.17
0.9475,0.0525	-9248.08
0.9789,0.0211	-9250.79
0.9858,0.0142	-9242.68
0.9845,0.0155	-9242.76
0.9635,0.0365	-9250.66
0.9957,0.0043	-9242.06
0.9496,0.0504	-9253.85
0.9760,0.0240	-9243.31
0.9860,0.0140	-9251.18
0.9816,0.0184	-9242.95
0.9578,0.0422	-9253.86
0.9955,0.0045	-9242.08
0.9484,0.0516	-9248.04
0.9725,0.0275	-9257.80
0.9861,0.0139	-9242.66
0.9817,0.0183	-9242.94
0.9558,0.0442	-9250.77
0.9954,0.0046	-9242.08
0.9441,0.0559	-9248.24
0.9746,0.0254	-9243.40
0.9858,0.0142	-9242.68
0.9827,0.0173	-9246.92
0.9488,0.0512	-9248.02
0.9954,0.0046	-9242.09
0.9313,0.0687	-9254.13
0.9744,0.0256	-9243.41
0.9880,0.0120	-9242.55
0.9793,0.0207	-9243.10
0.9435,0.0565	-9251.09
0.9965,0.0035	-9247.66
0.9394,0.0606	-9251.22
0.9755,0.0245	-9243.34
0.9903,0.0097	-9247.03
0.9770,0.0230	-9243.24
0.9256,0.0744	-9259.31
0.9961,0.0039	-9242.04
0.9473,0.0527	-9248.09
0.9741,0.0259	-9250.68
0.9885,0.0115	-9242.51
0.9733,0.0267	-9250.67
0.9283,0.0717	-9254.20
0.9962,0.0038	-9247.61
0.9424,0.0576	-9251.12
0.9684,0.0316	-9250.64
0.9903,0.0097	-9247.03
0.9710,0.0290	-9243.63
0.9242,0.0758	-9249.31
0.9956,0.0044	-9252.93
0.9287,0.0713	-9254.19
0.9720,0.0280	-9247.11
0.9915,0.0085	-9242.32
0.9766,0.0234	-9247.00
0.9203,0.0797	-9256.87
0.9944,0.0056	-9242.15
0.9256,0.0744	-9259.31
0.9713,0.0287	-9247.13
0.9909,0.0091	-9247.05
0.9791,0.0209	-9243.11
0.9203,0.0797	-9249.53
0.9953,0.0047	-9247.45
0.9186,0.0814	-9252.06
0.9744,0.0256	-9243.41
0.9913,0.0087	-9242.34
0.9840,0.0160	-9242.79
0.9139,0.0861	-9257.00
0.9954,0.0046	-9242.08
0.9174,0.0826	-9254.52
0.9763,0.0237	-9250.72
0.9924,0.0076	-9256.89
0.9799,0.0201	-9243.05
0.9229,0.0771	-9256.83
0.9957,0.0043	-9247.51
0.9333,0.0667	-9251.44
0.9735,0.0265	-9243.46
0.9923,0.0077	-9242.28
0.9860,0.0140	-9246.92
0.9504,0.0496	-9244.99
0.9957,0.0043	-9242.07
0.9273,0.0727	-9251.68
0.9689,0.0311	-9247.20
0.9927,0.0073	-9242.25
0.9856,0.0144	-9242.69
0.9483,0.0517	-9262.59
0.9955,0.0045	-9242.08
0.9236,0.0764	-9256.82
0.9743,0.0257	-9243.41
0.9917,0.0083	-9242.32
0.9846,0.0154	-9242.76
0.9275,0.0725	-9249.12
0.9948,0.0052	-9242.12
0.9120,0.0880	-9254.70
0.9808,0.0192	-9243.00
0.9902,0.0098	-9242.41
0.9851,0.0149	-9242.73
0.9234,0.0766	-9251.85
0.9936,0.0064	-9242.20
0.9269,0.0731	-9254.24
0.9813,0.0187	-9246.93
0.9903,0.0097	-9242.40
0.9839,0.0161	-9242.80
0.9136,0.0864	-9254.65
0.9926,0.0074	-9247.16
0.9261,0.0739	-9256.79
0.9763,0.0237	-9247.00
0.9911,0.0089	-9242.35
0.9825,0.0175	-9246.92
0.9000,0.1000	-9252.97
0.9939,0.0061	-9242.17
0.9243,0.0757	-9251.81
0.9763,0.0237	-9243.29
0.9912,0.0088	-9247.07
0.9878,0.0122	-9246.95
0.9130,0.0870	-9247.61
0.9934,0.0066	-9242.21
0.9358,0.0642	-9251.35
0.9751,0.0249	-9250.70
0.9892,0.0108	-9246.99
0.9879,0.0121	-9246.95
0.8937,0.1063	-9255.44
0.9923,0.0077	-9242.27
0.9544,0.0456	-9253.84
0.9732,0.0268	-9243.49
0.9910,0.0090	-9242.35
0.9864,0.0136	-9242.64
0.9010,0.0990	-9257.34
0.9890,0.0110	-9242.48
0.9479,0.0521	-9245.16
0.9744,0.0256	-9243.41
0.9927,0.0073	-9242.25
0.9865,0.0135	-9246.93
0.9057,0.0943	-9252.68
0.9862,0.0138	-9242.66
0.9518,0.0482	-9253.84
0.9748,0.0252	-9247.04
0.9923,0.0077	-9242.28
0.9871,0.0129	-9251.27
0.9027,0.0973	-9255.06
0.9877,0.0123	-9242.56
0.9554,0.0446	-9250.78
0.9726,0.0274	-9247.09
0.9917,0.0083	-9242.31
0.9885,0.0115	-9246.97
0.9223,0.0777	-9256.84
0.9874,0.0126	-9255.66
0.9521,0.0479	-9250.85
0.9730,0.0270	-9250.67
0.9912,0.0088	-9247.07
0.9893,0.0107	-9242.46
0.9216,0.0784	-9254.39
0.9854,0.0146	-9242.71
0.9460,0.0540	-9256.74
0.9751,0.0249	-9247.03
0.9915,0.0085	-9242.32
0.9894,0.0106	-9242.46
0.9214,0.0786	-9256.85
0.9865,0.0135	-9246.93
0.9447,0.0553	-9248.22
0.9735,0.0265	-9243.47
0.9932,0.0068	-9242.22
0.9888,0.0112	-9246.98
0.9107,0.0893	-9257.07
0.9853,0.0147	-9242.71
0.9478,0.0522	-9250.96
0.9703,0.0297	-9247.16
0.9931,0.0069	-9247.19
0.9881,0.0119	-9242.54
0.9047,0.0953	-9259.48
0.9876,0.0124	-9242.57
0.9429,0.0571	-9248.30
0.9778,0.0222	-9254.54
0.9938,0.0062	-9242.19
0.9889,0.0111	-9246.98
0.9075,0.0925	-9252.59
0.9831,0.0169	-9242.85
0.9459,0.0541	-9248.16
0.9776,0.0224	-9250.75
0.9946,0.0054	-9242.13
0.9892,0.0108	-9242.47
0.9247,0.0753	-9254.30
0.9863,0.0137	-9246.93
0.9447,0.0553	-9248.22
0.9751,0.0249	-9243.36
0.9947,0.0053	-9242.13
0.9911,0.0089	-9247.06
0.9347,0.0653	-9254.05
0.9831,0.0169	-9242.85
0.9384,0.0616	-9251.26
0.9754,0.0246	-9247.02
0.9945,0.0055	-9247.34
0.9923,0.0077	-9242.28
0.9333,0.0667	-9248.81
0.9838,0.0162	-9246.91
0.9118,0.0882	-9257.05
0.9657,0.0343	-9250.65
0.9941,0.0059	-9242.16
0.9911,0.0089	-9242.35
0.9355,0.0645	-9254.04
0.9818,0.0182	-9246.92
0.9143,0.0857	-9259.36
0.9631,0.0369	-9253.93
0.9944,0.0056	-9242.15
0.9926,0.0074	-9247.16
0.9280,0.0720	-9259.32
0.9802,0.0198	-9250.84
0.9166,0.0834	-9254.55
0.9730,0.0270	-9243.50
0.9935,0.0065	-9242.20
0.9906,0.0094	-9251.69
0.9150,0.0850	-9261.73
0.9772,0.0228	-9243.23
0.9046,0.0954	-9257.23
0.9704,0.0296	-9243.67
0.9933,0.0067	-9242.21
0.9921,0.0079	-9247.12
0.9063,0.0937	-9257.19
0.9802,0.0198	-9243.03
0.8833,0.1167	-9259.98
0.9669,0.0331	-9243.90
0.9945,0.0055	-9242.14
0.9938,0.0062	-9247.25
0.9017,0.0983	-9255.10
0.9834,0.0166	-9242.83
0.8735,0.1265	-9258.36
0.9701,0.0299	-9247.16
0.9942,0.0058	-9242.16
0.9943,0.0057	-9242.15
0.9092,0.0908	-9257.11
0.9835,0.0165	-9242.82
0.8569,0.1431	-9262.71
0.9701,0.0299	-9257.60
0.9953,0.0047	-9242.09
0.9942,0.0058	-9242.16
0.9147,0.0853	-9247.49
0.9834,0.0166	-9242.83
0.8811,0.1189	-9262.05
0.9751,0.0249	-9243.36
0.9952,0.0048	-9242.09
0.9943,0.0057	-9242.15
0.9110,0.0890	-9254.74
0.9794,0.0206	-9246.95
0.8779,0.1221	-9254.22
0.9800,0.0200	-9246.94
0.9952,0.0048	-9252.76
0.9946,0.0054	-9242.13
0.9162,0.0838	-9259.34
0.9780,0.0220	-9250.77
0.8861,0.1139	-9255.79
0.9799,0.0201	-9246.94
0.9955,0.0045	-9242.08
0.9955,0.0045	-9242.08
0.9192,0.0808	-9259.32
0.9824,0.0176	-9242.90
0.8985,0.1015	-9253.05
0.9794,0.0206	-9243.08
0.9964,0.0036	-9242.02
0.9960,0.0040	-9242.04
0.9211,0.0789	-9254.40
0.9842,0.0158	-9246.91
0.9042,0.0958	-9259.49
0.9808,0.0192	-9243.00
0.9964,0.0036	-9242.02
0.9964,0.0036	-9242.02
0.9317,0.0683	-9251.50
0.9792,0.0208	-9246.95
0.9042,0.0958	-9259.49
0.9809,0.0191	-9246.93
0.9967,0.0033	-9242.00
0.9966,0.0034	-9247.69
0.9323,0.0677	-9251.48
0.9785,0.0215	-9243.14
0.9192,0.0808	-9254.46
0.9797,0.0203	-9243.07
0.9968,0.0032	-9241.99
0.9965,0.0035	-9247.66
0.9322,0.0678	-9254.11
0.9788,0.0212	-9243.12
0.9100,0.0900	-9257.09
0.9800,0.0200	-9243.05
0.9965,0.0035	-9242.02
0.9968,0.0032	-9242.00
0.9470,0.0530	-9253.87
0.9789,0.0211	-9246.96
0.9155,0.0845	-9259.35
0.9751,0.0249	-9250.70
0.9960,0.0040	-9242.05
0.9973,0.0027	-9241.97
0.9619,0.0381	-9257.14
0.9765,0.0235	-9243.27
0.9215,0.0785	-9251.93
0.9773,0.0227	-9250.75
0.9963,0.0037	-9242.03
0.9970,0.0030	-9241.98
0.9632,0.0368	-9244.14
0.9839,0.0161	-9242.80
0.9319,0.0681	-9251.50
0.9761,0.0239	-9247.01
0.9954,0.0046	-9242.09
0.9967,0.0033	-9242.00
0.9647,0.0353	-9244.04
0.9879,0.0121	-9251.36
0.9505,0.0495	-9247.94
0.9791,0.0209	-9243.11
0.9941,0.0059	-9242.17
0.9973,0.0027	-9241.97
0.9683,0.0317	-9254.06
0.9881,0.0119	-9246.96
0.9399,0.0601	-9248.46
0.9805,0.0195	-9243.02
0.9926,0.0074	-9242.26
0.9970,0.0030	-9241.98
0.9671,0.0329	-9250.64
0.9899,0.0101	-9242.43
0.9327,0.0673	-9256.72
0.9684,0.0316	-9247.22
0.9927,0.0073	-9242.25
0.9976,0.0024	-9241.95
0.9699,0.0301	-9247.17
0.9878,0.0122	-9242.55
0.9418,0.0582	-9245.57
0.9585,0.0415	-9247.59
0.9933,0.0067	-9242.22
0.9967,0.0033	-9242.00
0.9711,0.0289	-9243.62
0.9847,0.0153	-9242.75
0.9448,0.0552	-9251.05
0.9637,0.0363	-9247.38
0.9934,0.0066	-9242.21
0.9972,0.0028	-9241.98
0.9629,0.0371	-9253.92
0.9870,0.0130	-9242.61
0.9461,0.0539	-9251.01
0.9616,0.0384	-9247.46
0.9931,0.0069	-9242.22
0.9974,0.0026	-9241.96
0.9630,0.0370	-9253.93
0.9868,0.0132	-9246.93
0.9510,0.0490	-9244.95
0.9593,0.0407	-9247.55
0.9938,0.0062	-9242.19
0.9972,0.0028	-9241.97
0.9583,0.0417	-9250.73
0.9834,0.0166	-9242.83
0.9553,0.0447	-9250.78
0.9600,0.0400	-9257.06
0.9942,0.0058	-9242.16
0.9974,0.0026	-9241.96
0.9661,0.0339	-9250.65
0.9826,0.0174	-9250.95
0.9680,0.0320	-9243.82
0.9612,0.0388	-9250.69
0.9942,0.0058	-9247.30
0.9979,0.0021	-9241.93
0.9628,0.0372	-9250.67
0.9835,0.0165	-9242.82
0.9711,0.0289	-9243.62
0.9662,0.0338	-9250.65
0.9942,0.0058	-9242.16
0.9976,0.0024	-9241.95
0.9560,0.0440	-9256.93
0.9813,0.0187	-9242.97
0.9671,0.0329	-9254.02
0.9605,0.0395	-9250.70
0.9950,0.0050	-9242.11
0.9972,0.0028	-9247.84
0.9550,0.0450	-9244.68
0.9769,0.0231	-9243.25
0.9673,0.0327	-9247.25
0.9577,0.0423	-9253.86
0.9951,0.0049	-9242.10
0.9958,0.0042	-9247.52
0.9592,0.0408	-9244.40
0.9794,0.0206	-9243.09
0.9653,0.0347	-9250.65
0.9569,0.0431	-9247.66
0.9958,0.0042	-9242.06
0.9955,0.0045	-9242.08
0.9598,0.0402	-9253.88
0.9722,0.0278	-9243.55
0.9551,0.0449	-9250.79
0.9597,0.0403	-9260.22
0.9953,0.0047	-9242.09
0.9943,0.0057	-9247.31
0.9584,0.0416	-9244.46
0.9696,0.0304	-9247.18
0.9601,0.0399	-9244.34
0.9579,0.0421	-9244.49
0.9955,0.0045	-9242.07
0.9941,0.0059	-9242.16
0.9648,0.0352	-9253.96
0.9537,0.0463	-9250.82
0.9543,0.0457	-9259.92
0.9540,0.0460	-9244.75
0.9949,0.0051	-9242.11
0.9944,0.0056	-9242.15
0.9655,0.0345	-9247.32
0.9616,0.0384	-9244.24
0.9610,0.0390	-9250.69
0.9519,0.0481	-9250.86
0.9933,0.0067	-9242.21
0.9952,0.0048	-9247.44
0.9674,0.0326	-9257.42
0.9495,0.0505	-9245.05
0.9667,0.0333	-9247.28
0.9436,0.0564	-9248.27
0.9937,0.0063	-9242.19
0.9969,0.0031	-9241.99
0.9649,0.0351	-9244.02
0.9438,0.0562	-9253.90
0.9620,0.0380	-9247.45
0.9388,0.0612	-9259.43
0.9934,0.0066	-9242.21
0.9975,0.0025	-9247.95
0.9640,0.0360	-9247.37
0.9637,0.0363	-9244.10
0.9630,0.0370	-9247.41
0.9378,0.0622	-9259.42
0.9925,0.0075	-9242.26
0.9980,0.0020	-9241.92
0.9661,0.0339	-9254.00
0.9626,0.0374	-9244.18
0.9636,0.0364	-9250.66
0.9432,0.0568	-9251.10
0.9895,0.0105	-9242.45
0.9980,0.0020	-9241.92
0.9633,0.0367	-9244.13
0.9570,0.0430	-9250.75
0.9505,0.0495	-9250.89
0.9498,0.0502	-9250.91
0.9907,0.0093	-9242.38
0.9977,0.0023	-9241.94
0.9649,0.0351	-9250.65
0.9598,0.0402	-9244.36
0.9540,0.0460	-9250.81
0.9626,0.0374	-9244.18
0.9890,0.0110	-9246.98
0.9979,0.0021	-9241.93
0.9623,0.0377	-9244.19
0.9583,0.0417	-9247.59
0.9482,0.0518	-9253.86
0.9603,0.0397	-9247.51
0.9905,0.0095	-9242.39
0.9979,0.0021	-9241.93
0.9707,0.0293	-9254.15
0.9549,0.0451	-9247.74
0.9439,0.0561	-9253.90
0.9660,0.0340	-9243.95
0.9884,0.0116	-9242.52
0.9976,0.0024	-9241.95
0.9669,0.0331	-9243.89
0.9601,0.0399	-9247.52
0.9462,0.0538	-9259.61
0.9679,0.0321	-9250.64
0.9872,0.0128	-9242.59
0.9974,0.0026	-9241.96
0.9710,0.0290	-9250.65
0.9576,0.0424	-9250.74
0.9583,0.0417	-9247.59
0.9686,0.0314	-9254.07
0.9887,0.0113	-9246.97
0.9977,0.0023	-9241.94
0.9750,0.0250	-9250.70
0.9614,0.0386	-9250.69
0.9628,0.0372	-9250.67
0.9690,0.0310	-9247.20
0.9853,0.0147	-9242.72
0.9979,0.0021	-9241.93
0.9739,0.0261	-9243.44
0.9600,0.0400	-9250.70
0.9642,0.0358	-9244.07
0.9738,0.0262	-9247.06
0.9866,0.0134	-9242.63
0.9980,0.0020	-9241.92
0.9684,0.0316	-9247.22
0.9493,0.0507	-9250.92
0.9695,0.0305	-9247.18
0.9792,0.0208	-9243.10
0.9871,0.0129	-9242.60
0.9984,0.0016	-9241.90
0.9731,0.0269	-9250.67
0.9442,0.0558	-9251.07
0.9774,0.0226	-9243.21
0.9834,0.0166	-9242.83
0.9900,0.0100	-9242.42
0.9987,0.0013	-9241.88
0.9761,0.0239	-9247.01
0.9477,0.0523	-9253.86
0.9827,0.0173	-9242.87
0.9840,0.0160	-9251.04
0.9869,0.0131	-9242.61
0.9987,0.0013	-9241.88
0.9714,0.0286	-9254.18
0.9571,0.0429	-9244.54
0.9848,0.0152	-9242.74
0.9835,0.0165	-9246.91
0.9878,0.0122	-9246.95
0.9986,0.0014	-9241.89
0.9709,0.0291	-9247.14
0.9646,0.0354	-9247.35
0.9876,0.0124	-9246.95
0.9833,0.0167	-9242.84
0.9886,0.0114	-9242.51
0.9987,0.0013	-9241.88
0.9728,0.0272	-9257.82
0.9627,0.0373	-9247.42
0.9871,0.0129	-9251.28
0.9826,0.0174	-9242.89
0.9880,0.0120	-9242.54
0.9984,0.0016	-9241.90
0.9758,0.0242	-9243.31
0.9626,0.0374	-9250.67
0.9881,0.0119	-9242.54
0.9805,0.0195	-9246.93
0.9882,0.0118	-9242.53
0.9980,0.0020	-9248.16
0.9797,0.0203	-9246.94
0.9652,0.0348	-9247.33
0.9898,0.0102	-9242.43
0.9773,0.0227	-9250.75
0.9856,0.0144	-9242.69
0.9983,0.0017	-9241.90
0.9786,0.0214	-9243.14
0.9719,0.0281	-9247.11
0.9914,0.0086	-9251.82
0.9744,0.0256	-9250.69
0.9851,0.0149	-9242.73
0.9982,0.0018	-9241.91
0.9817,0.0183	-9246.92
0.9717,0.0283	-9247.12
0.9893,0.0107	-9242.47
0.9751,0.0249	-9247.03
0.9814,0.0186	-9246.93
0.9984,0.0016	-9241.90
0.9825,0.0175	-9242.89
0.9787,0.0213	-9246.96
0.9895,0.0105	-9251.54
0.9767,0.0233	-9243.26
0.9813,0.0187	-9242.97
0.9980,0.0020	-9241.92
0.9793,0.0207	-9246.95
0.9768,0.0232	-9243.25
0.9849,0.0151	-9242.74
0.9790,0.0210	-9246.95
0.9769,0.0231	-9243.25
0.9982,0.0018	-9241.91
0.9757,0.0243	-9243.32
0.9764,0.0236	-9243.28
0.9855,0.0145	-9246.92
0.9803,0.0197	-9250.84
0.9744,0.0256	-9247.05
0.9982,0.0018	-9241.91
0.9715,0.0285	-9247.12
0.9787,0.0213	-9246.96
0.9854,0.0146	-9242.71
0.9829,0.0171	-9242.86
0.9743,0.0257	-9243.42
0.9988,0.0012	-9241.87
0.9684,0.0316	-9247.22
0.9788,0.0212	-9243.12
0.9840,0.0160	-9242.79
0.9809,0.0191	-9242.99
0.9736,0.0264	-9243.46
0.9988,0.0012	-9241.87
0.9779,0.0221	-9243.18
0.9803,0.0197	-9243.03
0.9788,0.0212	-9246.96
0.9861,0.0139	-9242.66
0.9786,0.0214	-9250.78
0.9990,0.0010	-9241.86
0.9776,0.0224	-9243.20
0.9773,0.0227	-9246.98
0.9813,0.0187	-9246.93
0.9883,0.0117	-9242.53
0.9783,0.0217	-9250.78
0.9990,0.0010	-9241.86
0.9765,0.0235	-9243.27
0.9685,0.0315	-9257.50
0.9757,0.0243	-9247.02
0.9910,0.0090	-9242.36
0.9764,0.0236	-9247.00
0.9986,0.0014	-9241.89
0.9767,0.0233	-9243.26
0.9646,0.0354	-9244.05
0.9767,0.0233	-9254.47
0.9923,0.0077	-9247.13
0.9812,0.0188	-9250.88
0.9985,0.0015	-9241.89
0.9783,0.0217	-9243.16
0.9696,0.0304	-9254.10
0.9715,0.0285	-9247.12
0.9915,0.0085	-9242.32
0.9751,0.0249	-9243.36
0.9983,0.0017	-9241.90
0.9821,0.0179	-9246.92
0.9672,0.0328	-9243.87
0.9731,0.0269	-9257.85
0.9918,0.0082	-9242.30
0.9704,0.0296	-9243.67
0.9983,0.0017	-9248.27
0.9868,0.0132	-9242.62
0.9683,0.0317	-9247.22
0.9764,0.0236	-9250.72
0.9912,0.0088	-9247.07
0.9704,0.0296	-9247.16
0.9983,0.0017	-9241.91
0.9881,0.0119	-9246.96
0.9706,0.0294	-9243.65
0.9773,0.0227	-9246.98
0.9909,0.0091	-9242.36
0.9660,0.0340	-9257.34
0.9984,0.0016	-9241.90
0.9868,0.0132	-9242.62
0.9679,0.0321	-9247.24
0.9740,0.0260	-9247.06
0.9920,0.0080	-9242.29
0.9629,0.0371	-9244.15
0.9980,0.0020	-9241.93
0.9859,0.0141	-9242.67
0.9615,0.0385	-9247.47
0.9754,0.0246	-9250.70
0.9919,0.0081	-9242.30
0.9697,0.0303	-9243.71
0.9976,0.0024	-9241.95
0.9881,0.0119	-9246.96
0.9583,0.0417	-9244.46
0.9675,0.0325	-9243.85
0.9914,0.0086	-9242.33
0.9638,0.0362	-9250.66
0.9983,0.0017	-9241.90
0.9892,0.0108	-9242.47
0.9540,0.0460	-9244.75
0.9725,0.0275	-9247.10
0.9912,0.0088	-9242.34
0.9602,0.0398	-9247.52
0.9984,0.0016	-9241.90
0.9877,0.0123	-9242.57
0.9493,0.0507	-9250.92
0.9690,0.0310	-9254.09
0.9909,0.0091	-9242.36
0.9575,0.0425	-9247.63
0.9987,0.0013	-9241.88
0.9849,0.0151	-9242.74
0.9295,0.0705	-9246.44
0.9708,0.0292	-9247.15
0.9886,0.0114	-9242.51
0.9626,0.0374	-9250.67
0.9987,0.0013	-9241.88
0.9830,0.0170	-9246.92
0.9377,0.0623	-9253.99
0.9694,0.0306	-9247.19
0.9854,0.0146	-9242.71
0.9588,0.0412	-9250.72
0.9987,0.0013	-9248.53
0.9840,0.0160	-9246.91
0.9396,0.0604	-9245.73
0.9701,0.0299	-9247.17
0.9844,0.0156	-9242.77
0.9547,0.0453	-9256.89
0.9987,0.0013	-9241.88
0.9841,0.0159	-9242.79
0.9139,0.0861	-9254.64
0.9774,0.0226	-9243.22
0.9840,0.0160	-9242.80
0.9546,0.0454	-9244.71
0.9987,0.0013	-9241.88
0.9850,0.0150	-9242.73
0.9151,0.0849	-9256.97
0.9782,0.0218	-9243.16
0.9824,0.0176	-9242.90
0.9590,0.0410	-9247.57
0.9986,0.0014	-9241.89
0.9851,0.0149	-9242.72
0.9135,0.0865	-9254.65
0.9800,0.0200	-9243.05
0.9852,0.0148	-9242.72
0.9610,0.0390	-9247.49
0.9988,0.0012	-9241.87
0.9860,0.0140	-9242.67
0.9051,0.0949	-9254.96
0.9795,0.0205	-9250.81
0.9865,0.0135	-9246.93
0.9648,0.0352	-9244.03
0.9987,0.0013	-9241.88
0.9881,0.0119	-9242.53
0.8918,0.1082	-9259.75
0.9830,0.0170	-9242.86
0.9843,0.0157	-9259.33
0.9666,0.0334	-9247.28
0.9989,0.0011	-9241.87
0.9898,0.0102	-9242.43
0.8768,0.1232	-9262.14
0.9855,0.0145	-9246.92
0.9842,0.0158	-9242.78
0.9617,0.0383	-9247.46
0.9990,0.0010	-9241.86
0.9922,0.0078	-9242.28
0.8534,0.1466	-9264.59
0.9824,0.0176	-9242.90
0.9866,0.0134	-9251.23
0.9615,0.0385	-9247.47
0.9991,0.0009	-9241.86
0.9909,0.0091	-9242.36
0.8690,0.1310	-9258.55
0.9797,0.0203	-9246.95
0.9839,0.0161	-9242.80
0.9648,0.0352	-9244.03
0.9992,0.0008	-9249.03
0.9903,0.0097	-9242.40
0.8605,0.1395	-9262.59
0.9733,0.0267	-9247.07
0.9822,0.0178	-9242.91
0.9598,0.0402	-9253.88
0.9991,0.0009	-9248.92
0.9892,0.0108	-9246.99
0.8663,0.1337	-9258.68
0.9743,0.0257	-9243.41
0.9864,0.0136	-9251.21
0.9577,0.0423	-9244.50
0.9993,0.0007	-9241.85
0.9889,0.0111	-9251.46
0.8804,0.1196	-9262.06
0.9751,0.0249	-9247.03
0.9843,0.0157	-9255.19
0.9626,0.0374	-9250.67
0.9993,0.0007	-9241.84
0.9883,0.0117	-9242.53
0.8629,0.1371	-9262.52
0.9715,0.0285	-9243.59
0.9842,0.0158	-9242.78
0.9639,0.0361	-9247.37
0.9993,0.0007	-9241.84
0.9897,0.0103	-9242.44
0.8531,0.1469	-9261.08
0.9694,0.0306	-9247.19
0.9857,0.0143	-9242.69
0.9675,0.0325	-9247.25
0.9993,0.0007	-9241.84
0.9909,0.0091	-9242.37
0.8699,0.1301	-9264.22
0.9592,0.0408	-9257.03
0.9902,0.0098	-9242.41
0.9719,0.0281	-9247.11
0.9992,0.0008	-9241.85
0.9911,0.0089	-9242.35
0.8716,0.1284	-9260.36
0.9655,0.0345	-9253.98
0.9891,0.0109	-9242.47
0.9730,0.0270	-9243.50
0.9994,0.0006	-9241.84
0.9906,0.0094	-9242.38
0.8772,0.1228	-9264.10
0.9646,0.0354	-9247.35
0.9913,0.0087	-9247.07
0.9760,0.0240	-9250.72
0.9994,0.0006	-9241.84
0.9931,0.0069	-9242.23
0.8925,0.1075	-9257.61
0.9606,0.0394	-9250.70
0.9912,0.0088	-9242.34
0.9713,0.0287	-9254.17
0.9993,0.0007	-9241.84
0.9944,0.0056	-9242.15
0.8983,0.1017	-9257.42
0.9602,0.0398	-9247.52
0.9897,0.0103	-9242.44
0.9757,0.0243	-9243.33
0.9992,0.0008	-9241.85
0.9944,0.0056	-9242.15
0.9142,0.0858	-9256.99
0.9523,0.0477	-9250.85
0.9885,0.0115	-9242.51
0.9746,0.0254	-9247.04
0.9991,0.0009	-9241.85
0.9948,0.0052	-9242.12
0.9335,0.0665	-9262.00
0.9556,0.0444	-9244.64
0.9885,0.0115	-9242.51
0.9779,0.0221	-9243.18
0.9991,0.0009	-9241.85
0.9949,0.0051	-9242.12
0.9396,0.0604	-9251.22
0.9619,0.0381	-9244.22
0.9879,0.0121	-9242.55
0.9785,0.0215	-9243.15
0.9991,0.0009	-9241.86
0.9938,0.0062	-9242.18
0.9246,0.0754	-9246.78
0.9573,0.0427	-9247.63
0.9890,0.0110	-9246.98
0.9756,0.0244	-9243.33
0.9992,0.0008	-9241.85
0.9945,0.0055	-9247.33
0.9403,0.0597	-9256.71
0.9520,0.0480	-9244.88
0.9884,0.0116	-9242.52
0.9745,0.0255	-9243.40
0.9992,0.0008	-9241.85
0.9948,0.0052	-9242.12
0.9428,0.0572	-9248.31
0.9500,0.0500	-9259.74
0.9877,0.0123	-9246.95
0.9617,0.0383	-9247.46
0.9991,0.0009	-9241.85
0.9953,0.0047	-9242.09
0.9490,0.0510	-9250.93
0.9592,0.0408	-9250.71
0.9875,0.0125	-9242.57
0.9608,0.0392	-9257.09
0.9988,0.0012	-9241.87
0.9949,0.0051	-9242.12
0.9366,0.0634	-9251.32
0.9640,0.0360	-9247.37
0.9880,0.0120	-9242.54
0.9641,0.0359	-9250.66
0.9988,0.0012	-9241.88
0.9955,0.0045	-9242.08
0.9455,0.0545	-9248.17
0.9692,0.0308	-9247.19
0.9883,0.0117	-9242.53
0.9613,0.0387	-9250.69
0.9987,0.0013	-9241.88
0.9963,0.0037	-9242.03
0.9439,0.0561	-9256.72
0.9668,0.0332	-9250.64
0.9881,0.0119	-9242.53
0.9582,0.0418	-9244.47
0.9986,0.0014	-9241.89
0.9971,0.0029	-9247.82
0.9427,0.0573	-9253.92
0.9577,0.0423	-9253.86
0.9864,0.0136	-9242.64
0.9518,0.0482	-9250.86
0.9989,0.0011	-9241.87
0.9971,0.0029	-9247.82
0.9481,0.0519	-9250.96
0.9601,0.0399	-9250.70
0.9874,0.0126	-9242.58
0.9494,0.0506	-9247.99
0.9991,0.0009	-9241.86
0.9974,0.0026	-9241.96
0.9593,0.0407	-9247.55
0.9623,0.0377	-9250.67
0.9816,0.0184	-9242.95
0.9559,0.0441	-9250.77
0.9991,0.0009	-9241.85
0.9975,0.0025	-9241.96
0.9565,0.0435	-9263.12
0.9569,0.0431	-9244.55
0.9837,0.0163	-9246.91
0.9605,0.0395	-9253.89
0.9991,0.0009	-9241.86
0.9971,0.0029	-9241.98
0.9511,0.0489	-9250.88
0.9582,0.0418	-9250.73
0.9832,0.0168	-9242.85
0.9685,0.0315	-9243.79
0.9992,0.0008	-9241.85
0.9965,0.0035	-9242.01
0.9570,0.0430	-9244.55
0.9541,0.0459	-9244.74
0.9757,0.0243	-9243.32
0.9586,0.0414	-9247.58
0.9991,0.0009	-9241.86
0.9964,0.0036	-9242.02
0.9567,0.0433	-9247.66
0.9508,0.0492	-9253.85
0.9736,0.0264	-9254.28
0.9672,0.0328	-9247.26
0.9991,0.0009	-9241.85
0.9968,0.0032	-9242.00
0.9418,0.0582	-9248.36
0.9404,0.0596	-9251.19
0.9716,0.0284	-9243.59
0.9591,0.0409	-9247.56
0.9992,0.0008	-9241.85
0.9972,0.0028	-9241.97
0.9228,0.0772	-9254.35
0.9376,0.0624	-9248.58
0.9665,0.0335	-9247.28
0.9531,0.0469	-9247.82
0.9993,0.0007	-9241.84
0.9974,0.0026	-9241.96
0.9202,0.0798	-9259.32
0.9288,0.0712	-9259.32
0.9724,0.0276	-9247.10
0.9613,0.0387	-9247.48
0.9993,0.0007	-9241.84
0.9974,0.0026	-9241.96
0.9123,0.0877	-9257.04
0.9301,0.0699	-9248.98
0.9725,0.0275	-9243.53
0.9747,0.0253	-9247.04
0.9993,0.0007	-9249.04
0.9975,0.0025	-9247.96
0.9291,0.0709	-9254.18
0.9468,0.0532	-9253.87
0.9718,0.0282	-9254.20
0.9707,0.0293	-9250.65
0.9994,0.0006	-9241.84
0.9978,0.0022	-9248.05
0.9363,0.0637	-9256.71
0.9514,0.0486	-9247.90
0.9685,0.0315	-9243.79
0.9679,0.0321	-9247.23
0.9994,0.0006	-9241.84
0.9979,0.0021	-9241.93
0.9466,0.0534	-9251.00
0.9459,0.0541	-9253.88
0.9681,0.0319	-9250.64
0.9677,0.0323	-9247.24
0.9994,0.0006	-9241.84
0.9980,0.0020	-9241.93
0.9481,0.0519	-9245.14
0.9341,0.0659	-9248.76
0.9588,0.0412	-9253.87
0.9643,0.0357	-9244.06
0.9992,0.0008	-9241.85
0.9977,0.0023	-9241.94
0.9578,0.0422	-9253.86
0.9275,0.0725	-9254.22
0.9621,0.0379	-9244.21
0.9585,0.0415	-9250.73
0.9991,0.0009	-9241.86
0.9965,0.0035	-9242.01
0.9627,0.0373	-9244.17
0.9199,0.0801	-9254.44
0.9624,0.0376	-9247.43
0.9616,0.0384	-9244.24
0.9991,0.0009	-9241.86
0.9972,0.0028	-9247.86
0.9549,0.0451	-9250.79
0.9171,0.0829	-9252.13
0.9534,0.0466	-9247.81
0.9597,0.0403	-9250.71
0.9989,0.0011	-9248.69
0.9968,0.0032	-9242.00
0.9372,0.0628	-9254.00
0.9031,0.0969	-9252.81
0.9572,0.0428	-9247.64
0.9539,0.0461	-9247.79
0.9990,0.0010	-9241.86
0.9967,0.0033	-9242.01
0.9299,0.0701	-9254.16
0.9071,0.0929	-9252.61
0.9622,0.0378	-9247.44
0.9537,0.0463	-9244.77
0.9993,0.0007	-9241.84
0.9963,0.0037	-9242.03
0.9290,0.0710	-9256.75
0.9168,0.0832	-9256.94
0.9684,0.0316	-9243.80
0.9612,0.0388	-9247.48
0.9991,0.0009	-9241.85
0.9952,0.0048	-9242.10
0.9433,0.0567	-9259.53
0.9143,0.0857	-9256.99
0.9598,0.0402	-9244.36
0.9499,0.0501	-9250.91
0.9991,0.0009	-9241.86
0.9954,0.0046	-9242.08
0.9561,0.0439	-9256.93
0.9228,0.0772	-9261.79
0.9576,0.0424	-9247.62
0.9570,0.0430	-9253.85
0.9988,0.0012	-9241.87
0.9946,0.0054	-9242.13
0.9429,0.0571	-9245.50
0.9260,0.0740	-9249.21
0.9565,0.0435	-9247.67
0.9630,0.0370	-9250.67
0.9986,0.0014	-9248.45
0.9947,0.0053	-9242.13
0.9291,0.0709	-9254.18
0.9383,0.0617	-9248.54
0.9488,0.0512	-9250.94
0.9687,0.0313	-9247.21
0.9983,0.0017	-9241.90
0.9943,0.0057	-9242.15
0.9239,0.0761	-9261.81
0.9466,0.0534	-9248.12
0.9443,0.0557	-9251.06
0.9616,0.0384	-9250.68
0.9985,0.0015	-9241.89
0.9950,0.0050	-9242.11
0.9324,0.0676	-9256.73
0.9566,0.0434	-9244.57
0.9433,0.0567	-9251.10
0.9574,0.0426	-9247.63
0.9982,0.0018	-9241.91
0.9940,0.0060	-9242.17
0.9455,0.0545	-9251.03
0.9545,0.0455	-9247.76
0.9530,0.0470	-9250.83
0.9664,0.0336	-9243.93
0.9980,0.0020	-9241.92
0.9930,0.0070	-9247.19
0.9495,0.0505	-9250.92
0.9593,0.0407	-9250.71
0.9490,0.0510	-9253.86
0.9680,0.0320	-9243.82
0.9982,0.0018	-9241.91
0.9917,0.0083	-9242.31
0.9449,0.0551	-9251.05
0.9450,0.0550	-9251.04
0.9310,0.0690	-9248.93
0.9715,0.0285	-9243.59
0.9978,0.0022	-9241.93
0.9906,0.0094	-9242.38
0.9387,0.0613	-9248.52
0.9459,0.0541	-9251.02
0.9246,0.0754	-9254.30
0.9719,0.0281	-9243.57
0.9980,0.0020	-9241.93
0.9912,0.0088	-9247.07
0.9168,0.0832	-9259.34
0.9428,0.0572	-9251.11
0.9349,0.0651	-9246.06
0.9731,0.0269	-9243.49
0.9982,0.0018	-9248.24
0.9911,0.0089	-9242.35
0.8951,0.1049	-9259.67
0.9448,0.0552	-9253.89
0.9333,0.0667	-9256.72
0.9729,0.0271	-9247.08
0.9978,0.0022	-9241.94
0.9916,0.0084	-9242.32
0.9056,0.0944	-9261.73
0.9429,0.0571	-9253.91
0.9549,0.0451	-9247.74
0.9769,0.0231	-9243.25
0.9976,0.0024	-9241.95
0.9912,0.0088	-9242.34
0.9079,0.0921	-9254.85
0.9322,0.0678	-9259.35
0.9469,0.0531	-9248.11
0.9751,0.0249	-9250.70
0.9973,0.0027	-9241.96
0.9939,0.0061	-9242.18
0.9175,0.0825	-9256.92
0.9309,0.0691	-9251.53
0.9425,0.0575	-9248.32
0.9730,0.0270	-9254.25
0.9975,0.0025	-9241.95
0.9939,0.0061	-9247.27
0.9164,0.0836	-9259.34
0.9446,0.0554	-9245.38
0.9364,0.0636	-9251.33
0.9695,0.0305	-9250.64
0.9965,0.0035	-9242.02
0.9936,0.0064	-9242.20
0.9125,0.0875	-9259.38
0.9522,0.0478	-9250.85
0.9436,0.0564	-9253.90
0.9632,0.0368	-9253.93
0.9956,0.0044	-9242.07
0.9947,0.0053	-9242.13
0.9158,0.0842	-9249.80
0.9622,0.0378	-9250.68
0.9466,0.0534	-9248.12
0.9628,0.0372	-9247.41
0.9946,0.0054	-9247.35
0.9953,0.0047	-9242.09
0.9107,0.0893	-9254.75
0.9705,0.0295	-9243.66
0.9355,0.0645	-9248.69
0.9588,0.0412	-9250.72
0.9941,0.0059	-9242.17
0.9954,0.0046	-9242.08
0.9128,0.0872	-9252.33
0.9731,0.0269	-9250.67
0.9475,0.0525	-9250.97
0.9539,0.0461	-9253.84
0.9954,0.0046	-9242.09
0.9944,0.0056	-9242.15
0.9025,0.0975	-9250.62
0.9632,0.0368	-9247.40
0.9535,0.0465	-9253.84
0.9641,0.0359	-9247.37
0.9947,0.0053	-9242.13
0.9944,0.0056	-9247.32
0.8984,0.1016	-9261.78
0.9638,0.0362	-9247.38
0.9407,0.0593	-9248.42
0.9679,0.0321	-9247.23
0.9930,0.0070	-9247.18
0.9948,0.0052	-9242.12
0.9231,0.0769	-9269.25
0.9581,0.0419	-9253.86
0.9485,0.0515	-9253.86
0.9633,0.0367	-9244.13
0.9930,0.0070	-9242.23
0.9951,0.0049	-9242.10
0.9292,0.0708	-9246.45
0.9660,0.0340	-9247.30
0.9525,0.0475	-9250.84
0.9684,0.0316	-9257.48
0.9937,0.0063	-9242.19
0.9950,0.0050	-9242.11
0.9207,0.0793	-9249.51
0.9699,0.0301	-9243.70
0.9526,0.0474	-9253.84
0.9644,0.0356	-9253.96
0.9944,0.0056	-9242.15
0.9937,0.0063	-9242.19
0.9049,0.0951	-9250.47
0.9699,0.0301	-9247.17
0.9585,0.0415	-9247.59
0.9698,0.0302	-9247.17
0.9955,0.0045	-9242.08
0.9941,0.0059	-9242.16
0.9030,0.0970	-9263.97
0.9553,0.0447	-9244.66
0.9620,0.0380	-9253.91
0.9655,0.0345	-9253.98
0.9959,0.0041	-9242.06
0.9947,0.0053	-9242.12
0.8911,0.1089	-9257.66
0.9555,0.0445	-9256.91
0.9520,0.0480	-9247.87
0.9634,0.0366	-9267.02
0.9955,0.0045	-9242.08
0.9946,0.0054	-9242.13
0.8797,0.1203	-9266.05
0.9551,0.0449	-9244.67
0.9571,0.0429	-9244.54
0.9617,0.0383	-9250.68
0.9952,0.0048	-9242.10
0.9933,0.0067	-9242.21
0.8652,0.1348	-9256.87
0.9554,0.0446	-9253.85
0.9611,0.0389	-9247.48
0.9657,0.0343	-9247.31
0.9960,0.0040	-9242.05
0.9936,0.0064	-9242.19
0.8799,0.1201	-9254.11
0.9620,0.0380	-9250.68
0.9664,0.0336	-9250.64
0.9769,0.0231	-9246.99
0.9963,0.0037	-9242.03
0.9927,0.0073	-9242.25
0.9088,0.0912	-9252.52
0.9600,0.0400	-9244.35
0.9639,0.0361	-9244.09
0.9804,0.0196	-9246.94
0.9972,0.0028	-9241.97
0.9912,0.0088	-9242.34
0.9047,0.0953	-9254.98
0.9617,0.0383	-9247.46
0.9581,0.0419	-9247.60
0.9779,0.0221	-9246.97
0.9979,0.0021	-9241.93
0.9925,0.0075	-9242.26
0.8764,0.1236	-9256.27
0.9724,0.0276	-9243.54
0.9674,0.0326	-9257.42
0.9779,0.0221	-9250.76
0.9976,0.0024	-9241.95
0.9921,0.0079	-9242.29
0.8812,0.1188	-9266.05
0.9651,0.0349	-9244.01
0.9669,0.0331	-9254.02
0.9842,0.0158	-9242.78
0.9973,0.0027	-9247.89
0.9926,0.0074	-9242.26
0.8714,0.1286	-9252.71
0.9664,0.0336	-9250.64
0.9625,0.0375	-9253.92
0.9781,0.0219	-9246.97
0.9974,0.0026	-9241.96
0.9927,0.0073	-9242.25
0.8681,0.1319	-9268.02
0.9566,0.0434	-9244.57
0.9653,0.0347	-9244.00
0.9731,0.0269	-9243.49
0.9981,0.0019	-9241.92
0.9933,0.0067	-9247.21
0.8875,0.1125	-9255.73
0.9585,0.0415	-9253.87
0.9748,0.0252	-9247.04
0.9727,0.0273	-9247.09
0.9982,0.0018	-9241.91
0.9938,0.0062	-9242.18
0.8658,0.1342	-9258.70
0.9552,0.0448	-9253.85
0.9788,0.0212	-9243.13
0.9802,0.0198	-9243.04
0.9979,0.0021	-9248.07
0.9960,0.0040	-9242.05
0.8768,0.1232	-9266.07
0.9516,0.0484	-9244.91
0.9826,0.0174	-9246.92
0.9787,0.0213	-9243.13
0.9979,0.0021	-9241.93
0.9953,0.0047	-9242.09
0.8690,0.1310	-9258.56
0.9552,0.0448	-9250.79
0.9817,0.0183	-9242.94
0.9803,0.0197	-9243.03
0.9976,0.0024	-9241.95
0.9942,0.0058	-9242.16
0.8648,0.1352	-9256.89
0.9548,0.0452	-9244.70
0.9833,0.0167	-9242.84
0.9804,0.0196	-9243.02
0.9977,0.0023	-9241.94
0.9938,0.0062	-9247.26
0.8734,0.1266	-9256.43
0.9574,0.0426	-9247.63
0.9859,0.0141	-9242.67
0.9813,0.0187	-9242.97
0.9982,0.0018	-9241.91
0.9944,0.0056	-9242.15
0.8663,0.1337	-9260.55
0.9631,0.0369	-9247.41
0.9850,0.0150	-9246.92
0.9793,0.0207	-9243.09
0.9983,0.0017	-9241.90
0.9947,0.0053	-9242.13
0.8765,0.1235	-9256.27
0.9692,0.0308	-9247.19
0.9873,0.0127	-9242.59
0.9778,0.0222	-9246.97
0.9982,0.0018	-9241.91
0.9948,0.0052	-9247.38
0.8723,0.1277	-9258.41
0.9697,0.0303	-9243.71
0.9844,0.0156	-9246.91
0.9776,0.0224	-9243.20
0.9986,0.0014	-9241.88
0.9942,0.0058	-9247.30
0.8574,0.1426	-9257.31
0.9728,0.0272	-9243.51
0.9846,0.0154	-9242.76
0.9795,0.0205	-9243.08
0.9983,0.0017	-9241.90
0.9948,0.0052	-9242.12
0.8475,0.1525	-9263.05
0.9714,0.0286	-9247.13
0.9813,0.0187	-9246.93
0.9780,0.0220	-9250.77
0.9986,0.0014	-9241.89
0.9939,0.0061	-9242.17
0.8421,0.1579	-9259.91
0.9699,0.0301	-9247.17
0.9766,0.0234	-9243.26
0.9770,0.0230	-9246.99
0.9986,0.0014	-9241.89
0.9930,0.0070	-9242.23
0.8577,0.1423	-9259.09
0.9682,0.0318	-9247.22
0.9762,0.0238	-9250.72
0.9723,0.0277	-9243.54
0.9985,0.0015	-9241.90
0.9917,0.0083	-9242.31
0.8632,0.1368	-9258.83
0.9596,0.0404	-9250.71
0.9750,0.0250	-9243.37
0.9715,0.0285	-9243.59
0.9984,0.0016	-9241.90
0.9935,0.0065	-9242.20
0.8685,0.1315	-9258.58
0.9421,0.0579	-9245.56
0.9777,0.0223	-9243.20
0.9722,0.0278	-9250.66
0.9980,0.0020	-9241.92
0.9909,0.0091	-9242.36
0.8618,0.1382	-9262.55
0.9496,0.0504	-9247.98
0.9766,0.0234	-9247.00
0.9712,0.0288	-9250.65
0.9981,0.0019	-9241.92
0.9902,0.0098	-9242.41
0.8750,0.1250	-9262.18
0.9300,0.0700	-9264.50
0.9742,0.0258	-9247.05
0.9618,0.0382	-9247.46
0.9978,0.0022	-9241.94
0.9916,0.0084	-9242.32
0.8833,0.1167	-9255.93
0.9218,0.0782	-9249.44
0.9743,0.0257	-9250.68
0.9554,0.0446	-9253.85
0.9981,0.0019	-9241.92
0.9915,0.0085	-9242.33
0.9095,0.0905	-9254.80
0.9173,0.0827	-9254.52
0.9726,0.0274	-9250.66
0.9598,0.0402	-9253.88
0.9981,0.0019	-9241.92
0.9920,0.0080	-9247.12
0.9316,0.0684	-9256.73
0.9008,0.0992	-9257.34
0.9700,0.0300	-9247.17
0.9595,0.0405	-9250.71
0.9977,0.0023	-9241.94
0.9927,0.0073	-9242.25
0.9369,0.0631	-9248.61
0.8876,0.1124	-9249.52
0.9705,0.0295	-9257.63
0.9617,0.0383	-9250.68
0.9982,0.0018	-9241.91
0.9940,0.0060	-9242.17
0.9442,0.0558	-9245.41
0.8912,0.1088	-9257.66
0.9694,0.0306	-9247.19
0.9580,0.0420	-9256.99
0.9988,0.0012	-9241.87
0.9941,0.0059	-9247.29
0.9419,0.0581	-9248.35
0.9159,0.0841	-9259.35
0.9642,0.0358	-9253.95
0.9630,0.0370	-9247.41
0.9987,0.0013	-9241.88
0.9927,0.0073	-9247.16
0.9460,0.0540	-9251.01
0.9320,0.0680	-9251.49
0.9650,0.0350	-9250.65
0.9712,0.0288	-9247.13
0.9982,0.0018	-9241.91
0.9910,0.0090	-9242.36
0.9594,0.0406	-9244.38
0.9368,0.0632	-9259.40
0.9568,0.0432	-9247.66
0.9708,0.0292	-9243.64
0.9979,0.0021	-9241.93
0.9915,0.0085	-9242.33
0.9618,0.0382	-9244.23
0.9249,0.0751	-9261.82
0.9492,0.0508	-9245.07
0.9677,0.0323	-9250.64
0.9978,0.0022	-9241.94
0.9925,0.0075	-9242.26
0.9560,0.0440	-9256.93
0.9317,0.0683	-9254.12
0.9415,0.0585	-9248.37
0.9637,0.0363	-9244.10
0.9979,0.0021	-9241.93
0.9914,0.0086	-9247.08
0.9533,0.0467	-9250.83
0.9416,0.0584	-9259.49
0.9416,0.0584	-9248.37
0.9639,0.0361	-9247.38
0.9975,0.0025	-9241.95
0.9895,0.0105	-9242.45
0.9492,0.0508	-9245.07
0.9527,0.0473	-9247.84
0.9285,0.0715	-9254.19
0.9607,0.0393	-9250.69
0.9974,0.0026	-9241.96
0.9905,0.0095	-9247.03
0.9469,0.0531	-9250.99
0.9567,0.0433	-9253.85
0.9395,0.0605	-9248.48
0.9631,0.0369	-9247.40
0.9973,0.0027	-9241.96
0.9909,0.0091	-9242.36
0.9525,0.0475	-9259.84
0.9590,0.0410	-9257.02
0.9409,0.0591	-9262.24
0.9615,0.0385	-9250.68
0.9966,0.0034	-9242.01
0.9908,0.0092	-9242.37
0.9524,0.0476	-9250.85
0.9565,0.0435	-9253.85
0.9421,0.0579	-9251.14
0.9606,0.0394	-9253.89
0.9974,0.0026	-9241.96
0.9929,0.0071	-9247.18
0.9621,0.0379	-9244.21
0.9602,0.0398	-9244.34
0.9510,0.0490	-9250.88
0.9572,0.0428	-9250.75
0.9978,0.0022	-9241.94
0.9923,0.0077	-9247.14
0.9571,0.0429	-9247.64
0.9535,0.0465	-9253.84
0.9557,0.0443	-9253.85
0.9606,0.0394	-9247.50
0.9975,0.0025	-9241.95
0.9929,0.0071	-9242.24
0.9633,0.0367	-9244.13
0.9539,0.0461	-9247.78
0.9573,0.0427	-9247.64
0.9617,0.0383	-9247.46
0.9979,0.0021	-9248.11
0.9918,0.0082	-9247.10
0.9527,0.0473	-9253.84
0.9571,0.0429	-9247.65
0.9608,0.0392	-9244.30
0.9594,0.0406	-9244.38
0.9978,0.0022	-9241.93
0.9906,0.0094	-9242.38
0.9550,0.0450	-9244.68
0.9481,0.0519	-9248.05
0.9641,0.0359	-9247.37
0.9633,0.0367	-9244.13
0.9982,0.0018	-9241.91
0.9918,0.0082	-9242.31
0.9433,0.0567	-9248.29
0.9399,0.0601	-9253.96
0.9614,0.0386	-9250.69
0.9631,0.0369	-9244.14
0.9982,0.0018	-9241.91
0.9923,0.0077	-9242.28
0.9489,0.0511	-9248.01
0.9460,0.0540	-9248.15
0.9621,0.0379	-9257.15
0.9636,0.0364	-9244.11
0.9981,0.0019	-9241.92
0.9921,0.0079	-9242.29
0.9568,0.0432	-9247.66
0.9344,0.0656	-9248.74
0.9674,0.0326	-9247.25
0.9680,0.0320	-9247.23
0.9982,0.0018	-9248.23
0.9922,0.0078	-9247.13
0.9632,0.0368	-9247.40
0.9097,0.0903	-9254.79
0.9716,0.0284	-9247.12
0.9538,0.0462	-9244.76
0.9981,0.0019	-9241.92
0.9917,0.0083	-9242.31
0.9566,0.0434	-9250.76
0.9125,0.0875	-9250.00
0.9677,0.0323	-9250.64
0.9593,0.0407	-9250.71
0.9978,0.0022	-9241.93
0.9922,0.0078	-9242.28
0.9592,0.0408	-9244.40
0.9072,0.0928	-9254.88
0.9700,0.0300	-9243.69
0.9374,0.0626	-9251.29
0.9976,0.0024	-9241.95
0.9918,0.0082	-9242.31
0.9650,0.0350	-9244.01
0.9015,0.0985	-9255.11
0.9720,0.0280	-9254.20
0.9390,0.0610	-9251.24
0.9972,0.0028	-9241.97
0.9906,0.0094	-9242.38
0.9696,0.0304	-9243.71
0.9270,0.0730	-9249.15
0.9713,0.0287	-9247.13
0.9395,0.0605	-9248.47
0.9965,0.0035	-9247.67
0.9920,0.0080	-9247.12
0.9736,0.0264	-9243.46
0.9328,0.0672	-9254.09
0.9697,0.0303	-9250.64
0.9307,0.0693	-9251.54
0.9973,0.0027	-9241.97
0.9922,0.0078	-9242.28
0.9702,0.0298	-9247.16
0.9293,0.0707	-9249.02
0.9663,0.0337	-9247.29
0.9364,0.0636	-9251.33
0.9968,0.0032	-9242.00
0.9919,0.0081	-9247.11
0.9633,0.0367	-9253.93
0.9463,0.0537	-9248.14
0.9637,0.0363	-9247.38
0.9303,0.0697	-9251.56
0.9968,0.0032	-9242.00
0.9922,0.0078	-9247.13
0.9585,0.0415	-9247.59
0.9516,0.0484	-9250.87
0.9742,0.0258	-9243.42
0.9368,0.0632	-9248.62
0.9977,0.0023	-9241.94
0.9910,0.0090	-9242.36
0.9641,0.0359	-9257.24
0.9546,0.0454	-9250.80
0.9777,0.0223	-9243.19
0.9471,0.0529	-9250.98
0.9974,0.0026	-9241.96
0.9923,0.0077	-9247.13
0.9730,0.0270	-9243.50
0.9486,0.0514	-9253.86
0.9721,0.0279	-9243.56
0.9373,0.0627	-9254.00
0.9972,0.0028	-9241.97
0.9926,0.0074	-9242.26
0.9764,0.0236	-9243.28
0.9459,0.0541	-9248.16
0.9754,0.0246	-9250.70
0.9337,0.0663	-9254.07
0.9976,0.0024	-9241.95
0.9905,0.0095	-9247.03
0.9698,0.0302	-9247.18
0.9365,0.0635	-9251.32
0.9768,0.0232	-9243.25
0.9227,0.0773	-9249.39
0.9970,0.0030	-9241.98
0.9902,0.0098	-9242.41
0.9674,0.0326	-9243.86
0.9146,0.0854	-9259.36
0.9823,0.0177	-9242.90
0.9209,0.0791	-9254.41
0.9968,0.0032	-9242.00
0.9893,0.0107	-9242.46
0.9655,0.0345	-9253.98
0.9188,0.0812	-9249.62
0.9815,0.0185	-9242.96
0.8970,0.1030	-9261.79
0.9964,0.0036	-9242.02
0.9911,0.0089	-9247.06
0.9719,0.0281	-9254.20
0.9224,0.0776	-9256.84
0.9804,0.0196	-9243.02
0.9166,0.0834	-9252.15
0.9959,0.0041	-9242.05
0.9921,0.0079	-9242.29
0.9670,0.0330	-9243.89
0.9351,0.0649	-9251.37
0.9799,0.0201	-9250.83
0.8950,0.1050	-9259.67
0.9951,0.0049	-9242.10
0.9925,0.0075	-9242.26
0.9693,0.0307	-9247.19
0.9429,0.0571	-9256.72
0.9814,0.0186	-9246.93
0.8799,0.1201	-9260.08
0.9942,0.0058	-9242.16
0.9921,0.0079	-9242.29
0.9691,0.0309	-9254.09
0.9473,0.0527	-9253.87
0.9825,0.0175	-9254.97
0.8833,0.1167	-9259.98
0.9935,0.0065	-9242.20
0.9918,0.0082	-9247.10
0.9654,0.0346	-9243.99
0.9530,0.0470	-9253.84
0.9851,0.0149	-9242.73
0.8863,0.1137	-9253.73
0.9949,0.0051	-9242.11
0.9907,0.0093	-9247.04
0.9584,0.0416	-9247.59
0.9603,0.0397	-9250.70
0.9853,0.0147	-9246.92
0.8876,0.1124	-9266.05
0.9930,0.0070	-9247.19
0.9882,0.0118	-9246.96
0.9613,0.0387	-9247.47
0.9664,0.0336	-9247.28
0.9857,0.0143	-9242.69
0.9017,0.0983	-9255.10
0.9917,0.0083	-9242.31
0.9827,0.0173	-9242.88
