#isoforms=['ENSG00000186575.SE.4.A.up_ENSG00000186575.SE.4.A.SE1_ENSG00000186575.SE.4.A.dn','ENSG00000186575.SE.4.B.up_ENSG00000186575.SE.4.B.dn']	exon_lens=('ENSG00000186575.SE.4.A.up',128),('ENSG00000186575.SE.4.A.SE1',163),('ENSG00000186575.SE.4.A.dn',3847),('ENSG00000186575.SE.4.B.up',128),('ENSG00000186575.SE.4.B.dn',194)	iters=5000	burn_in=500	lag=10	percent_accept=94.91	proposal_type=drift	counts=(0,0):850,(0,1):2,(1,0):1815,(1,1):76	assigned_counts=0:1891,1:2	chrom=chr22	strand=+	mRNA_starts=29678196,29678196	mRNA_ends=29698598,29694945
sampled_psi	log_score
0.9208,0.0792	-15756.91
0.8271,0.1729	-15760.52
0.8992,0.1008	-15743.30
0.8257,0.1743	-15757.49
0.8784,0.1216	-15762.55
0.9527,0.0473	-15741.71
0.9140,0.0860	-15744.84
0.8630,0.1370	-15771.79
0.9071,0.0929	-15756.51
0.8086,0.1914	-15767.51
0.8659,0.1341	-15758.83
0.9454,0.0546	-15733.09
0.8927,0.1073	-15760.66
0.8655,0.1345	-15758.84
0.8862,0.1138	-15750.33
0.7946,0.2054	-15769.60
0.8822,0.1178	-15762.58
0.9348,0.0652	-15739.09
0.8657,0.1343	-15755.11
0.8877,0.1123	-15756.46
0.8672,0.1328	-15755.05
0.8221,0.1779	-15770.01
0.8943,0.1057	-15760.69
0.9124,0.0876	-15751.93
0.8654,0.1346	-15758.85
0.8918,0.1082	-15764.87
0.8871,0.1129	-15748.22
0.8319,0.1681	-15769.83
0.8856,0.1144	-15748.30
0.8890,0.1110	-15752.29
0.8933,0.1067	-15737.30
0.8895,0.1105	-15752.28
0.8766,0.1234	-15756.66
0.8343,0.1657	-15769.80
0.8872,0.1128	-15760.59
0.9140,0.0860	-15747.21
0.8500,0.1500	-15761.10
0.9114,0.0886	-15749.60
0.8839,0.1161	-15744.34
0.8625,0.1375	-15760.76
0.8935,0.1065	-15750.04
0.9080,0.0920	-15745.08
0.8410,0.1590	-15764.76
0.9207,0.0793	-15742.19
0.8888,0.1112	-15748.14
0.8596,0.1404	-15753.58
0.8839,0.1161	-15758.54
0.8937,0.1063	-15743.65
0.8111,0.1889	-15761.56
0.9367,0.0633	-15744.42
0.8909,0.1091	-15750.13
0.8738,0.1262	-15758.66
0.8812,0.1188	-15752.55
0.8939,0.1061	-15752.16
0.8615,0.1385	-15751.64
0.9383,0.0617	-15738.97
0.8983,0.1017	-15749.89
0.8823,0.1177	-15750.50
0.8746,0.1254	-15760.59
0.8955,0.1045	-15737.09
0.8429,0.1571	-15761.35
0.9390,0.0610	-15752.62
0.9010,0.0990	-15756.44
0.8717,0.1283	-15752.95
0.8697,0.1303	-15756.84
0.8811,0.1189	-15756.56
0.8231,0.1769	-15765.37
0.9449,0.0551	-15738.80
0.9136,0.0864	-15742.50
0.8727,0.1273	-15747.13
0.8861,0.1139	-15768.79
0.8765,0.1235	-15756.66
0.7981,0.2019	-15762.55
0.9334,0.0666	-15739.15
0.9292,0.0708	-15739.32
0.8692,0.1308	-15756.86
0.8957,0.1043	-15752.12
0.9055,0.0945	-15754.22
0.7994,0.2006	-15769.36
0.9388,0.0612	-15733.50
0.9334,0.0666	-15741.79
0.8701,0.1299	-15764.44
0.8972,0.1028	-15758.59
0.9250,0.0750	-15752.08
0.7949,0.2051	-15766.88
0.9360,0.0640	-15744.42
0.9374,0.0626	-15744.42
0.8518,0.1482	-15757.54
0.8975,0.1025	-15747.74
0.9260,0.0740	-15754.63
0.8002,0.1998	-15763.77
0.9359,0.0641	-15736.37
0.9434,0.0566	-15730.39
0.8817,0.1183	-15752.54
0.8915,0.1085	-15748.01
0.9353,0.0647	-15752.43
0.8330,0.1670	-15766.61
0.9295,0.0705	-15744.46
0.9506,0.0494	-15753.50
0.8720,0.1280	-15762.53
0.8925,0.1075	-15750.08
0.9387,0.0613	-15744.42
0.8623,0.1377	-15766.27
0.9294,0.0706	-15741.89
0.9512,0.0488	-15738.72
0.8731,0.1269	-15756.75
0.9031,0.0969	-15745.29
0.9290,0.0710	-15747.04
0.8727,0.1273	-15764.46
0.9118,0.0882	-15751.93
0.9510,0.0490	-15738.72
0.8740,0.1260	-15747.04
0.9020,0.0980	-15749.79
0.9301,0.0699	-15765.17
0.8647,0.1353	-15760.72
0.8998,0.1002	-15747.65
0.9628,0.0372	-15732.31
0.8739,0.1261	-15762.53
0.9203,0.0797	-15751.99
0.9519,0.0481	-15753.64
0.8549,0.1451	-15757.40
0.9242,0.0758	-15754.56
0.9535,0.0465	-15735.69
0.8565,0.1435	-15759.12
0.9186,0.0814	-15751.97
0.9558,0.0442	-15747.93
0.8342,0.1658	-15763.34
0.9164,0.0836	-15749.55
0.9595,0.0405	-15732.42
0.8805,0.1195	-15760.57
0.9044,0.0956	-15751.97
0.9450,0.0550	-15747.33
0.8617,0.1383	-15755.29
0.9218,0.0782	-15749.55
0.9516,0.0484	-15750.63
0.8689,0.1311	-15753.08
0.8992,0.1008	-15756.43
0.9388,0.0612	-15738.96
0.8741,0.1259	-15750.90
0.8991,0.1009	-15760.80
0.9491,0.0509	-15732.89
0.8540,0.1460	-15766.27
0.9060,0.0940	-15756.49
0.9481,0.0519	-15738.75
0.8723,0.1277	-15764.45
0.9019,0.0981	-15745.35
0.9351,0.0649	-15749.75
0.8531,0.1469	-15761.00
0.9073,0.0927	-15751.95
0.9590,0.0410	-15741.89
0.8924,0.1076	-15756.43
0.8585,0.1415	-15760.85
0.9222,0.0778	-15749.55
0.8282,0.1718	-15763.60
0.9008,0.0992	-15745.41
0.9590,0.0410	-15741.89
0.9001,0.0999	-15758.63
0.8581,0.1419	-15755.46
0.9192,0.0808	-15744.68
0.8217,0.1783	-15763.90
0.8707,0.1293	-15762.53
0.9585,0.0415	-15745.02
0.8995,0.1005	-15749.85
0.8452,0.1548	-15773.15
0.9018,0.0982	-15747.57
0.8390,0.1610	-15751.61
0.8947,0.1053	-15752.14
0.9631,0.0369	-15732.30
0.9074,0.0926	-15747.38
0.8271,0.1729	-15758.95
0.8864,0.1136	-15744.15
0.8318,0.1682	-15769.83
0.9044,0.0956	-15749.73
0.9618,0.0382	-15738.79
0.8950,0.1050	-15752.13
0.8319,0.1681	-15765.03
0.9053,0.0947	-15749.71
0.8576,0.1424	-15755.49
0.9138,0.0862	-15742.49
0.9671,0.0329	-15742.36
0.8873,0.1127	-15752.34
0.8110,0.1890	-15761.57
0.9117,0.0883	-15747.26
0.8725,0.1275	-15752.91
0.9115,0.0885	-15749.60
0.9681,0.0319	-15732.20
0.9021,0.0979	-15747.56
0.7985,0.2015	-15762.52
0.8935,0.1065	-15754.30
0.8745,0.1255	-15743.12
0.9187,0.0813	-15751.97
0.9657,0.0343	-15735.58
0.8983,0.1017	-15747.71
0.8288,0.1712	-15761.99
0.8979,0.1021	-15747.72
0.8691,0.1309	-15753.08
0.9266,0.0734	-15747.05
0.9652,0.0348	-15738.89
0.8664,0.1336	-15766.30
0.8361,0.1639	-15766.53
0.9097,0.0903	-15749.63
0.8478,0.1522	-15759.45
0.9356,0.0644	-15744.42
0.9674,0.0326	-15745.77
0.8906,0.1094	-15758.54
0.8525,0.1475	-15754.00
0.9100,0.0900	-15745.00
0.8504,0.1496	-15764.56
0.9456,0.0544	-15733.08
0.9668,0.0332	-15749.08
0.8774,0.1226	-15756.64
0.8721,0.1279	-15758.69
0.9044,0.0956	-15747.48
0.8453,0.1547	-15764.66
0.9416,0.0584	-15736.10
0.9586,0.0414	-15729.31
0.8701,0.1299	-15756.83
0.8388,0.1612	-15773.07
0.9167,0.0833	-15742.36
0.8517,0.1483	-15768.03
0.9374,0.0626	-15747.12
0.9595,0.0405	-15732.42
0.8736,0.1264	-15747.06
0.8815,0.1185	-15756.55
0.9076,0.0924	-15756.52
0.8578,0.1422	-15771.65
0.9463,0.0537	-15753.12
0.9610,0.0390	-15738.78
0.8965,0.1035	-15760.74
0.9007,0.0993	-15747.62
0.9198,0.0802	-15751.98
0.8584,0.1416	-15764.46
0.9473,0.0527	-15744.54
0.9591,0.0409	-15741.90
0.9007,0.0993	-15747.61
0.8867,0.1133	-15760.59
0.9252,0.0748	-15752.08
0.8546,0.1454	-15752.10
0.9458,0.0542	-15733.07
0.9562,0.0438	-15735.63
0.8881,0.1119	-15758.53
0.9097,0.0903	-15754.25
0.9326,0.0674	-15739.18
0.8484,0.1516	-15761.15
0.9503,0.0497	-15741.67
0.9526,0.0474	-15732.71
0.8808,0.1192	-15752.57
0.9177,0.0823	-15751.96
0.9371,0.0629	-15752.52
0.8687,0.1313	-15758.76
0.9493,0.0507	-15732.87
0.9504,0.0496	-15735.77
0.8796,0.1204	-15754.60
0.9148,0.0852	-15756.69
0.9378,0.0622	-15733.56
0.8658,0.1342	-15760.70
0.9495,0.0505	-15741.67
0.9313,0.0687	-15754.87
0.8857,0.1143	-15746.25
0.9007,0.0993	-15747.61
0.9402,0.0598	-15749.94
0.8822,0.1178	-15758.56
0.9471,0.0529	-15741.65
0.9243,0.0757	-15749.56
0.8826,0.1174	-15746.45
0.8969,0.1031	-15762.91
0.9283,0.0717	-15744.48
0.8683,0.1317	-15768.20
0.9504,0.0496	-15744.63
0.9177,0.0823	-15759.19
0.8821,0.1179	-15750.51
0.9027,0.0973	-15745.31
0.9349,0.0651	-15747.08
0.8572,0.1428	-15771.64
0.9486,0.0514	-15735.83
0.9012,0.0988	-15747.60
0.8996,0.1004	-15754.23
0.9049,0.0951	-15760.98
0.9482,0.0518	-15741.65
0.8903,0.1097	-15752.25
0.9492,0.0508	-15732.88
0.8807,0.1193	-15756.57
0.8786,0.1214	-15752.65
0.8952,0.1048	-15762.85
0.9450,0.0550	-15753.02
0.8890,0.1110	-15754.37
0.9335,0.0665	-15754.99
0.8646,0.1354	-15766.28
0.9201,0.0799	-15744.66
0.9082,0.0918	-15745.07
0.9454,0.0546	-15747.35
0.8951,0.1049	-15743.56
0.9216,0.0784	-15744.62
0.8596,0.1404	-15759.01
0.9318,0.0682	-15744.44
0.9083,0.0917	-15747.36
0.9439,0.0561	-15744.47
0.8989,0.1011	-15749.87
0.9172,0.0828	-15739.93
0.8833,0.1167	-15750.45
0.9409,0.0591	-15741.67
0.9050,0.0950	-15756.48
0.9420,0.0580	-15738.87
0.8842,0.1158	-15742.28
0.9390,0.0610	-15758.09
0.8568,0.1432	-15769.84
0.9250,0.0750	-15757.10
0.9164,0.0836	-15751.95
0.9418,0.0582	-15744.44
0.8771,0.1229	-15762.54
0.9464,0.0536	-15744.52
0.8394,0.1606	-15761.49
0.9279,0.0721	-15736.83
0.9127,0.0873	-15742.55
0.9334,0.0666	-15752.35
0.8734,0.1266	-15752.87
0.9524,0.0476	-15741.71
0.8495,0.1505	-15761.11
0.9269,0.0731	-15747.04
0.9166,0.0834	-15749.55
0.9346,0.0654	-15739.10
0.8810,0.1190	-15742.55
0.9479,0.0521	-15738.75
0.8714,0.1286	-15752.97
0.9184,0.0816	-15756.81
0.9019,0.0981	-15752.01
0.9357,0.0643	-15739.06
0.8828,0.1172	-15760.57
0.9492,0.0508	-15744.59
0.8686,0.1314	-15754.99
0.8988,0.1012	-15765.16
0.9288,0.0712	-15739.34
0.9438,0.0562	-15736.01
0.9092,0.0908	-15740.42
0.9418,0.0582	-15747.23
0.8639,0.1361	-15749.65
0.8880,0.1120	-15752.32
0.9113,0.0887	-15744.94
0.9481,0.0519	-15747.46
0.8979,0.1021	-15752.07
0.9414,0.0586	-15736.11
0.8602,0.1398	-15758.99
0.8848,0.1152	-15756.50
0.9061,0.0939	-15747.42
0.9473,0.0527	-15741.65
0.9017,0.0983	-15745.36
0.9542,0.0458	-15738.71
0.8840,0.1160	-15756.51
0.8886,0.1114	-15762.68
0.9038,0.0962	-15745.26
0.9359,0.0641	-15739.05
0.9080,0.0920	-15756.52
0.9544,0.0456	-15738.71
0.9042,0.0958	-15749.73
0.8641,0.1359	-15757.03
0.9013,0.0987	-15745.38
0.9451,0.0549	-15761.57
0.9163,0.0837	-15747.16
0.9600,0.0400	-15741.93
0.8933,0.1067	-15754.30
0.8480,0.1520	-15754.29
0.9036,0.0964	-15756.46
0.9414,0.0586	-15749.99
0.9087,0.0913	-15745.05
0.9677,0.0323	-15735.61
0.8797,0.1203	-15760.57
0.8478,0.1522	-15771.48
0.9025,0.0975	-15749.77
0.9583,0.0417	-15735.60
0.9161,0.0839	-15742.39
0.9674,0.0326	-15738.99
0.8796,0.1204	-15762.56
0.8286,0.1714	-15757.27
0.9135,0.0865	-15749.58
0.9580,0.0420	-15735.60
0.9102,0.0898	-15747.30
0.9636,0.0364	-15742.12
0.8982,0.1018	-15747.71
0.8074,0.1926	-15773.30
0.8989,0.1011	-15749.87
0.9614,0.0386	-15735.57
0.9151,0.0849	-15747.19
0.9675,0.0325	-15742.39
0.9110,0.0890	-15747.28
0.8115,0.1885	-15765.91
0.8838,0.1162	-15756.52
0.9657,0.0343	-15745.59
0.9154,0.0846	-15751.94
0.9729,0.0271	-15739.34
0.8983,0.1017	-15752.07
0.8328,0.1672	-15776.24
0.9089,0.0911	-15751.94
0.9710,0.0290	-15728.66
0.9088,0.0912	-15749.64
0.9710,0.0290	-15746.21
0.9175,0.0825	-15754.37
0.8364,0.1636	-15755.10
0.8835,0.1165	-15760.57
0.9760,0.0240	-15743.32
0.9064,0.0936	-15751.96
0.9690,0.0310	-15742.52
0.9148,0.0852	-15754.31
0.8574,0.1426	-15751.91
0.8972,0.1028	-15747.75
0.9798,0.0202	-15736.20
0.8664,0.1336	-15756.95
0.9653,0.0347	-15735.58
0.9156,0.0844	-15749.56
0.8415,0.1585	-15756.40
0.9025,0.0975	-15754.22
0.9845,0.0155	-15732.62
0.8723,0.1277	-15752.92
0.9666,0.0334	-15745.68
0.9212,0.0788	-15761.84
0.8447,0.1553	-15759.59
0.9309,0.0691	-15749.65
0.9867,0.0133	-15750.10
0.8794,0.1206	-15750.64
0.9645,0.0355	-15732.27
0.9215,0.0785	-15737.23
0.8577,0.1423	-15750.10
0.9331,0.0669	-15741.79
0.9858,0.0142	-15737.00
0.8781,0.1219	-15754.65
0.9686,0.0314	-15742.48
0.9113,0.0887	-15754.26
0.8811,0.1189	-15756.56
0.9279,0.0721	-15736.82
0.9841,0.0159	-15732.59
0.8586,0.1414	-15755.44
0.9653,0.0347	-15742.22
0.9300,0.0700	-15744.46
0.8396,0.1604	-15774.73
0.9220,0.0780	-15749.55
0.9807,0.0193	-15732.37
0.8676,0.1324	-15760.67
0.9575,0.0425	-15732.49
0.9400,0.0600	-15733.42
0.8358,0.1642	-15766.54
0.9293,0.0707	-15744.47
0.9824,0.0176	-15728.44
0.8269,0.1731	-15763.66
0.9593,0.0407	-15735.59
0.9435,0.0565	-15747.28
0.8311,0.1689	-15763.47
0.9363,0.0637	-15749.79
0.9841,0.0159	-15728.47
0.8439,0.1561	-15761.31
0.9585,0.0415	-15735.59
0.9439,0.0561	-15741.65
0.8386,0.1614	-15766.47
0.9255,0.0745	-15739.49
0.9846,0.0154	-15736.79
0.8537,0.1463	-15764.51
0.9486,0.0514	-15747.49
0.9433,0.0567	-15738.84
0.8336,0.1664	-15768.20
0.8902,0.1098	-15752.26
0.9832,0.0168	-15736.59
0.8691,0.1309	-15760.65
0.9396,0.0604	-15738.94
0.9448,0.0552	-15735.97
0.8290,0.1710	-15766.72
0.9169,0.0831	-15747.15
0.9805,0.0195	-15732.36
0.8680,0.1320	-15753.13
0.9399,0.0601	-15736.18
0.9454,0.0546	-15750.20
0.8242,0.1758	-15763.78
0.9258,0.0742	-15742.00
0.9768,0.0232	-15728.49
0.8765,0.1235	-15752.74
0.9269,0.0731	-15739.43
0.9415,0.0585	-15738.88
0.8659,0.1341	-15758.83
0.9472,0.0528	-15741.65
0.9780,0.0220	-15732.26
0.8920,0.1080	-15758.54
0.9326,0.0674	-15754.94
0.9413,0.0587	-15744.44
0.8596,0.1404	-15768.07
0.9443,0.0557	-15750.14
0.9780,0.0220	-15728.46
0.9225,0.0775	-15756.98
0.9249,0.0751	-15739.52
0.9339,0.0661	-15736.48
0.8856,0.1144	-15752.40
0.9548,0.0452	-15738.71
0.9787,0.0213	-15732.28
0.9021,0.0979	-15738.68
0.9263,0.0737	-15739.46
0.9368,0.0632	-15741.72
0.8836,0.1164	-15752.46
0.9580,0.0420	-15741.85
0.9750,0.0250	-15739.52
0.9143,0.0857	-15749.57
0.9210,0.0790	-15744.63
0.9301,0.0699	-15757.40
0.8779,0.1221	-15746.76
0.9586,0.0414	-15751.31
0.9758,0.0242	-15739.60
0.9184,0.0816	-15742.29
0.9019,0.0981	-15752.01
0.9271,0.0729	-15741.96
0.8886,0.1114	-15748.15
0.9507,0.0493	-15738.72
0.9759,0.0241	-15732.21
0.9218,0.0782	-15742.15
0.8899,0.1101	-15743.90
0.9323,0.0677	-15744.43
0.8745,0.1255	-15758.65
0.9500,0.0500	-15735.78
0.9760,0.0240	-15735.91
0.9204,0.0796	-15747.10
0.9057,0.0943	-15758.75
0.9279,0.0721	-15741.93
0.8755,0.1245	-15754.73
0.9496,0.0504	-15732.86
0.9807,0.0193	-15748.07
0.9253,0.0747	-15747.05
0.9009,0.0991	-15740.98
0.9252,0.0748	-15747.05
0.8621,0.1379	-15757.10
0.9531,0.0469	-15756.78
0.9774,0.0226	-15739.77
0.9271,0.0729	-15741.96
0.8813,0.1187	-15756.56
0.9271,0.0729	-15739.42
0.8847,0.1153	-15752.43
0.9552,0.0448	-15735.65
0.9712,0.0288	-15746.25
0.9255,0.0745	-15752.09
0.8780,0.1220	-15756.62
0.9236,0.0764	-15742.08
0.8996,0.1004	-15749.85
0.9583,0.0417	-15751.27
0.9732,0.0268	-15735.77
0.9157,0.0843	-15749.56
0.8572,0.1428	-15751.92
0.9260,0.0740	-15741.99
0.9052,0.0948	-15751.97
0.9589,0.0411	-15757.64
0.9720,0.0280	-15732.17
0.9147,0.0853	-15751.94
0.8756,0.1244	-15760.58
0.9365,0.0635	-15741.72
0.9259,0.0741	-15742.00
0.9664,0.0336	-15738.95
0.9743,0.0257	-15739.46
0.9215,0.0785	-15747.08
0.8708,0.1292	-15754.90
0.9100,0.0900	-15754.25
0.9422,0.0578	-15736.07
0.9629,0.0371	-15738.82
0.9746,0.0254	-15728.54
0.9193,0.0807	-15737.38
0.8768,0.1232	-15754.69
0.9060,0.0940	-15740.63
0.9556,0.0444	-15735.64
0.9635,0.0365	-15738.84
0.9747,0.0253	-15735.84
0.9246,0.0754	-15742.04
0.8838,0.1162	-15748.40
0.9180,0.0820	-15737.47
0.9503,0.0497	-15750.53
0.9649,0.0351	-15742.20
0.9766,0.0234	-15732.22
0.9397,0.0603	-15747.17
0.8682,0.1318	-15760.66
0.9118,0.0882	-15747.26
0.9577,0.0423	-15751.20
0.9670,0.0330	-15738.97
0.9761,0.0239	-15735.92
0.9276,0.0724	-15739.39
0.8578,0.1422	-15764.46
0.9185,0.0815	-15749.55
0.9515,0.0485	-15747.64
0.9698,0.0302	-15739.12
0.9759,0.0241	-15739.60
0.9307,0.0693	-15749.65
0.8888,0.1112	-15748.14
0.9214,0.0786	-15752.01
0.9358,0.0642	-15741.74
0.9618,0.0382	-15742.02
0.9738,0.0262	-15735.80
0.9261,0.0739	-15744.52
0.8891,0.1109	-15754.37
0.9182,0.0818	-15756.80
0.9191,0.0809	-15751.97
0.9664,0.0336	-15732.23
0.9727,0.0273	-15732.17
0.9344,0.0656	-15741.77
0.9015,0.0985	-15752.01
0.9357,0.0643	-15741.74
0.9225,0.0775	-15749.55
0.9719,0.0281	-15732.17
0.9730,0.0270	-15739.34
0.9303,0.0697	-15747.05
0.8989,0.1011	-15760.79
0.9367,0.0633	-15749.81
0.9164,0.0836	-15742.37
0.9748,0.0252	-15735.85
0.9737,0.0263	-15739.40
0.9265,0.0735	-15744.51
0.8799,0.1201	-15756.58
0.9357,0.0643	-15739.06
0.9178,0.0822	-15749.55
0.9780,0.0220	-15736.05
0.9660,0.0340	-15735.58
0.9344,0.0656	-15744.42
0.8885,0.1115	-15750.23
0.9264,0.0736	-15741.98
0.9088,0.0912	-15756.54
0.9734,0.0266	-15739.38
0.9639,0.0361	-15742.13
0.9329,0.0671	-15752.33
0.8944,0.1056	-15756.42
0.9203,0.0797	-15751.99
0.8841,0.1159	-15748.38
0.9757,0.0243	-15735.89
0.9511,0.0489	-15735.75
0.9319,0.0681	-15744.44
0.8834,0.1166	-15754.50
0.9282,0.0718	-15741.92
0.9033,0.0967	-15743.05
0.9669,0.0331	-15745.72
0.9536,0.0464	-15738.71
0.9440,0.0560	-15733.17
0.8941,0.1059	-15752.15
0.9320,0.0680	-15747.06
0.8941,0.1059	-15747.89
0.9682,0.0318	-15745.87
0.9431,0.0569	-15736.03
0.9351,0.0649	-15736.42
0.8644,0.1356	-15760.72
0.9447,0.0553	-15738.81
0.9036,0.0964	-15749.75
0.9683,0.0317	-15742.45
0.9425,0.0575	-15736.06
0.9251,0.0749	-15739.51
0.8779,0.1221	-15750.71
0.9423,0.0577	-15744.45
0.8905,0.1095	-15748.06
0.9650,0.0350	-15732.25
0.9508,0.0492	-15747.60
0.9273,0.0727	-15754.68
0.8942,0.1058	-15750.02
0.9218,0.0782	-15752.01
0.8948,0.1052	-15752.14
0.9637,0.0363	-15738.85
0.9556,0.0444	-15744.85
0.9215,0.0785	-15739.69
0.8947,0.1053	-15752.14
0.9435,0.0565	-15741.65
0.9137,0.0863	-15744.86
0.9675,0.0325	-15742.39
0.9486,0.0514	-15744.57
0.9331,0.0669	-15747.06
0.9044,0.0956	-15754.22
0.9561,0.0439	-15738.71
0.9193,0.0807	-15742.25
0.9758,0.0242	-15728.51
0.9380,0.0620	-15736.27
0.9379,0.0621	-15747.13
0.9099,0.0901	-15751.94
0.9547,0.0453	-15744.80
0.9314,0.0686	-15749.66
0.9754,0.0246	-15732.20
0.9372,0.0628	-15749.82
0.9312,0.0688	-15741.84
0.8895,0.1105	-15750.19
0.9485,0.0515	-15747.48
0.9411,0.0589	-15752.75
0.9792,0.0208	-15732.30
0.9125,0.0875	-15751.93
0.9349,0.0651	-15744.42
0.8907,0.1093	-15748.05
0.9606,0.0394	-15738.77
0.9209,0.0791	-15747.09
0.9846,0.0154	-15736.80
0.9189,0.0811	-15744.69
0.9262,0.0738	-15754.64
0.8779,0.1221	-15756.63
0.9556,0.0444	-15738.71
0.9200,0.0800	-15744.66
0.9874,0.0126	-15728.58
0.9219,0.0781	-15752.02
0.9233,0.0767	-15739.60
0.8572,0.1428	-15755.51
0.9507,0.0493	-15738.72
0.9104,0.0896	-15742.66
0.9880,0.0120	-15733.03
0.9360,0.0640	-15741.73
0.9217,0.0783	-15742.15
0.8520,0.1480	-15754.03
0.9588,0.0412	-15748.18
0.9167,0.0833	-15739.96
0.9891,0.0109	-15737.71
0.9404,0.0596	-15744.43
0.9333,0.0667	-15739.15
0.8602,0.1398	-15764.44
0.9630,0.0370	-15742.08
0.9057,0.0943	-15756.49
0.9908,0.0092	-15728.86
0.9362,0.0638	-15741.73
0.9319,0.0681	-15744.44
0.8596,0.1404	-15760.82
0.9595,0.0405	-15732.42
0.9134,0.0866	-15751.93
0.9899,0.0101	-15733.36
0.9283,0.0717	-15752.16
0.9284,0.0716	-15744.48
0.8594,0.1406	-15757.21
0.9618,0.0382	-15735.57
0.9192,0.0808	-15749.54
0.9908,0.0092	-15738.23
0.9187,0.0813	-15754.39
0.9249,0.0751	-15742.03
0.8756,0.1244	-15756.68
0.9621,0.0379	-15738.80
0.8991,0.1009	-15752.05
0.9895,0.0105	-15728.73
0.9141,0.0859	-15747.21
0.9398,0.0602	-15744.43
0.8780,0.1220	-15758.60
0.9518,0.0482	-15735.73
0.8911,0.1089	-15752.23
0.9874,0.0126	-15741.67
0.9029,0.0971	-15758.68
0.9407,0.0593	-15747.20
0.8701,0.1299	-15751.12
0.9542,0.0458	-15738.71
0.8580,0.1420	-15760.86
0.9866,0.0134	-15737.15
0.8923,0.1077	-15747.97
0.9368,0.0632	-15741.72
0.8446,0.1554	-15761.29
0.9574,0.0426	-15738.72
0.8432,0.1568	-15759.66
0.9835,0.0165	-15732.55
0.9049,0.0951	-15747.46
0.9468,0.0532	-15738.77
0.8559,0.1441	-15766.26
0.9448,0.0552	-15741.65
0.8296,0.1704	-15754.03
0.9839,0.0161	-15736.69
0.8904,0.1096	-15756.44
0.9386,0.0614	-15738.97
0.8668,0.1332	-15749.44
0.9601,0.0399	-15732.40
0.8597,0.1403	-15755.39
0.9802,0.0198	-15736.24
0.9199,0.0801	-15744.66
0.9295,0.0705	-15749.62
0.8868,0.1132	-15752.36
0.9561,0.0439	-15732.55
0.8315,0.1685	-15761.86
0.9812,0.0188	-15728.44
0.9338,0.0662	-15747.07
0.9149,0.0851	-15747.19
0.8775,0.1225	-15754.67
0.9598,0.0402	-15741.93
0.8417,0.1583	-15756.39
0.9827,0.0173	-15732.48
0.9393,0.0607	-15738.94
0.9220,0.0780	-15759.43
0.8405,0.1595	-15766.44
0.9537,0.0463	-15747.78
0.8542,0.1458	-15759.20
0.9805,0.0195	-15732.36
0.9333,0.0667	-15749.70
0.9292,0.0708	-15744.47
0.8497,0.1503	-15759.37
0.9547,0.0453	-15741.75
0.8789,0.1211	-15758.59
0.9821,0.0179	-15732.45
0.9298,0.0702	-15736.71
0.9413,0.0587	-15747.21
0.8550,0.1450	-15764.49
0.9561,0.0439	-15738.71
0.8832,0.1168	-15764.62
0.9866,0.0134	-15737.14
0.9310,0.0690	-15744.45
0.9478,0.0522	-15741.65
0.8498,0.1502	-15755.90
0.9493,0.0507	-15741.66
0.8770,0.1230	-15754.68
0.9852,0.0148	-15728.49
0.9414,0.0586	-15738.89
0.9561,0.0439	-15738.71
0.8701,0.1299	-15756.83
0.9610,0.0390	-15735.57
0.8726,0.1274	-15750.99
0.9844,0.0156	-15732.62
0.9404,0.0596	-15752.70
0.9545,0.0455	-15744.79
0.8927,0.1073	-15750.07
0.9561,0.0439	-15735.63
0.8564,0.1436	-15769.83
0.9862,0.0138	-15732.80
0.9484,0.0516	-15735.83
0.9498,0.0502	-15744.61
0.8879,0.1121	-15750.25
0.9574,0.0426	-15735.61
0.8372,0.1628	-15759.95
0.9861,0.0139	-15728.52
0.9375,0.0625	-15736.29
0.9491,0.0509	-15738.74
0.9007,0.0993	-15741.00
0.9563,0.0437	-15744.88
0.8461,0.1539	-15768.05
0.9809,0.0191	-15732.38
0.9306,0.0694	-15739.26
0.9580,0.0420	-15738.73
0.9172,0.0828	-15751.96
0.9512,0.0488	-15738.72
0.8539,0.1461	-15759.21
0.9828,0.0172	-15740.59
0.9239,0.0761	-15749.56
0.9490,0.0510	-15744.58
0.9297,0.0703	-15749.63
0.9600,0.0400	-15735.58
0.8633,0.1367	-15769.96
0.9849,0.0151	-15732.67
0.9350,0.0650	-15739.09
0.9482,0.0518	-15744.56
0.9257,0.0743	-15754.62
0.9467,0.0533	-15750.28
0.8644,0.1356	-15768.13
0.9834,0.0166	-15736.62
0.9428,0.0572	-15730.44
0.9487,0.0513	-15744.58
0.9199,0.0801	-15749.54
0.9512,0.0488	-15738.72
0.8258,0.1742	-15765.26
0.9885,0.0115	-15733.11
0.9417,0.0583	-15738.88
0.9526,0.0474	-15741.71
0.9251,0.0749	-15752.08
0.9507,0.0493	-15744.64
0.8146,0.1854	-15759.83
0.9872,0.0128	-15732.92
0.9520,0.0480	-15741.70
0.9451,0.0549	-15741.65
0.9218,0.0782	-15744.61
0.9547,0.0453	-15735.66
0.8293,0.1707	-15761.97
0.9865,0.0135	-15737.13
0.9504,0.0496	-15732.82
0.9470,0.0530	-15741.65
0.9159,0.0841	-15744.78
0.9453,0.0547	-15750.19
0.8192,0.1808	-15761.01
0.9815,0.0185	-15744.33
0.9444,0.0556	-15744.48
0.9386,0.0614	-15744.42
0.9227,0.0773	-15752.03
0.9255,0.0745	-15749.57
0.8136,0.1864	-15762.86
0.9803,0.0197	-15736.25
0.9482,0.0518	-15747.47
0.9260,0.0740	-15739.47
0.9357,0.0643	-15749.77
0.9118,0.0882	-15754.27
0.8577,0.1423	-15753.68
0.9824,0.0176	-15728.44
0.9445,0.0555	-15750.15
0.9177,0.0823	-15747.14
0.9422,0.0578	-15744.45
0.9190,0.0810	-15751.97
0.8568,0.1432	-15762.68
0.9863,0.0137	-15728.53
0.9472,0.0528	-15744.54
0.9219,0.0781	-15747.08
0.9495,0.0505	-15738.73
0.9208,0.0792	-15747.09
0.8696,0.1304	-15758.74
0.9827,0.0173	-15736.52
0.9395,0.0605	-15738.94
0.9235,0.0765	-15742.08
0.9484,0.0516	-15756.22
0.9145,0.0855	-15749.57
0.8520,0.1480	-15764.53
0.9862,0.0138	-15728.53
0.9117,0.0883	-15747.26
0.9291,0.0709	-15739.32
0.9513,0.0487	-15738.72
0.9149,0.0851	-15740.06
0.8355,0.1645	-15766.54
0.9847,0.0153	-15732.65
0.9116,0.0884	-15754.27
0.9409,0.0591	-15741.67
0.9374,0.0626	-15741.71
0.9177,0.0823	-15744.73
0.8148,0.1852	-15764.27
0.9846,0.0154	-15728.48
0.9084,0.0916	-15751.94
0.9359,0.0641	-15749.78
0.9296,0.0704	-15741.88
0.8980,0.1020	-15754.25
0.7853,0.2147	-15757.14
0.9851,0.0149	-15736.88
0.9150,0.0850	-15749.56
0.9178,0.0822	-15747.14
0.9368,0.0632	-15747.11
0.9004,0.0996	-15754.23
0.8157,0.1843	-15767.19
0.9818,0.0182	-15728.44
0.8948,0.1052	-15747.86
0.9129,0.0871	-15758.98
0.9427,0.0573	-15736.05
0.8870,0.1130	-15754.41
0.8155,0.1845	-15761.26
0.9792,0.0208	-15728.45
0.8986,0.1014	-15749.88
0.9151,0.0849	-15756.70
0.9493,0.0507	-15741.66
0.8784,0.1216	-15746.73
0.8178,0.1822	-15765.61
0.9797,0.0203	-15728.44
0.9129,0.0871	-15751.93
0.9053,0.0947	-15763.25
0.9520,0.0480	-15738.71
0.8688,0.1312	-15756.87
0.8376,0.1624	-15766.49
0.9709,0.0291	-15735.68
0.9299,0.0701	-15744.46
0.9179,0.0821	-15747.13
0.9504,0.0496	-15753.49
0.8631,0.1369	-15755.23
0.8578,0.1422	-15755.48
0.9723,0.0277	-15735.73
0.9156,0.0844	-15744.79
0.9128,0.0872	-15751.93
0.9541,0.0459	-15741.74
0.8676,0.1324	-15755.03
0.8834,0.1166	-15750.45
0.9691,0.0309	-15739.08
0.9188,0.0812	-15754.40
0.9122,0.0878	-15744.91
0.9674,0.0326	-15738.99
0.8797,0.1203	-15758.58
0.8983,0.1017	-15749.89
0.9726,0.0274	-15735.74
0.9194,0.0806	-15747.11
0.9133,0.0867	-15744.87
0.9571,0.0429	-15735.61
0.8609,0.1391	-15760.79
0.8916,0.1084	-15750.11
0.9784,0.0216	-15728.46
0.9188,0.0812	-15754.40
0.9245,0.0755	-15732.02
0.9629,0.0371	-15735.57
0.8793,0.1207	-15750.64
0.8647,0.1353	-15753.30
0.9839,0.0161	-15728.46
0.9198,0.0802	-15739.79
0.9433,0.0567	-15747.27
0.9682,0.0318	-15732.20
0.8955,0.1045	-15754.27
0.8792,0.1208	-15752.63
0.9810,0.0190	-15732.38
0.9124,0.0876	-15740.22
0.9484,0.0516	-15741.66
0.9733,0.0267	-15735.77
0.8877,0.1123	-15752.33
0.8915,0.1085	-15752.22
0.9818,0.0182	-15736.41
0.8987,0.1013	-15749.88
0.9536,0.0464	-15744.75
0.9754,0.0246	-15739.55
0.8854,0.1146	-15760.58
0.8940,0.1060	-15750.03
0.9811,0.0189	-15728.44
0.8891,0.1109	-15756.45
0.9521,0.0479	-15729.75
0.9704,0.0296	-15735.67
0.8810,0.1190	-15762.57
0.9031,0.0969	-15756.45
0.9807,0.0193	-15732.37
0.8787,0.1213	-15748.69
0.9645,0.0355	-15735.57
0.9661,0.0339	-15732.23
0.9122,0.0878	-15761.30
0.9000,0.1000	-15752.03
0.9795,0.0205	-15732.31
0.8949,0.1051	-15747.85
0.9686,0.0314	-15739.05
0.9719,0.0281	-15732.17
0.9296,0.0704	-15744.46
0.9041,0.0959	-15751.98
0.9789,0.0211	-15736.13
0.8944,0.1056	-15747.87
0.9623,0.0377	-15738.81
0.9742,0.0258	-15732.18
0.9471,0.0529	-15741.65
0.8999,0.1001	-15749.84
0.9773,0.0227	-15728.48
0.9046,0.0954	-15740.72
0.9542,0.0458	-15738.71
0.9786,0.0214	-15732.28
0.9542,0.0458	-15741.74
0.9227,0.0773	-15752.03
0.9764,0.0236	-15732.22
0.9000,0.1000	-15743.25
0.9546,0.0454	-15750.89
0.9749,0.0251	-15732.19
0.9447,0.0553	-15744.48
0.9103,0.0897	-15740.35
0.9734,0.0266	-15732.18
0.8903,0.1097	-15750.16
0.9451,0.0549	-15747.34
0.9688,0.0312	-15728.76
0.9297,0.0703	-15749.63
0.9041,0.0959	-15754.22
0.9721,0.0279	-15735.72
0.9170,0.0830	-15751.95
0.9474,0.0526	-15744.54
0.9717,0.0283	-15746.32
0.9368,0.0632	-15747.11
0.9132,0.0868	-15744.87
0.9739,0.0261	-15732.18
0.9207,0.0793	-15752.00
0.9449,0.0551	-15741.65
0.9709,0.0291	-15735.68
0.9272,0.0728	-15741.96
0.9001,0.0999	-15752.03
0.9700,0.0300	-15742.61
0.9171,0.0829	-15747.15
0.9433,0.0567	-15738.84
0.9655,0.0345	-15738.91
0.9174,0.0826	-15751.96
0.8967,0.1033	-15756.42
0.9714,0.0286	-15735.70
0.9120,0.0880	-15737.91
0.9515,0.0485	-15738.71
0.9657,0.0343	-15745.59
0.8904,0.1096	-15739.68
0.8916,0.1084	-15760.65
0.9721,0.0279	-15732.17
0.9069,0.0931	-15745.12
0.9553,0.0447	-15732.58
0.9745,0.0255	-15732.19
0.9074,0.0926	-15751.95
0.8899,0.1101	-15746.00
0.9684,0.0316	-15742.46
0.8968,0.1032	-15749.93
0.9507,0.0493	-15750.55
0.9756,0.0244	-15728.51
0.8922,0.1078	-15750.09
0.8861,0.1139	-15748.28
0.9688,0.0312	-15735.62
0.9147,0.0853	-15742.45
0.9557,0.0443	-15741.78
0.9731,0.0269	-15739.35
0.8894,0.1106	-15752.28
0.8574,0.1426	-15753.70
0.9672,0.0328	-15742.36
0.9038,0.0962	-15747.50
0.9510,0.0490	-15744.65
0.9675,0.0325	-15742.39
0.8750,0.1250	-15748.91
0.8536,0.1464	-15776.85
0.9637,0.0363	-15732.29
0.9191,0.0809	-15759.27
0.9340,0.0660	-15739.13
0.9645,0.0355	-15738.87
0.8879,0.1121	-15752.32
0.8693,0.1307	-15754.96
0.9601,0.0399	-15732.40
0.9082,0.0918	-15751.94
0.9303,0.0697	-15739.27
0.9514,0.0486	-15735.74
0.8829,0.1171	-15748.45
0.8418,0.1582	-15763.07
0.9609,0.0391	-15757.98
0.9137,0.0863	-15751.94
0.9258,0.0742	-15752.10
0.9468,0.0532	-15747.41
0.8708,0.1292	-15760.63
0.8374,0.1626	-15756.67
0.9526,0.0474	-15732.71
0.9084,0.0916	-15751.94
0.9384,0.0616	-15738.97
0.9413,0.0587	-15741.66
0.8988,0.1012	-15747.69
0.8582,0.1418	-15762.66
0.9508,0.0492	-15735.76
0.9158,0.0842	-15747.17
0.9283,0.0717	-15739.36
0.9287,0.0713	-15734.21
0.8977,0.1023	-15754.25
0.8783,0.1217	-15752.67
0.9585,0.0415	-15738.73
0.9186,0.0814	-15744.70
0.9218,0.0782	-15756.95
0.9153,0.0847	-15751.94
0.9180,0.0820	-15751.96
0.9002,0.0998	-15752.03
0.9669,0.0331	-15738.97
0.9022,0.0978	-15743.12
0.9131,0.0869	-15747.23
0.9122,0.0878	-15751.93
0.9198,0.0802	-15751.98
0.8997,0.1003	-15763.01
0.9637,0.0363	-15742.12
0.8948,0.1052	-15758.56
0.9088,0.0912	-15742.75
0.9192,0.0808	-15751.98
0.9057,0.0943	-15747.44
0.8847,0.1153	-15754.46
0.9621,0.0379	-15735.57
0.8901,0.1099	-15752.26
0.9111,0.0889	-15737.97
0.9302,0.0698	-15741.87
0.9027,0.0973	-15745.31
0.9102,0.0898	-15744.99
0.9587,0.0413	-15735.59
0.8871,0.1129	-15754.41
0.8973,0.1027	-15749.92
0.9209,0.0791	-15749.54
0.8970,0.1030	-15752.09
0.9118,0.0882	-15742.59
0.9541,0.0459	-15738.71
0.8930,0.1070	-15754.30
0.8928,0.1072	-15743.71
0.9246,0.0754	-15747.06
0.9016,0.0984	-15745.36
0.9196,0.0804	-15747.11
0.9624,0.0376	-15742.05
0.9289,0.0711	-15741.90
0.9019,0.0981	-15749.79
0.8937,0.1063	-15745.78
0.9117,0.0883	-15749.60
0.9151,0.0849	-15744.81
0.9658,0.0342	-15735.58
0.9335,0.0665	-15749.71
0.9210,0.0790	-15744.63
0.8950,0.1050	-15756.42
0.9225,0.0775	-15754.50
0.9032,0.0968	-15743.06
0.9686,0.0314	-15739.05
0.9443,0.0557	-15744.48
0.9088,0.0912	-15749.64
0.8841,0.1159	-15748.38
0.9290,0.0710	-15749.62
0.9162,0.0838	-15742.38
0.9647,0.0353	-15738.88
0.9312,0.0688	-15734.02
0.9150,0.0850	-15749.56
0.8808,0.1192	-15756.57
0.9178,0.0822	-15747.13
0.9119,0.0881	-15744.92
0.9610,0.0390	-15741.98
0.9416,0.0584	-15733.32
0.9095,0.0905	-15747.32
0.8871,0.1129	-15756.47
0.9079,0.0921	-15745.08
0.9141,0.0859	-15747.21
0.9488,0.0512	-15738.74
0.9440,0.0560	-15741.65
0.8922,0.1078	-15745.86
0.8839,0.1161	-15744.33
0.9222,0.0778	-15744.60
0.9074,0.0926	-15749.67
0.9446,0.0554	-15741.65
0.9265,0.0735	-15754.65
0.9159,0.0841	-15747.17
0.9053,0.0947	-15745.19
0.9147,0.0853	-15761.43
0.8935,0.1065	-15752.17
0.9470,0.0530	-15735.88
0.9394,0.0606	-15738.94
0.9116,0.0884	-15740.27
0.9040,0.0960	-15751.98
0.8928,0.1072	-15762.78
0.8851,0.1149	-15758.54
0.9453,0.0547	-15738.80
0.9309,0.0691	-15741.85
0.8934,0.1066	-15747.92
0.8849,0.1151	-15750.38
0.8985,0.1015	-15743.34
0.8881,0.1119	-15744.03
0.9429,0.0571	-15738.85
0.9324,0.0676	-15741.81
0.8850,0.1150	-15750.38
0.8811,0.1189	-15742.54
0.8914,0.1086	-15748.01
0.8893,0.1107	-15771.03
0.9332,0.0668	-15739.15
0.9434,0.0566	-15736.02
0.8620,0.1380	-15760.77
0.8807,0.1193	-15746.57
0.8995,0.1005	-15756.43
0.9028,0.0972	-15747.54
0.9267,0.0733	-15747.05
0.9317,0.0683	-15739.21
0.8609,0.1391	-15768.09
0.8790,0.1210	-15768.50
0.9270,0.0730	-15747.04
0.9197,0.0803	-15744.67
0.9252,0.0748	-15757.11
0.9244,0.0756	-15742.05
0.8689,0.1311	-15754.98
0.8843,0.1157	-15746.34
0.9168,0.0832	-15739.95
0.9252,0.0748	-15754.60
0.9197,0.0803	-15756.86
0.9128,0.0872	-15756.63
0.8597,0.1403	-15757.20
0.8905,0.1095	-15745.96
0.9010,0.0990	-15756.44
0.9314,0.0686	-15734.01
0.9107,0.0893	-15754.26
0.9150,0.0850	-15742.43
0.8277,0.1723	-15762.05
0.9061,0.0939	-15754.23
0.9151,0.0849	-15742.43
0.9411,0.0589	-15741.66
0.9238,0.0762	-15749.56
0.9134,0.0866	-15747.22
0.8515,0.1485	-15752.32
0.9115,0.0885	-15749.60
0.9079,0.0921	-15756.52
0.9304,0.0696	-15736.67
0.9205,0.0795	-15749.54
0.8703,0.1297	-15751.11
0.8928,0.1072	-15754.31
0.9038,0.0962	-15745.26
0.9172,0.0828	-15751.96
0.9355,0.0645	-15736.39
0.9197,0.0803	-15751.98
0.8617,0.1383	-15746.14
0.8900,0.1100	-15745.99
0.9110,0.0890	-15751.93
0.9226,0.0774	-15744.59
0.9394,0.0606	-15744.42
0.9402,0.0598	-15736.16
0.8573,0.1427	-15762.67
0.9099,0.0901	-15747.31
0.9222,0.0778	-15747.08
0.9353,0.0647	-15739.08
0.9415,0.0585	-15738.88
0.9220,0.0780	-15737.20
0.8702,0.1298	-15758.73
0.9122,0.0878	-15756.61
0.9461,0.0539	-15741.65
0.9363,0.0637	-15741.73
0.9446,0.0554	-15738.81
0.9211,0.0789	-15752.00
0.8625,0.1375	-15757.09
0.8912,0.1088	-15754.33
0.9514,0.0486	-15738.71
0.9408,0.0592	-15738.90
0.9333,0.0667	-15741.79
0.8958,0.1042	-15752.12
0.8466,0.1534	-15752.67
0.9099,0.0901	-15740.37
0.9560,0.0440	-15741.79
0.9338,0.0662	-15752.36
0.9253,0.0747	-15747.05
0.8783,0.1217	-15758.59
0.8436,0.1564	-15763.01
0.9020,0.0980	-15756.44
0.9423,0.0577	-15741.66
0.9202,0.0798	-15759.32
0.9257,0.0743	-15744.53
0.9066,0.0934	-15751.95
0.8692,0.1308	-15745.49
0.9111,0.0889	-15749.61
0.9298,0.0702	-15741.88
0.9288,0.0712	-15744.48
0.9370,0.0630	-15741.72
0.9115,0.0885	-15744.94
0.8688,0.1312	-15766.32
0.9211,0.0789	-15742.17
0.9404,0.0596	-15747.19
0.9193,0.0807	-15751.98
0.9412,0.0588	-15747.21
0.9049,0.0951	-15749.72
0.8736,0.1264	-15756.73
0.9169,0.0831	-15756.75
0.9390,0.0610	-15749.89
0.8995,0.1005	-15749.85
0.9404,0.0596	-15747.19
0.8957,0.1043	-15747.82
0.8950,0.1050	-15747.85
0.9128,0.0872	-15740.19
0.9270,0.0730	-15744.50
0.8963,0.1037	-15749.95
0.9487,0.0513	-15744.57
0.9119,0.0881	-15754.27
0.8923,0.1077	-15747.97
0.9246,0.0754	-15742.04
0.9083,0.0917	-15754.24
0.8791,0.1209	-15754.62
0.9486,0.0514	-15741.66
0.8992,0.1008	-15745.48
0.8946,0.1054	-15756.42
0.9237,0.0763	-15737.09
0.9376,0.0624	-15741.71
0.8590,0.1410	-15759.03
0.9435,0.0565	-15744.46
0.8998,0.1002	-15745.45
0.9030,0.0970	-15738.61
0.9242,0.0758	-15742.06
0.9355,0.0645	-15741.74
0.8468,0.1532	-15754.37
0.9388,0.0612	-15738.96
0.8943,0.1057	-15752.15
0.9128,0.0872	-15756.63
0.9063,0.0937	-15742.88
0.9275,0.0725	-15757.24
0.8207,0.1793	-15767.00
0.9346,0.0654	-15741.76
0.9113,0.0887	-15749.60
0.9162,0.0838	-15754.34
0.8852,0.1148	-15752.41
0.9199,0.0801	-15747.10
0.7986,0.2014	-15770.78
0.9261,0.0739	-15741.99
0.9107,0.0893	-15751.93
0.9126,0.0874	-15744.89
0.8932,0.1068	-15747.93
0.9247,0.0753	-15749.56
0.8117,0.1883	-15762.98
0.9251,0.0749	-15742.02
0.9089,0.0911	-15742.74
0.9336,0.0664	-15744.43
0.9029,0.0971	-15754.22
0.9161,0.0839	-15756.73
0.7982,0.2018	-15762.54
0.9374,0.0626	-15744.42
0.9192,0.0808	-15749.54
0.9217,0.0783	-15749.55
0.9032,0.0968	-15756.45
0.9157,0.0843	-15744.79
0.8328,0.1672	-15761.80
0.9459,0.0541	-15744.51
0.9295,0.0705	-15744.47
0.9293,0.0707	-15747.04
0.9075,0.0925	-15738.25
0.9158,0.0842	-15749.56
0.7877,0.2123	-15763.42
0.9537,0.0463	-15732.66
0.9187,0.0813	-15744.70
0.9137,0.0863	-15754.30
0.9175,0.0825	-15744.73
0.8952,0.1048	-15754.27
0.8274,0.1726	-15762.07
0.9464,0.0536	-15738.78
0.9245,0.0755	-15744.55
0.9242,0.0758	-15752.06
0.9323,0.0677	-15744.43
0.8908,0.1092	-15752.24
0.8165,0.1835	-15765.67
0.9379,0.0621	-15744.42
0.9447,0.0553	-15744.48
0.9353,0.0647	-15736.41
0.9397,0.0603	-15744.42
0.9001,0.0999	-15752.03
0.8113,0.1887	-15770.30
0.9313,0.0687	-15741.84
0.9349,0.0651	-15747.08
0.9305,0.0695	-15744.45
0.9408,0.0592	-15730.60
0.9192,0.0808	-15739.82
0.8045,0.1955	-15764.88
0.9368,0.0632	-15739.02
0.9321,0.0679	-15741.82
0.9383,0.0617	-15749.86
0.9414,0.0586	-15738.88
0.9267,0.0733	-15744.51
0.8368,0.1632	-15756.70
0.9286,0.0714	-15759.87
0.9117,0.0883	-15744.93
0.9485,0.0515	-15744.57
0.9453,0.0547	-15735.95
0.9367,0.0633	-15752.50
0.8634,0.1366	-15762.59
0.9362,0.0638	-15741.73
0.9101,0.0899	-15744.99
0.9455,0.0545	-15747.35
0.9441,0.0559	-15741.65
0.9459,0.0541	-15741.65
0.8796,0.1204	-15756.59
0.9426,0.0574	-15744.45
0.8825,0.1175	-15748.47
0.9484,0.0516	-15741.66
0.9430,0.0570	-15741.65
0.9467,0.0533	-15738.77
0.8927,0.1073	-15752.19
0.9335,0.0665	-15752.35
0.9047,0.0953	-15758.72
0.9440,0.0560	-15741.65
0.9353,0.0647	-15741.75
0.9375,0.0625	-15744.42
0.8638,0.1362	-15753.34
0.9360,0.0640	-15736.37
0.8995,0.1005	-15749.85
0.9418,0.0582	-15747.23
0.9389,0.0611	-15738.96
0.9352,0.0648	-15747.09
0.8461,0.1539	-15766.34
0.9324,0.0676	-15739.18
0.9187,0.0813	-15754.39
0.9412,0.0588	-15730.58
0.9470,0.0530	-15735.88
0.9375,0.0625	-15741.71
0.8198,0.1802	-15759.45
0.9477,0.0523	-15735.86
0.9017,0.0983	-15760.87
0.9430,0.0570	-15741.65
0.9439,0.0561	-15752.94
0.9270,0.0730	-15744.50
0.8080,0.1920	-15763.22
0.9439,0.0561	-15747.29
0.9088,0.0912	-15749.64
0.9508,0.0492	-15741.68
0.9472,0.0528	-15744.54
0.9379,0.0621	-15747.13
0.7866,0.2134	-15771.35
0.9488,0.0512	-15744.58
0.9123,0.0877	-15756.62
0.9445,0.0555	-15744.48
0.9536,0.0464	-15741.73
0.9427,0.0573	-15747.25
0.7893,0.2107	-15775.17
0.9516,0.0484	-15735.74
0.9273,0.0727	-15747.04
0.9473,0.0527	-15747.43
0.9490,0.0510	-15738.74
0.9485,0.0515	-15735.83
0.7994,0.2006	-15769.36
0.9561,0.0439	-15751.04
0.9302,0.0698	-15744.46
0.9358,0.0642	-15739.06
0.9580,0.0420	-15738.73
0.9507,0.0493	-15741.68
0.7929,0.2071	-15765.66
0.9632,0.0368	-15735.57
0.9103,0.0897	-15747.30
0.9386,0.0614	-15738.96
0.9613,0.0387	-15732.36
0.9512,0.0488	-15735.75
0.8066,0.1934	-15769.03
0.9560,0.0440	-15732.56
0.9249,0.0751	-15739.52
0.9556,0.0444	-15741.78
0.9538,0.0462	-15744.76
0.9589,0.0411	-15732.44
0.8079,0.1921	-15773.29
0.9567,0.0433	-15735.62
0.9309,0.0691	-15739.25
0.9523,0.0477	-15747.69
0.9428,0.0572	-15738.85
0.9607,0.0393	-15738.77
0.8183,0.1817	-15771.60
0.9542,0.0458	-15732.63
0.9176,0.0824	-15756.78
0.9447,0.0553	-15747.32
0.9416,0.0584	-15744.44
0.9644,0.0356	-15735.57
0.8364,0.1636	-15763.26
0.9503,0.0497	-15741.67
0.9112,0.0888	-15749.60
0.9363,0.0637	-15739.04
0.9218,0.0782	-15737.21
0.9558,0.0442	-15747.93
0.8396,0.1604	-15766.45
0.9444,0.0556	-15735.98
0.9015,0.0985	-15743.16
0.9331,0.0669	-15741.79
0.9235,0.0765	-15749.55
0.9448,0.0552	-15750.17
0.8575,0.1425	-15764.47
0.9562,0.0438	-15735.63
0.8764,0.1236	-15754.70
0.9424,0.0576	-15752.83
0.9318,0.0682	-15741.82
0.9449,0.0551	-15744.49
0.8627,0.1373	-15760.76
0.9577,0.0423	-15744.96
0.9026,0.0974	-15758.68
0.9462,0.0538	-15738.78
0.9418,0.0582	-15741.66
0.9418,0.0582	-15736.09
0.8558,0.1442	-15762.70
0.9598,0.0402	-15738.75
0.9094,0.0906	-15745.02
0.9338,0.0662	-15741.78
0.9287,0.0713	-15747.04
0.9325,0.0675	-15733.93
0.8443,0.1557	-15762.99
0.9614,0.0386	-15729.14
0.9164,0.0836	-15735.19
0.9264,0.0736	-15744.51
0.9314,0.0686	-15744.44
0.9237,0.0763	-15752.05
0.8432,0.1568	-15752.93
0.9647,0.0353	-15735.57
0.9084,0.0916	-15738.18
0.9306,0.0694	-15757.43
0.9236,0.0764	-15749.55
0.9262,0.0738	-15741.99
0.8606,0.1394	-15755.34
0.9667,0.0333	-15735.59
0.9137,0.0863	-15749.58
0.9270,0.0730	-15752.13
0.9246,0.0754	-15744.55
0.9085,0.0915	-15749.65
0.8916,0.1084	-15760.65
0.9643,0.0357	-15752.05
0.9341,0.0659	-15744.42
0.9335,0.0665	-15747.07
0.9180,0.0820	-15749.55
0.8998,0.1002	-15749.84
0.8802,0.1198	-15758.57
0.9596,0.0404	-15732.41
0.9337,0.0663	-15752.36
0.9234,0.0766	-15744.57
0.9278,0.0722	-15739.39
0.9309,0.0691	-15744.45
0.8814,0.1186	-15744.52
0.9621,0.0379	-15742.03
0.9388,0.0612	-15744.42
0.9191,0.0809	-15742.26
0.9242,0.0758	-15757.06
0.9428,0.0572	-15738.85
0.8792,0.1208	-15752.63
0.9632,0.0368	-15748.63
0.9285,0.0715	-15739.35
0.9149,0.0851	-15742.44
0.9305,0.0695	-15747.05
0.9413,0.0587	-15747.21
0.8703,0.1297	-15751.11
0.9580,0.0420	-15735.60
0.9052,0.0948	-15747.45
0.9146,0.0854	-15747.20
0.9435,0.0565	-15744.46
0.9463,0.0537	-15744.52
0.8810,0.1190	-15754.56
0.9581,0.0419	-15735.60
0.8742,0.1258	-15760.59
0.9053,0.0947	-15756.48
0.9471,0.0529	-15753.19
0.9499,0.0501	-15729.90
0.9134,0.0866	-15749.58
0.9562,0.0438	-15738.71
0.8527,0.1473	-15761.01
0.8826,0.1174	-15768.64
0.9354,0.0646	-15741.74
0.9576,0.0424	-15729.37
0.9090,0.0910	-15751.94
0.9524,0.0476	-15735.71
0.8672,0.1328	-15755.04
0.8804,0.1196	-15764.56
0.9297,0.0703	-15744.46
0.9536,0.0464	-15738.71
0.9241,0.0759	-15742.06
0.9493,0.0507	-15741.66
0.8616,0.1384	-15757.12
0.8636,0.1364	-15753.36
0.9122,0.0878	-15758.96
0.9540,0.0460	-15732.64
0.9274,0.0726	-15752.14
0.9493,0.0507	-15735.80
0.8496,0.1504	-15769.77
0.8557,0.1443	-15755.58
0.9173,0.0827	-15751.96
0.9542,0.0458	-15744.78
0.9259,0.0741	-15742.00
0.9493,0.0507	-15741.66
0.8496,0.1504	-15759.38
0.8405,0.1595	-15754.80
0.9324,0.0676	-15741.81
0.9499,0.0501	-15738.73
0.9353,0.0647	-15744.42
0.9444,0.0556	-15747.31
0.8570,0.1430	-15755.52
0.8507,0.1493	-15766.29
0.9352,0.0648	-15741.75
0.9496,0.0504	-15732.86
0.9474,0.0526	-15747.43
0.9352,0.0648	-15749.76
0.8787,0.1213	-15754.63
0.8721,0.1279	-15752.93
0.9309,0.0691	-15739.25
0.9409,0.0591	-15736.13
0.9484,0.0516	-15741.66
0.9311,0.0689	-15744.45
0.8944,0.1056	-15752.15
0.8613,0.1387	-15758.96
0.9270,0.0730	-15749.59
0.9295,0.0705	-15736.73
0.9465,0.0535	-15735.90
0.9071,0.0929	-15745.12
0.8997,0.1003	-15749.85
0.8729,0.1271	-15766.38
0.9288,0.0712	-15747.04
0.9343,0.0657	-15739.11
0.9433,0.0567	-15741.65
0.8891,0.1109	-15754.37
0.8858,0.1142	-15748.29
0.8999,0.1001	-15752.04
0.9323,0.0677	-15754.93
0.9276,0.0724	-15749.59
0.9486,0.0514	-15744.57
0.8807,0.1193	-15768.56
0.9036,0.0964	-15760.94
0.9044,0.0956	-15742.99
0.9323,0.0677	-15747.06
0.9308,0.0692	-15747.05
0.9401,0.0599	-15741.67
0.8937,0.1063	-15758.55
0.9048,0.0952	-15751.97
0.9119,0.0881	-15754.27
0.9370,0.0630	-15741.72
0.9227,0.0773	-15749.55
0.9519,0.0481	-15738.71
0.8811,0.1189	-15756.56
0.8893,0.1107	-15756.45
0.8948,0.1052	-15756.42
0.9445,0.0555	-15735.98
0.9183,0.0817	-15754.39
0.9520,0.0480	-15741.70
0.8905,0.1095	-15762.73
0.8978,0.1022	-15758.59
0.8922,0.1078	-15758.54
0.9433,0.0567	-15744.46
0.8906,0.1094	-15756.44
0.9655,0.0345	-15735.58
0.9226,0.0774	-15754.51
0.9093,0.0907	-15745.02
0.8853,0.1147	-15756.49
0.9457,0.0543	-15738.79
0.8653,0.1347	-15760.71
0.9575,0.0425	-15738.72
0.9445,0.0555	-15744.48
0.9297,0.0703	-15744.46
0.9013,0.0987	-15749.80
0.9585,0.0415	-15741.87
0.8611,0.1389	-15758.97
0.9544,0.0456	-15735.66
0.9439,0.0561	-15738.83
0.9277,0.0723	-15749.60
0.8911,0.1089	-15764.84
0.9619,0.0381	-15732.34
0.8556,0.1444	-15757.37
0.9648,0.0352	-15735.57
0.9261,0.0739	-15744.52
0.9358,0.0642	-15741.74
0.8886,0.1114	-15750.23
0.9637,0.0363	-15735.57
0.8659,0.1341	-15749.51
0.9652,0.0348	-15735.57
0.9298,0.0702	-15747.04
0.9304,0.0696	-15749.64
0.8973,0.1027	-15749.92
0.9585,0.0415	-15745.01
0.8603,0.1397	-15751.72
0.9638,0.0362	-15735.57
0.9244,0.0756	-15757.07
0.9111,0.0889	-15744.95
0.8922,0.1078	-15754.32
0.9664,0.0336	-15735.59
0.8739,0.1261	-15756.72
0.9650,0.0350	-15732.26
0.9222,0.0778	-15766.85
0.9085,0.0915	-15747.35
0.8861,0.1139	-15754.43
0.9575,0.0425	-15732.49
0.8894,0.1106	-15762.70
0.9580,0.0420	-15738.73
0.9365,0.0635	-15749.80
0.9233,0.0767	-15744.58
0.8981,0.1019	-15752.07
0.9569,0.0431	-15735.62
0.8494,0.1506	-15752.47
0.9567,0.0433	-15738.72
0.9405,0.0595	-15736.15
0.9240,0.0760	-15742.06
0.8939,0.1061	-15752.16
0.9553,0.0447	-15738.71
0.8540,0.1460	-15757.44
0.9557,0.0443	-15729.50
0.9419,0.0581	-15741.66
0.9209,0.0791	-15747.09
0.8871,0.1129	-15752.35
0.9492,0.0508	-15741.66
0.8469,0.1531	-15766.33
0.9455,0.0545	-15741.65
0.9530,0.0470	-15747.74
0.9372,0.0628	-15736.31
0.9075,0.0925	-15751.95
0.9410,0.0590	-15741.66
0.8790,0.1210	-15754.62
0.9415,0.0585	-15730.55
0.9516,0.0484	-15732.75
0.9361,0.0639	-15749.79
0.9136,0.0864	-15751.94
0.9523,0.0477	-15750.69
0.8695,0.1305	-15758.74
0.9400,0.0600	-15744.43
0.9433,0.0567	-15736.02
0.9362,0.0638	-15739.05
0.9261,0.0739	-15749.58
0.9481,0.0519	-15744.56
0.8823,0.1177	-15762.58
0.9342,0.0658	-15747.08
0.9393,0.0607	-15747.16
0.9262,0.0738	-15749.58
0.9332,0.0668	-15747.06
0.9473,0.0527	-15741.65
0.8669,0.1331	-15749.44
0.9410,0.0590	-15747.20
0.9296,0.0704	-15736.72
0.9260,0.0740	-15744.52
0.9115,0.0885	-15740.27
0.9480,0.0520	-15738.75
0.8906,0.1094	-15756.44
0.9526,0.0474	-15735.71
0.9262,0.0738	-15741.99
0.9386,0.0614	-15749.87
0.9111,0.0889	-15749.61
0.9485,0.0515	-15735.83
0.8897,0.1103	-15750.18
0.9484,0.0516	-15741.66
0.9136,0.0864	-15737.78
0.9354,0.0646	-15741.75
0.9003,0.0997	-15749.83
0.9385,0.0615	-15744.42
0.9206,0.0794	-15751.99
0.9478,0.0522	-15747.45
0.9207,0.0793	-15742.19
0.9224,0.0776	-15754.50
0.9151,0.0849	-15749.56
0.9470,0.0530	-15735.88
0.9121,0.0879	-15740.23
0.9373,0.0627	-15736.30
0.9069,0.0931	-15747.40
0.9240,0.0760	-15747.06
0.9264,0.0736	-15741.98
0.9430,0.0570	-15747.26
0.9204,0.0796	-15737.30
0.9390,0.0610	-15738.95
0.8845,0.1155	-15750.40
0.9198,0.0802	-15739.78
0.9179,0.0821	-15756.79
0.9285,0.0715	-15749.61
0.8920,0.1080	-15752.21
0.9438,0.0562	-15738.83
0.9075,0.0925	-15747.38
0.9198,0.0802	-15744.66
0.9172,0.0828	-15754.36
0.9273,0.0727	-15752.13
0.8951,0.1049	-15752.13
0.9394,0.0606	-15738.94
0.8971,0.1029	-15758.59
0.9172,0.0828	-15761.57
0.9241,0.0759	-15747.06
0.9129,0.0871	-15747.23
0.8678,0.1322	-15749.38
0.9369,0.0631	-15749.81
0.8844,0.1156	-15742.26
0.9075,0.0925	-15765.65
0.9380,0.0620	-15736.27
0.9150,0.0850	-15740.06
0.8887,0.1113	-15743.99
0.9423,0.0577	-15738.86
0.8662,0.1338	-15762.56
0.9097,0.0903	-15751.94
0.9303,0.0697	-15757.41
0.9207,0.0793	-15747.09
0.8881,0.1119	-15758.53
0.9439,0.0561	-15741.65
0.8722,0.1278	-15758.69
0.9078,0.0922	-15740.51
0.9376,0.0624	-15741.71
0.8954,0.1046	-15743.54
0.9197,0.0803	-15747.11
0.9531,0.0469	-15744.73
0.9016,0.0984	-15749.80
0.9149,0.0851	-15749.57
0.9204,0.0796	-15742.20
0.8960,0.1040	-15743.50
0.9081,0.0919	-15747.36
0.9565,0.0435	-15735.62
0.9258,0.0742	-15744.53
0.9036,0.0964	-15751.98
0.9199,0.0801	-15749.54
0.9106,0.0894	-15742.65
0.9273,0.0727	-15744.50
0.9620,0.0380	-15742.03
0.9267,0.0733	-15749.58
0.9062,0.0938	-15740.62
0.9080,0.0920	-15754.23
0.9193,0.0807	-15744.68
0.9299,0.0701	-15741.87
0.9660,0.0340	-15742.27
0.9247,0.0753	-15747.05
0.9186,0.0814	-15742.28
0.9056,0.0944	-15749.70
0.9089,0.0911	-15749.64
0.9435,0.0565	-15741.65
0.9723,0.0277	-15735.73
0.9206,0.0794	-15739.74
0.9136,0.0864	-15751.94
0.9171,0.0829	-15744.74
0.9159,0.0841	-15749.56
0.9506,0.0494	-15738.72
0.9714,0.0286	-15742.74
0.9196,0.0804	-15754.42
0.9126,0.0874	-15749.59
0.9182,0.0818	-15739.87
0.9254,0.0746	-15749.57
0.9453,0.0547	-15738.80
0.9709,0.0291	-15742.69
0.9075,0.0925	-15756.51
0.9023,0.0977	-15758.67
0.8886,0.1114	-15752.30
0.9311,0.0689	-15752.26
0.9517,0.0483	-15732.75
0.9700,0.0300	-15739.13
0.9143,0.0857	-15749.57
0.8926,0.1074	-15752.19
0.8942,0.1058	-15745.75
0.9357,0.0643	-15744.42
0.9466,0.0534	-15741.65
0.9705,0.0295	-15732.18
0.9255,0.0745	-15744.53
0.9011,0.0989	-15765.27
0.8959,0.1041	-15756.42
0.9379,0.0621	-15744.42
0.9355,0.0645	-15736.39
0.9655,0.0345	-15728.91
0.9182,0.0818	-15744.71
0.9189,0.0811	-15751.97
0.8971,0.1029	-15749.92
0.9319,0.0681	-15739.21
0.9398,0.0602	-15736.18
0.9675,0.0325	-15735.60
0.9239,0.0761	-15744.56
0.9197,0.0803	-15749.54
0.8784,0.1216	-15754.64
0.9239,0.0761	-15744.56
0.9406,0.0594	-15744.43
0.9613,0.0387	-15741.99
0.9129,0.0871	-15742.54
0.9287,0.0713	-15739.34
0.8857,0.1143	-15752.39
0.9156,0.0844	-15740.02
0.9219,0.0781	-15744.61
0.9627,0.0373	-15742.07
0.9037,0.0963	-15754.22
0.9332,0.0668	-15744.43
0.8688,0.1312	-15751.20
0.9112,0.0888	-15756.59
0.9203,0.0797	-15749.54
0.9616,0.0384	-15738.79
0.9012,0.0988	-15747.60
0.9330,0.0670	-15736.53
0.8907,0.1093	-15745.95
0.9137,0.0863	-15742.50
0.9202,0.0798	-15749.54
0.9622,0.0378	-15745.28
0.8974,0.1026	-15758.59
0.9293,0.0707	-15747.04
0.8899,0.1101	-15745.99
0.9192,0.0808	-15742.25
0.9410,0.0590	-15741.67
0.9628,0.0372	-15729.06
0.9239,0.0761	-15749.56
0.9381,0.0619	-15744.42
0.9081,0.0919	-15756.53
0.9130,0.0870	-15740.18
0.9362,0.0638	-15736.36
0.9613,0.0387	-15738.78
0.9360,0.0640	-15741.73
0.9419,0.0581	-15741.66
0.9059,0.0941	-15745.17
0.9260,0.0740	-15736.94
0.9425,0.0575	-15741.65
0.9639,0.0361	-15738.85
0.9384,0.0616	-15747.14
0.9585,0.0415	-15735.59
0.9040,0.0960	-15751.98
0.9298,0.0702	-15744.46
0.9266,0.0734	-15736.90
0.9679,0.0321	-15732.20
0.9147,0.0853	-15744.82
0.9556,0.0444	-15741.78
0.9101,0.0899	-15747.31
0.9159,0.0841	-15737.62
0.9293,0.0707	-15736.74
0.9692,0.0308	-15735.64
0.9204,0.0796	-15749.54
0.9385,0.0615	-15736.24
0.9248,0.0752	-15747.05
0.9163,0.0837	-15742.38
0.9348,0.0652	-15744.42
0.9708,0.0292	-15739.18
0.9170,0.0830	-15747.15
0.9545,0.0455	-15732.62
0.9192,0.0808	-15749.54
0.9025,0.0975	-15758.67
0.9453,0.0547	-15744.50
0.9736,0.0264	-15732.18
0.9271,0.0729	-15741.96
0.9533,0.0467	-15741.72
0.9391,0.0609	-15747.16
0.8960,0.1040	-15749.96
0.9518,0.0482	-15747.66
0.9712,0.0288	-15742.72
0.9264,0.0736	-15739.45
0.9599,0.0401	-15745.11
0.9434,0.0566	-15738.83
0.8997,0.1003	-15741.07
0.9496,0.0504	-15747.54
0.9704,0.0296	-15735.67
0.9218,0.0782	-15752.01
0.9604,0.0396	-15735.57
0.9429,0.0571	-15736.04
0.9248,0.0752	-15754.58
0.9541,0.0459	-15741.74
0.9768,0.0232	-15732.22
0.9092,0.0908	-15758.85
0.9559,0.0441	-15732.56
0.9486,0.0514	-15738.74
0.9234,0.0766	-15737.10
0.9607,0.0393	-15735.57
0.9740,0.0260	-15739.42
0.8967,0.1033	-15747.77
0.9508,0.0492	-15729.83
0.9373,0.0627	-15739.01
0.9258,0.0742	-15747.05
0.9596,0.0404	-15732.41
0.9744,0.0256	-15739.47
0.8889,0.1111	-15746.05
0.9496,0.0504	-15735.80
0.9357,0.0643	-15747.09
0.9201,0.0799	-15744.66
0.9649,0.0351	-15745.52
0.9774,0.0226	-15732.24
0.9030,0.0970	-15747.53
0.9475,0.0525	-15750.33
0.9180,0.0820	-15747.13
0.9174,0.0826	-15751.96
0.9615,0.0385	-15732.35
0.9717,0.0283	-15735.71
0.8978,0.1022	-15747.73
0.9292,0.0708	-15741.89
0.9308,0.0692	-15739.25
0.9126,0.0874	-15751.93
0.9523,0.0477	-15741.70
0.9681,0.0319	-15735.61
0.8918,0.1082	-15756.43
0.9278,0.0722	-15739.38
0.9230,0.0770	-15742.10
0.9132,0.0868	-15751.93
0.9497,0.0503	-15747.54
0.9719,0.0281	-15749.89
0.9000,0.1000	-15758.63
0.9345,0.0655	-15739.10
0.9204,0.0796	-15749.54
0.9207,0.0793	-15742.19
0.9481,0.0519	-15741.65
0.9770,0.0230	-15732.23
0.9114,0.0886	-15754.26
0.9437,0.0563	-15750.10
0.9356,0.0644	-15749.77
0.9237,0.0763	-15747.06
0.9523,0.0477	-15732.72
0.9796,0.0204	-15732.31
0.9290,0.0710	-15747.04
0.9372,0.0628	-15755.23
0.9132,0.0868	-15751.93
0.9174,0.0826	-15739.92
0.9440,0.0560	-15733.17
0.9790,0.0210	-15743.82
0.9421,0.0579	-15741.66
0.9441,0.0559	-15741.65
0.9206,0.0794	-15749.54
0.9000,0.1000	-15743.25
0.9418,0.0582	-15744.44
0.9754,0.0246	-15732.20
0.9412,0.0588	-15738.89
0.9364,0.0636	-15747.11
0.9171,0.0829	-15744.74
0.8889,0.1111	-15764.77
0.9406,0.0594	-15741.67
0.9795,0.0205	-15732.31
0.9449,0.0551	-15747.33
0.9299,0.0701	-15739.29
0.9080,0.0920	-15756.52
0.8747,0.1253	-15762.53
0.9406,0.0594	-15741.67
0.9778,0.0222	-15739.82
0.9482,0.0518	-15730.02
0.9481,0.0519	-15741.65
0.8956,0.1044	-15749.97
0.8601,0.1399	-15760.81
0.9444,0.0556	-15738.81
0.9801,0.0199	-15732.34
0.9247,0.0753	-15752.07
0.9398,0.0602	-15738.93
0.9237,0.0763	-15749.56
0.8621,0.1379	-15749.77
0.9567,0.0433	-15744.91
0.9761,0.0239	-15728.50
0.9171,0.0829	-15739.93
0.9272,0.0728	-15749.59
0.9412,0.0588	-15741.66
0.8705,0.1295	-15758.72
0.9577,0.0423	-15735.60
0.9822,0.0178	-15736.46
0.9144,0.0856	-15742.46
0.9049,0.0951	-15751.97
0.9370,0.0630	-15747.12
0.8615,0.1385	-15757.13
0.9589,0.0411	-15735.59
0.9828,0.0172	-15732.49
0.9034,0.0966	-15745.28
0.9102,0.0898	-15747.30
0.9451,0.0549	-15733.11
0.8666,0.1334	-15760.68
0.9626,0.0374	-15745.31
0.9804,0.0196	-15740.17
0.9206,0.0794	-15749.54
0.9334,0.0666	-15741.79
0.9582,0.0418	-15738.73
0.8796,0.1204	-15756.59
0.9692,0.0308	-15732.19
0.9847,0.0153	-15728.48
0.9236,0.0764	-15747.06
0.9266,0.0734	-15747.05
0.9607,0.0393	-15735.57
0.8727,0.1273	-15754.83
0.9704,0.0296	-15735.67
0.9865,0.0135	-15732.83
0.9002,0.0998	-15754.23
0.9093,0.0907	-15758.85
0.9560,0.0440	-15738.71
0.8940,0.1060	-15756.42
0.9680,0.0320	-15739.02
0.9827,0.0173	-15732.49
0.9112,0.0888	-15744.95
0.9164,0.0836	-15742.37
0.9637,0.0363	-15738.84
0.9021,0.0979	-15756.44
0.9695,0.0305	-15732.18
0.9786,0.0214	-15732.28
0.9132,0.0868	-15742.52
0.9020,0.0980	-15749.78
0.9585,0.0415	-15738.73
0.9094,0.0906	-15735.79
0.9723,0.0277	-15742.85
0.9822,0.0178	-15736.46
0.9156,0.0844	-15742.41
0.9011,0.0989	-15745.39
0.9580,0.0420	-15732.47
0.9057,0.0943	-15749.70
0.9739,0.0261	-15735.80
0.9853,0.0147	-15732.70
0.9222,0.0778	-15744.60
0.9072,0.0928	-15740.55
0.9590,0.0410	-15745.05
0.9227,0.0773	-15747.07
0.9662,0.0338	-15735.58
0.9827,0.0173	-15736.53
0.9333,0.0667	-15747.07
0.9148,0.0852	-15749.57
0.9547,0.0453	-15735.66
0.9124,0.0876	-15751.93
0.9596,0.0404	-15738.75
0.9834,0.0166	-15728.45
0.9334,0.0666	-15744.43
0.9174,0.0826	-15754.37
0.9493,0.0507	-15753.38
0.9318,0.0682	-15741.83
0.9553,0.0447	-15735.65
0.9776,0.0224	-15736.02
0.9422,0.0578	-15744.45
0.9201,0.0799	-15747.10
0.9535,0.0465	-15738.71
0.9334,0.0666	-15752.35
0.9476,0.0524	-15738.76
0.9755,0.0245	-15728.51
0.9441,0.0559	-15750.12
0.9194,0.0806	-15737.38
0.9493,0.0507	-15741.66
0.9334,0.0666	-15741.79
0.9545,0.0455	-15744.79
0.9757,0.0243	-15735.90
0.9472,0.0528	-15741.65
0.9182,0.0818	-15749.55
0.9448,0.0552	-15735.97
0.9306,0.0694	-15744.45
0.9467,0.0533	-15741.65
0.9789,0.0211	-15732.29
0.9351,0.0649	-15733.75
0.9372,0.0628	-15744.42
0.9351,0.0649	-15736.41
0.9257,0.0743	-15739.48
0.9397,0.0603	-15741.68
0.9771,0.0229	-15739.74
0.9130,0.0870	-15742.53
0.9420,0.0580	-15752.81
0.9412,0.0588	-15741.66
0.9352,0.0648	-15747.09
0.9256,0.0744	-15752.09
0.9727,0.0273	-15732.17
0.8845,0.1155	-15752.43
0.9386,0.0614	-15741.69
0.9379,0.0621	-15747.13
0.9328,0.0672	-15741.80
0.9313,0.0687	-15744.44
0.9614,0.0386	-15738.78
0.8932,0.1068	-15762.80
0.9310,0.0690	-15741.85
0.9479,0.0521	-15741.65
0.9360,0.0640	-15755.15
0.9264,0.0736	-15747.05
0.9606,0.0394	-15735.57
0.8920,0.1080	-15747.98
0.9394,0.0606	-15752.65
0.9509,0.0491	-15735.76
0.9475,0.0525	-15750.33
0.9153,0.0847	-15744.80
0.9663,0.0337	-15732.23
0.8946,0.1054	-15754.28
0.9339,0.0661	-15747.07
0.9466,0.0534	-15744.52
0.9406,0.0594	-15741.67
0.9223,0.0777	-15747.07
0.9734,0.0266	-15739.38
0.8831,0.1169	-15752.48
0.9315,0.0685	-15744.44
0.9457,0.0543	-15747.36
0.9401,0.0599	-15730.66
0.9350,0.0650	-15741.75
0.9699,0.0301	-15728.71
0.9039,0.0961	-15747.50
0.9300,0.0700	-15752.22
0.9238,0.0762	-15749.56
0.9265,0.0735	-15736.91
0.9347,0.0653	-15739.10
0.9613,0.0387	-15751.63
0.9009,0.0991	-15749.81
0.9269,0.0731	-15739.42
0.9300,0.0700	-15749.63
0.9129,0.0871	-15751.93
0.9426,0.0574	-15750.05
0.9677,0.0323	-15739.01
0.9060,0.0940	-15742.89
0.9330,0.0670	-15733.89
0.9263,0.0737	-15747.05
0.8937,0.1063	-15754.29
0.9225,0.0775	-15739.64
0.9655,0.0345	-15742.24
0.9173,0.0827	-15749.55
0.9455,0.0545	-15744.50
0.9233,0.0767	-15747.07
0.8935,0.1065	-15747.92
0.9255,0.0745	-15744.53
0.9709,0.0291	-15732.17
0.9216,0.0784	-15766.80
0.9528,0.0472	-15741.71
0.9132,0.0868	-15751.93
0.8993,0.1007	-15754.24
0.9390,0.0610	-15747.16
0.9733,0.0267	-15735.77
0.9248,0.0752	-15742.03
0.9519,0.0481	-15732.74
0.9237,0.0763	-15759.53
0.8814,0.1186	-15746.53
0.9409,0.0591	-15744.43
0.9707,0.0293	-15739.17
0.9262,0.0738	-15747.05
0.9549,0.0451	-15735.66
0.9237,0.0763	-15742.08
0.8726,0.1274	-15764.46
0.9556,0.0444	-15741.78
0.9721,0.0279	-15739.27
0.9142,0.0858	-15740.11
0.9513,0.0487	-15744.66
0.9155,0.0845	-15749.56
0.8633,0.1367	-15753.37
0.9538,0.0462	-15729.63
0.9738,0.0262	-15743.02
0.9231,0.0769	-15747.07
0.9507,0.0493	-15741.68
0.9073,0.0927	-15751.95
0.8581,0.1419	-15759.06
0.9470,0.0530	-15733.00
0.9728,0.0272	-15735.75
0.9050,0.0950	-15765.50
0.9486,0.0514	-15729.99
0.9436,0.0564	-15741.65
0.8616,0.1384	-15755.29
0.9485,0.0515	-15730.00
0.9738,0.0262	-15732.18
0.8996,0.1004	-15752.04
0.9481,0.0519	-15744.56
0.9239,0.0761	-15754.55
0.8765,0.1235	-15760.58
0.9383,0.0617	-15752.58
0.9734,0.0266	-15742.98
0.8909,0.1091	-15760.64
0.9315,0.0685	-15749.66
0.9266,0.0734	-15741.97
0.8860,0.1140	-15756.48
0.9499,0.0501	-15744.61
0.9779,0.0221	-15755.01
0.8727,0.1273	-15752.90
0.9154,0.0846	-15747.18
0.9276,0.0724	-15744.49
0.8959,0.1041	-15749.96
0.9467,0.0533	-15733.02
0.9771,0.0229	-15732.23
0.8864,0.1136	-15744.15
0.9100,0.0900	-15754.25
0.9352,0.0648	-15736.41
0.8616,0.1384	-15747.98
0.9336,0.0664	-15741.78
0.9744,0.0256	-15739.47
0.8747,0.1253	-15758.65
0.9030,0.0970	-15751.99
0.9421,0.0579	-15750.02
0.8697,0.1303	-15762.54
0.9366,0.0634	-15749.80
0.9748,0.0252	-15735.84
0.8686,0.1314	-15758.77
0.9055,0.0945	-15758.74
0.9385,0.0615	-15741.69
0.8877,0.1123	-15754.40
0.9358,0.0642	-15749.77
0.9738,0.0262	-15732.18
0.8847,0.1153	-15756.50
0.8920,0.1080	-15752.21
0.9374,0.0626	-15739.00
0.9077,0.0923	-15747.38
0.9193,0.0807	-15744.68
0.9780,0.0220	-15732.26
0.8824,0.1176	-15746.46
0.8905,0.1095	-15769.01
0.9337,0.0663	-15744.43
0.9092,0.0908	-15751.94
0.9136,0.0864	-15751.94
0.9789,0.0211	-15732.29
0.8655,0.1345	-15756.98
0.8890,0.1110	-15758.53
0.9403,0.0597	-15741.67
0.9000,0.1000	-15752.04
0.9189,0.0811	-15751.97
0.9793,0.0207	-15732.30
0.8293,0.1707	-15757.23
0.9102,0.0898	-15742.67
0.9339,0.0661	-15733.83
0.8791,0.1209	-15744.70
0.9133,0.0867	-15742.51
0.9815,0.0185	-15748.29
0.8375,0.1625	-15755.02
0.8921,0.1079	-15743.75
0.9306,0.0694	-15747.05
0.8744,0.1256	-15750.89
0.9281,0.0719	-15749.60
0.9852,0.0148	-15732.69
0.8181,0.1819	-15764.09
0.8808,0.1192	-15752.57
0.9412,0.0588	-15744.44
0.8565,0.1435	-15759.12
0.9283,0.0717	-15739.36
0.9833,0.0167	-15728.45
0.8466,0.1534	-15756.09
0.8804,0.1196	-15754.58
0.9364,0.0636	-15741.73
0.8666,0.1334	-15760.68
0.9298,0.0702	-15747.04
0.9772,0.0228	-15739.75
0.8662,0.1338	-15756.96
0.8757,0.1243	-15772.30
0.9257,0.0743	-15749.57
0.8492,0.1508	-15747.30
0.9398,0.0602	-15738.93
0.9793,0.0207	-15736.16
0.8499,0.1501	-15754.17
0.8821,0.1179	-15750.51
0.9079,0.0921	-15756.52
0.8679,0.1321	-15755.02
0.9497,0.0503	-15738.73
0.9784,0.0216	-15728.46
0.8550,0.1450	-15755.62
0.8974,0.1026	-15747.74
0.9211,0.0789	-15749.54
0.8843,0.1157	-15744.31
0.9477,0.0523	-15750.34
0.9797,0.0203	-15732.32
0.8514,0.1486	-15764.54
0.8874,0.1126	-15754.40
0.9341,0.0659	-15757.68
0.8729,0.1271	-15752.90
0.9417,0.0583	-15744.44
0.9760,0.0240	-15735.91
0.8356,0.1644	-15766.54
0.9054,0.0946	-15745.19
0.9494,0.0506	-15732.87
0.8857,0.1143	-15750.34
0.9308,0.0692	-15741.85
0.9727,0.0273	-15735.75
0.8499,0.1501	-15764.57
0.9052,0.0948	-15754.22
0.9520,0.0480	-15738.71
0.8569,0.1431	-15760.89
0.9371,0.0629	-15747.12
0.9707,0.0293	-15739.18
0.8545,0.1455	-15752.10
0.9030,0.0970	-15749.76
0.9397,0.0603	-15736.19
0.8703,0.1297	-15753.02
0.9457,0.0543	-15744.50
0.9740,0.0260	-15743.05
0.8520,0.1480	-15750.53
0.9178,0.0822	-15742.31
0.9501,0.0499	-15744.62
0.8597,0.1403	-15762.64
0.9437,0.0563	-15738.83
0.9731,0.0269	-15728.58
0.8291,0.1709	-15755.66
0.9115,0.0885	-15747.27
0.9387,0.0613	-15741.69
0.8734,0.1266	-15749.01
0.9364,0.0636	-15744.42
0.9761,0.0239	-15732.21
0.8063,0.1937	-15770.47
0.9162,0.0838	-15747.16
0.9404,0.0596	-15744.43
0.8638,0.1362	-15760.74
0.9396,0.0604	-15741.68
0.9680,0.0320	-15732.20
0.8411,0.1589	-15764.76
0.9374,0.0626	-15749.83
0.9425,0.0575	-15744.45
0.8498,0.1502	-15761.10
0.9309,0.0691	-15747.05
0.9740,0.0260	-15732.18
0.8199,0.1801	-15762.48
0.9432,0.0568	-15736.03
0.9490,0.0510	-15753.35
0.8569,0.1431	-15759.10
0.9309,0.0691	-15747.05
0.9720,0.0280	-15728.62
0.8162,0.1838	-15764.19
0.9411,0.0589	-15741.66
0.9601,0.0399	-15735.58
0.8809,0.1191	-15742.56
0.9202,0.0798	-15744.65
0.9730,0.0270	-15732.17
0.8489,0.1511	-15761.13
0.9448,0.0552	-15738.81
0.9637,0.0363	-15745.41
0.8976,0.1024	-15741.23
0.9265,0.0735	-15741.98
0.9704,0.0296	-15732.18
0.8634,0.1366	-15753.36
0.9458,0.0542	-15741.65
0.9520,0.0480	-15732.74
0.9021,0.0979	-15758.66
0.9200,0.0800	-15742.22
0.9731,0.0269	-15746.52
0.8794,0.1206	-15754.61
0.9453,0.0547	-15733.10
0.9453,0.0547	-15741.65
0.8954,0.1046	-15762.86
0.9152,0.0848	-15742.43
0.9741,0.0259	-15739.44
0.8750,0.1250	-15756.70
0.9488,0.0512	-15732.90
0.9423,0.0577	-15736.07
0.9105,0.0895	-15751.93
0.9041,0.0959	-15751.98
0.9664,0.0336	-15732.23
0.8869,0.1131	-15750.29
0.9428,0.0572	-15747.26
0.9418,0.0582	-15736.09
0.8916,0.1084	-15750.11
0.8967,0.1033	-15756.42
0.9558,0.0442	-15744.86
0.9015,0.0985	-15738.73
0.9437,0.0563	-15738.83
0.9392,0.0608	-15738.95
0.8853,0.1147	-15752.41
0.9055,0.0945	-15749.70
0.9427,0.0573	-15738.85
0.8949,0.1051	-15750.00
0.9579,0.0421	-15741.85
0.9425,0.0575	-15730.47
0.8907,0.1093	-15752.24
0.9102,0.0898	-15747.30
0.9415,0.0585	-15744.44
0.9001,0.0999	-15747.64
0.9685,0.0315	-15735.62
0.9395,0.0605	-15752.65
0.9073,0.0927	-15754.23
0.9213,0.0787	-15747.09
0.9394,0.0606	-15752.64
0.9153,0.0847	-15749.56
0.9639,0.0361	-15735.57
0.9389,0.0611	-15733.49
0.9226,0.0774	-15752.03
0.9224,0.0776	-15742.12
0.9446,0.0554	-15738.81
0.9053,0.0947	-15745.19
0.9636,0.0364	-15742.12
0.9356,0.0644	-15741.74
0.9221,0.0779	-15747.08
0.9258,0.0742	-15742.00
0.9520,0.0480	-15747.68
0.8912,0.1088	-15743.82
0.9691,0.0309	-15732.19
0.9399,0.0601	-15741.68
0.9559,0.0441	-15747.94
0.9197,0.0803	-15742.23
0.9605,0.0395	-15735.57
0.9018,0.0982	-15749.79
0.9708,0.0292	-15735.68
0.9344,0.0656	-15744.42
0.9523,0.0477	-15741.70
0.9134,0.0866	-15742.51
0.9659,0.0341	-15738.92
0.9106,0.0894	-15747.29
0.9718,0.0282	-15735.71
0.9351,0.0649	-15741.75
0.9574,0.0426	-15741.83
0.9162,0.0838	-15742.38
0.9608,0.0392	-15729.18
0.9154,0.0846	-15756.71
0.9732,0.0268	-15732.17
0.9429,0.0571	-15744.46
0.9519,0.0481	-15738.71
0.9189,0.0811	-15739.83
0.9507,0.0493	-15747.60
0.9108,0.0892	-15754.26
0.9725,0.0275	-15732.17
0.9340,0.0660	-15739.12
0.9546,0.0454	-15738.71
0.9045,0.0955	-15745.23
0.9455,0.0545	-15738.79
0.8880,0.1120	-15752.32
0.9678,0.0322	-15732.20
0.9262,0.0738	-15749.58
0.9449,0.0551	-15744.49
0.9142,0.0858	-15751.94
0.9553,0.0447	-15738.71
0.8958,0.1042	-15749.97
0.9781,0.0219	-15728.46
0.9197,0.0803	-15747.11
0.9414,0.0586	-15744.44
0.9339,0.0661	-15755.02
0.9476,0.0524	-15741.65
0.9171,0.0829	-15742.34
0.9815,0.0185	-15736.38
0.8933,0.1067	-15760.67
0.9157,0.0843	-15740.02
0.9325,0.0675	-15739.18
0.9492,0.0508	-15738.73
0.9296,0.0704	-15744.46
0.9742,0.0258	-15732.18
0.9288,0.0712	-15749.61
0.9270,0.0730	-15744.50
0.9372,0.0628	-15741.71
0.9500,0.0500	-15747.56
0.9285,0.0715	-15741.92
0.9763,0.0237	-15732.21
0.9443,0.0557	-15735.99
0.9282,0.0718	-15739.36
0.9246,0.0754	-15747.05
0.9494,0.0506	-15738.73
0.9228,0.0772	-15742.11
0.9720,0.0280	-15732.17
0.9454,0.0546	-15738.79
0.9258,0.0742	-15739.48
0.9308,0.0692	-15747.05
0.9476,0.0524	-15735.86
0.9282,0.0718	-15739.36
0.9745,0.0255	-15732.19
0.9508,0.0492	-15735.76
0.9279,0.0721	-15749.60
0.9201,0.0799	-15737.32
0.9480,0.0520	-15732.94
0.9180,0.0820	-15742.30
0.9737,0.0263	-15732.18
0.9549,0.0451	-15741.76
0.9314,0.0686	-15744.44
0.9401,0.0599	-15741.67
0.9562,0.0438	-15732.54
0.9254,0.0746	-15744.53
0.9745,0.0255	-15728.54
0.9544,0.0456	-15735.67
0.9295,0.0705	-15747.04
0.9431,0.0569	-15738.84
0.9382,0.0618	-15744.42
0.9228,0.0772	-15739.63
0.9684,0.0316	-15732.19
0.9578,0.0422	-15741.85
0.9240,0.0760	-15749.56
0.9512,0.0488	-15738.72
0.9460,0.0540	-15741.65
0.9299,0.0701	-15759.97
0.9659,0.0341	-15738.93
0.9650,0.0350	-15735.57
0.9071,0.0929	-15740.55
0.9592,0.0408	-15735.59
0.9418,0.0582	-15738.87
0.9214,0.0786	-15742.16
0.9617,0.0383	-15738.79
0.9624,0.0376	-15745.29
0.8874,0.1126	-15752.34
0.9581,0.0419	-15738.73
0.9279,0.0721	-15744.49
0.9214,0.0786	-15752.01
0.9605,0.0395	-15732.38
0.9557,0.0443	-15735.64
0.8710,0.1290	-15754.89
0.9586,0.0414	-15729.31
0.9339,0.0661	-15741.78
0.9167,0.0833	-15749.55
0.9515,0.0485	-15744.67
0.9533,0.0467	-15741.72
0.8866,0.1134	-15750.31
0.9479,0.0521	-15735.85
0.9331,0.0669	-15757.60
0.9103,0.0897	-15742.67
0.9525,0.0475	-15738.71
0.9627,0.0373	-15735.57
0.8911,0.1089	-15762.74
0.9344,0.0656	-15741.76
0.9252,0.0748	-15744.54
0.9103,0.0897	-15742.67
0.9508,0.0492	-15744.64
0.9640,0.0360	-15738.85
0.8645,0.1355	-15760.72
0.9097,0.0903	-15747.32
0.9185,0.0815	-15744.70
0.8930,0.1070	-15752.18
0.9480,0.0520	-15738.75
0.9730,0.0270	-15732.17
0.8873,0.1127	-15756.47
0.9043,0.0957	-15751.98
0.9063,0.0937	-15742.88
0.8911,0.1089	-15745.92
0.9546,0.0454	-15732.61
0.9725,0.0275	-15728.61
0.8716,0.1284	-15754.87
0.8824,0.1176	-15758.55
0.8882,0.1118	-15754.39
0.8943,0.1057	-15754.29
0.9524,0.0476	-15747.70
0.9786,0.0214	-15732.28
0.8929,0.1071	-15754.30
0.8666,0.1334	-15749.46
0.8714,0.1286	-15764.45
0.9044,0.0956	-15745.23
0.9566,0.0434	-15738.71
0.9784,0.0216	-15732.27
0.8948,0.1052	-15747.86
0.8615,0.1385	-15753.47
0.8505,0.1495	-15743.70
0.9135,0.0865	-15754.29
0.9660,0.0340	-15742.28
0.9806,0.0194	-15732.36
0.9206,0.0794	-15739.74
0.8879,0.1121	-15760.60
0.8783,0.1217	-15752.67
0.9245,0.0755	-15747.06
0.9595,0.0405	-15745.08
0.9769,0.0231	-15739.72
0.9398,0.0602	-15741.68
0.8534,0.1466	-15769.80
0.8670,0.1330	-15756.93
0.9317,0.0683	-15749.67
0.9632,0.0368	-15735.57
0.9777,0.0223	-15736.03
0.9481,0.0519	-15747.47
0.8292,0.1708	-15766.71
0.8627,0.1373	-15762.59
0.9394,0.0606	-15758.13
0.9664,0.0336	-15732.23
0.9745,0.0255	-15735.83
0.9454,0.0546	-15747.35
0.8168,0.1832	-15755.18
0.8610,0.1390	-15758.97
0.9380,0.0620	-15747.13
0.9596,0.0404	-15738.75
0.9670,0.0330	-15742.35
0.9345,0.0655	-15749.74
0.8583,0.1417	-15757.25
0.8371,0.1629	-15761.60
0.9302,0.0698	-15741.87
0.9690,0.0310	-15742.51
0.9651,0.0349	-15742.21
0.9361,0.0639	-15747.10
0.8481,0.1519	-15766.32
0.8452,0.1548	-15756.17
0.9400,0.0600	-15738.92
0.9621,0.0379	-15742.03
0.9601,0.0399	-15729.22
0.9262,0.0738	-15749.58
0.8542,0.1458	-15759.20
0.8783,0.1217	-15758.59
0.9375,0.0625	-15739.00
0.9566,0.0434	-15741.81
0.9514,0.0486	-15738.71
0.9266,0.0734	-15757.19
0.8906,0.1094	-15745.96
0.8736,0.1264	-15752.86
0.9139,0.0861	-15759.02
0.9525,0.0475	-15738.71
0.9426,0.0574	-15744.45
0.9262,0.0738	-15752.11
0.8894,0.1106	-15752.28
0.8773,0.1227	-15750.74
0.9395,0.0605	-15738.94
0.9522,0.0478	-15741.70
0.9464,0.0536	-15738.78
0.9229,0.0771	-15734.66
0.8862,0.1138	-15746.22
0.8938,0.1062	-15754.29
0.9478,0.0522	-15744.55
0.9465,0.0535	-15741.65
0.9309,0.0691	-15747.05
0.9121,0.0879	-15749.59
0.8901,0.1099	-15766.90
0.9138,0.0862	-15744.85
0.9599,0.0401	-15732.40
0.9565,0.0435	-15738.71
0.9275,0.0725	-15741.94
0.9063,0.0937	-15756.50
0.8979,0.1021	-15756.42
0.9225,0.0775	-15744.60
0.9592,0.0408	-15741.90
0.9549,0.0451	-15738.71
0.9366,0.0634	-15755.19
0.8775,0.1225	-15760.57
0.9010,0.0990	-15743.18
0.9128,0.0872	-15751.93
0.9661,0.0339	-15745.63
0.9486,0.0514	-15735.83
0.9403,0.0597	-15741.67
0.8482,0.1518	-15761.16
0.8808,0.1192	-15746.56
0.9243,0.0757	-15744.55
0.9690,0.0310	-15735.63
0.9509,0.0491	-15747.61
0.9467,0.0533	-15744.52
0.8550,0.1450	-15764.49
0.8811,0.1189	-15752.56
0.9031,0.0969	-15745.29
0.9705,0.0295	-15739.16
0.9464,0.0536	-15733.03
0.9467,0.0533	-15735.89
0.8431,0.1569	-15759.66
0.8741,0.1259	-15762.53
0.9014,0.0986	-15745.38
0.9731,0.0269	-15735.76
0.9441,0.0559	-15738.82
0.9416,0.0584	-15741.66
0.8770,0.1230	-15754.68
0.8617,0.1383	-15755.29
0.9130,0.0870	-15740.18
0.9730,0.0270	-15728.59
0.9567,0.0433	-15735.62
0.9507,0.0493	-15741.68
0.8744,0.1256	-15747.01
0.8693,0.1307	-15754.96
0.9162,0.0838	-15744.77
0.9773,0.0227	-15728.48
0.9552,0.0448	-15744.83
0.9468,0.0532	-15750.28
0.8774,0.1226	-15764.51
0.8623,0.1377	-15757.10
0.8947,0.1053	-15758.56
0.9779,0.0221	-15732.25
0.9594,0.0406	-15745.07
0.9643,0.0357	-15742.16
0.9036,0.0964	-15763.17
0.8366,0.1634	-15764.88
0.9149,0.0851	-15747.19
0.9792,0.0208	-15736.16
0.9550,0.0450	-15744.82
0.9672,0.0328	-15745.75
0.9059,0.0941	-15745.17
0.8274,0.1726	-15758.93
0.8960,0.1040	-15747.81
0.9803,0.0197	-15740.17
0.9491,0.0509	-15738.74
0.9608,0.0392	-15732.37
0.9186,0.0814	-15744.70
0.8268,0.1732	-15757.41
0.9079,0.0921	-15738.21
