#isoforms=['ENSG00000186575.SE.4.A.up_ENSG00000186575.SE.4.A.SE1_ENSG00000186575.SE.4.A.dn','ENSG00000186575.SE.4.B.up_ENSG00000186575.SE.4.B.dn']	exon_lens=('ENSG00000186575.SE.4.A.up',128),('ENSG00000186575.SE.4.A.SE1',163),('ENSG00000186575.SE.4.A.dn',3847),('ENSG00000186575.SE.4.B.up',128),('ENSG00000186575.SE.4.B.dn',194)	iters=5000	burn_in=500	lag=10	percent_accept=78.96	proposal_type=drift	counts=(0,0):397,(0,1):1,(1,0):3345,(1,1):437	assigned_counts=0:3578,1:205	chrom=chr22	strand=+	mRNA_starts=29678196,29678196	mRNA_ends=29698598,29694945
sampled_psi	log_score
0.5692,0.4308	-31696.95
0.5339,0.4661	-31701.24
0.5491,0.4509	-31700.94
0.5183,0.4817	-31700.71
0.5654,0.4346	-31696.08
0.5322,0.4678	-31699.79
0.5620,0.4380	-31701.82
0.5715,0.4285	-31696.16
0.5481,0.4519	-31698.77
0.5236,0.4764	-31699.96
0.5205,0.4795	-31699.93
0.5573,0.4427	-31704.20
0.5506,0.4494	-31697.97
0.5317,0.4683	-31701.96
0.5258,0.4742	-31698.58
0.5460,0.4540	-31700.07
0.5537,0.4463	-31701.63
0.4958,0.5042	-31702.50
0.5362,0.4638	-31698.97
0.5806,0.4194	-31702.00
0.5238,0.4762	-31701.47
0.5536,0.4464	-31700.54
0.5425,0.4575	-31701.20
0.5400,0.4600	-31699.34
0.5577,0.4423	-31695.67
0.6055,0.3945	-31692.94
0.5551,0.4449	-31700.84
0.5190,0.4810	-31702.34
0.5372,0.4628	-31698.94
0.5202,0.4798	-31701.81
0.5524,0.4476	-31699.01
0.6542,0.3458	-31681.92
0.5570,0.4430	-31698.90
0.5040,0.4960	-31702.13
0.5512,0.4488	-31696.32
0.5089,0.4911	-31701.44
0.5599,0.4401	-31695.14
0.5980,0.4020	-31693.35
0.5756,0.4244	-31696.27
0.5101,0.4899	-31701.45
0.5477,0.4523	-31698.20
0.4883,0.5117	-31702.46
0.5031,0.4969	-31702.11
0.6150,0.3850	-31699.75
0.6092,0.3908	-31698.08
0.5366,0.4634	-31700.43
0.5624,0.4376	-31693.07
0.5212,0.4788	-31700.04
0.5677,0.4323	-31693.92
0.5976,0.4024	-31695.70
0.5867,0.4133	-31696.11
0.5307,0.4693	-31699.47
0.5319,0.4681	-31699.54
0.5258,0.4742	-31699.62
0.5609,0.4391	-31694.87
0.5622,0.4378	-31694.83
0.6109,0.3891	-31695.58
0.5023,0.4977	-31702.15
0.5125,0.4875	-31702.47
0.4837,0.5163	-31703.66
0.5317,0.4683	-31700.31
0.5070,0.4930	-31702.29
0.5923,0.4077	-31690.87
0.5095,0.4905	-31700.82
0.5041,0.4959	-31701.83
0.5002,0.4998	-31702.38
0.5402,0.4598	-31698.86
0.5241,0.4759	-31702.05
0.5685,0.4315	-31694.45
0.5202,0.4798	-31699.95
0.5291,0.4709	-31699.54
0.4984,0.5016	-31702.48
0.5209,0.4791	-31699.39
0.5267,0.4733	-31701.06
0.5771,0.4229	-31697.88
0.5143,0.4857	-31700.75
0.5374,0.4626	-31698.78
0.4900,0.5100	-31702.14
0.5656,0.4344	-31696.08
0.5179,0.4821	-31700.01
0.5615,0.4385	-31697.08
0.5399,0.4601	-31698.54
0.5349,0.4651	-31699.44
0.5346,0.4654	-31701.53
0.5829,0.4171	-31696.59
0.5310,0.4690	-31699.70
0.5446,0.4554	-31698.07
0.4855,0.5145	-31703.59
0.5500,0.4500	-31698.18
0.5406,0.4594	-31702.10
0.6146,0.3854	-31703.89
0.5951,0.4049	-31693.60
0.5409,0.4591	-31694.75
0.5816,0.4184	-31692.57
0.5603,0.4397	-31697.31
0.5519,0.4481	-31695.26
0.5876,0.4124	-31691.56
0.5526,0.4474	-31698.17
0.5152,0.4848	-31701.71
0.5576,0.4424	-31695.91
0.5536,0.4464	-31698.39
0.5776,0.4224	-31693.52
0.5667,0.4333	-31700.38
0.4984,0.5016	-31702.49
0.5387,0.4613	-31701.84
0.5202,0.4798	-31701.49
0.5291,0.4709	-31701.17
0.5465,0.4535	-31699.14
0.5919,0.4081	-31696.81
0.5188,0.4812	-31700.83
0.5357,0.4643	-31701.71
0.5355,0.4645	-31700.56
0.5326,0.4674	-31700.04
0.5543,0.4457	-31699.05
0.6017,0.3983	-31690.25
0.5155,0.4845	-31702.01
0.5754,0.4246	-31696.26
0.5264,0.4736	-31699.90
0.5509,0.4491	-31697.76
0.4995,0.5005	-31702.44
0.6121,0.3879	-31694.32
0.5018,0.4982	-31702.36
0.5500,0.4500	-31696.37
0.5521,0.4479	-31695.87
0.5293,0.4707	-31698.82
0.5329,0.4671	-31700.82
0.5696,0.4304	-31692.48
0.5350,0.4650	-31702.38
0.5646,0.4354	-31695.30
0.5731,0.4269	-31697.96
0.5241,0.4759	-31699.74
0.5098,0.4902	-31701.75
0.5291,0.4709	-31700.01
0.5429,0.4571	-31700.53
0.5361,0.4639	-31697.68
0.5356,0.4644	-31696.43
0.5176,0.4824	-31699.56
0.5172,0.4828	-31700.51
0.5568,0.4432	-31701.63
0.5373,0.4627	-31699.38
0.5469,0.4531	-31697.45
0.5551,0.4449	-31699.07
0.5405,0.4595	-31699.82
0.5151,0.4849	-31700.38
0.5201,0.4799	-31700.60
0.5516,0.4484	-31696.93
0.5305,0.4695	-31700.69
0.5995,0.4005	-31692.22
0.5360,0.4640	-31699.56
0.5328,0.4672	-31700.16
0.5402,0.4598	-31701.92
0.5538,0.4462	-31699.47
0.5127,0.4873	-31701.77
0.6338,0.3662	-31678.77
0.5394,0.4606	-31699.67
0.5151,0.4849	-31701.29
0.5662,0.4338	-31707.54
0.5398,0.4602	-31698.55
0.5423,0.4577	-31699.15
0.5581,0.4419	-31694.96
0.5181,0.4819	-31701.59
0.5544,0.4456	-31698.84
0.5642,0.4358	-31696.34
0.5304,0.4696	-31701.55
0.5524,0.4476	-31699.64
0.5454,0.4546	-31700.78
0.4940,0.5060	-31703.16
0.5382,0.4618	-31701.66
0.5877,0.4123	-31695.81
0.4956,0.5044	-31702.77
0.5788,0.4212	-31695.44
0.4790,0.5210	-31704.63
0.4813,0.5187	-31703.11
0.5638,0.4362	-31695.05
0.5477,0.4523	-31697.62
0.5202,0.4798	-31701.00
0.5337,0.4663	-31699.88
0.5095,0.4905	-31701.65
0.4713,0.5287	-31703.45
0.5233,0.4767	-31701.00
0.5283,0.4717	-31700.83
0.5227,0.4773	-31702.11
0.5388,0.4612	-31701.07
0.5471,0.4529	-31697.83
0.4677,0.5323	-31704.06
0.5163,0.4837	-31701.03
0.5063,0.4937	-31701.89
0.5430,0.4570	-31700.70
0.5780,0.4220	-31697.61
0.5623,0.4377	-31701.34
0.5197,0.4803	-31702.20
0.5400,0.4600	-31699.18
0.4924,0.5076	-31702.71
0.5218,0.4782	-31701.30
0.5395,0.4605	-31697.29
0.5734,0.4266	-31701.53
0.5400,0.4600	-31701.43
0.5395,0.4605	-31699.19
0.5048,0.4952	-31702.40
0.5003,0.4997	-31702.37
0.5336,0.4664	-31700.83
0.5156,0.4844	-31701.82
0.5786,0.4214	-31697.02
0.5167,0.4833	-31701.95
0.4994,0.5006	-31702.44
0.5198,0.4802	-31702.60
0.4998,0.5002	-31702.41
0.5138,0.4862	-31701.57
0.5709,0.4291	-31701.00
0.5075,0.4925	-31701.84
0.5329,0.4671	-31699.37
0.5280,0.4720	-31701.28
0.5049,0.4951	-31702.29
0.5314,0.4686	-31701.19
0.5275,0.4725	-31699.85
0.5258,0.4742	-31701.48
0.5701,0.4299	-31698.39
0.5144,0.4856	-31701.72
0.5303,0.4697	-31698.87
0.5352,0.4648	-31703.67
0.5190,0.4810	-31700.82
0.5257,0.4743	-31702.20
0.5470,0.4530	-31698.39
0.5054,0.4946	-31701.91
0.5631,0.4369	-31698.36
0.5369,0.4631	-31700.72
0.5449,0.4551	-31699.86
0.5133,0.4867	-31701.06
0.5387,0.4613	-31700.91
0.5492,0.4508	-31697.39
0.5394,0.4606	-31696.67
0.5786,0.4214	-31693.84
0.5485,0.4515	-31696.63
0.5639,0.4361	-31696.59
0.5413,0.4587	-31698.67
0.5500,0.4500	-31700.18
0.5391,0.4609	-31700.14
0.5194,0.4806	-31701.73
0.5645,0.4355	-31698.15
0.5386,0.4614	-31701.99
0.5349,0.4651	-31701.54
0.5548,0.4452	-31697.74
0.5579,0.4421	-31694.04
0.5261,0.4739	-31701.90
0.4985,0.5015	-31702.54
0.5068,0.4932	-31701.86
0.5988,0.4012	-31688.18
0.5731,0.4269	-31690.89
0.5344,0.4656	-31698.77
0.5305,0.4695	-31700.45
0.5196,0.4804	-31701.34
0.5203,0.4797	-31700.92
0.5477,0.4523	-31698.39
0.5577,0.4423	-31702.86
0.5463,0.4537	-31700.26
0.5074,0.4926	-31701.58
0.5511,0.4489	-31699.81
0.5358,0.4642	-31701.71
0.5539,0.4461	-31700.56
0.5216,0.4784	-31701.82
0.5366,0.4634	-31699.55
0.5454,0.4546	-31698.41
0.5428,0.4572	-31697.60
0.5227,0.4773	-31700.29
0.5869,0.4131	-31698.58
0.5464,0.4536	-31703.43
0.5531,0.4469	-31699.66
0.5459,0.4541	-31697.67
0.5423,0.4577	-31698.30
0.5224,0.4776	-31699.50
0.5651,0.4349	-31692.41
0.5152,0.4848	-31700.97
0.5483,0.4517	-31698.77
0.5677,0.4323	-31699.91
0.5206,0.4794	-31700.91
0.5378,0.4622	-31701.04
0.5212,0.4788	-31701.56
0.5217,0.4783	-31701.39
0.5284,0.4716	-31697.76
0.5750,0.4250	-31692.32
0.5493,0.4507	-31698.77
0.5461,0.4539	-31697.48
0.5411,0.4589	-31698.34
0.5662,0.4338	-31695.02
0.5298,0.4702	-31700.70
0.5682,0.4318	-31694.18
0.5198,0.4802	-31700.14
0.5295,0.4705	-31701.29
0.5139,0.4861	-31701.01
0.5505,0.4495	-31701.82
0.5259,0.4741	-31700.24
0.5558,0.4442	-31698.42
0.5205,0.4795	-31699.60
0.5387,0.4613	-31702.15
0.5314,0.4686	-31700.82
0.5246,0.4754	-31701.08
0.5149,0.4851	-31701.41
0.5225,0.4775	-31701.02
0.5835,0.4165	-31690.21
0.5509,0.4491	-31700.42
0.5320,0.4680	-31700.43
0.5409,0.4591	-31700.64
0.5178,0.4822	-31701.24
0.4892,0.5108	-31703.30
0.5366,0.4634	-31701.16
0.5138,0.4862	-31701.13
0.5398,0.4602	-31698.55
0.5362,0.4638	-31699.99
0.5535,0.4465	-31696.67
0.5080,0.4920	-31702.13
0.5344,0.4656	-31699.87
0.5418,0.4582	-31702.34
0.5146,0.4854	-31701.31
0.5056,0.4944	-31701.70
0.5446,0.4554	-31698.78
0.5487,0.4513	-31699.55
0.5328,0.4672	-31700.03
0.5443,0.4557	-31696.12
0.4854,0.5146	-31703.08
0.5446,0.4554	-31701.83
0.5586,0.4414	-31699.65
0.5493,0.4507	-31698.18
0.6240,0.3760	-31684.92
0.4936,0.5064	-31702.50
0.5131,0.4869	-31702.02
0.5688,0.4312	-31697.49
0.5484,0.4516	-31700.91
0.5301,0.4699	-31699.01
0.6136,0.3864	-31687.06
0.5427,0.4573	-31701.38
0.5233,0.4767	-31701.94
0.5617,0.4383	-31701.04
0.5661,0.4339	-31697.94
0.5440,0.4560	-31700.73
0.5933,0.4067	-31699.19
0.5412,0.4588	-31698.51
0.5400,0.4600	-31704.00
0.5379,0.4621	-31697.70
0.5606,0.4394	-31696.34
0.5115,0.4885	-31702.54
0.5642,0.4358	-31698.66
0.5701,0.4299	-31699.24
0.5232,0.4768	-31700.45
0.5285,0.4715	-31700.71
0.5408,0.4592	-31698.35
0.5286,0.4714	-31701.40
0.5481,0.4519	-31700.70
0.5613,0.4387	-31698.55
0.5719,0.4281	-31699.06
0.5059,0.4941	-31701.61
0.5463,0.4537	-31698.77
0.5340,0.4660	-31701.38
0.5592,0.4408	-31699.21
0.5483,0.4517	-31699.35
0.5339,0.4661	-31699.74
0.5293,0.4707	-31700.82
0.5506,0.4494	-31696.75
0.5291,0.4709	-31701.17
0.5465,0.4535	-31697.28
0.5780,0.4220	-31699.50
0.5023,0.4977	-31702.18
0.5401,0.4599	-31701.27
0.5863,0.4137	-31696.09
0.4955,0.5045	-31702.87
0.5278,0.4722	-31700.50
0.5282,0.4718	-31702.64
0.5404,0.4596	-31699.01
0.5724,0.4276	-31698.80
0.5736,0.4264	-31693.24
0.5299,0.4701	-31700.70
0.5358,0.4642	-31694.98
0.5465,0.4535	-31699.33
0.5332,0.4668	-31699.63
0.5724,0.4276	-31695.59
0.5741,0.4259	-31689.35
0.5232,0.4768	-31701.66
0.5191,0.4809	-31700.51
0.5535,0.4465	-31702.04
0.5582,0.4418	-31698.70
0.5202,0.4798	-31700.36
0.5544,0.4456	-31698.62
0.5072,0.4928	-31702.49
0.5843,0.4157	-31700.75
0.5631,0.4369	-31699.63
0.5567,0.4433	-31697.07
0.5338,0.4662	-31699.88
0.5593,0.4407	-31696.59
0.5521,0.4479	-31700.89
0.5699,0.4301	-31698.10
0.5293,0.4707	-31700.59
0.5527,0.4473	-31697.96
0.5460,0.4540	-31699.33
0.5396,0.4604	-31699.98
0.5545,0.4455	-31700.59
0.5558,0.4442	-31700.44
0.5508,0.4492	-31700.01
0.5567,0.4433	-31696.61
0.5686,0.4314	-31695.83
0.5372,0.4628	-31700.43
0.6100,0.3900	-31690.57
0.5503,0.4497	-31696.36
0.5784,0.4216	-31702.07
0.5417,0.4583	-31700.50
0.4995,0.5005	-31702.44
0.5632,0.4368	-31695.57
0.5593,0.4407	-31695.16
0.5237,0.4763	-31699.95
0.5361,0.4639	-31700.28
0.5140,0.4860	-31700.67
0.5353,0.4647	-31699.29
0.5450,0.4550	-31701.31
0.5590,0.4410	-31702.52
0.5837,0.4163	-31693.59
0.5307,0.4693	-31700.57
0.5198,0.4802	-31702.05
0.5670,0.4330	-31695.82
0.5152,0.4848	-31701.95
0.5291,0.4709	-31699.07
0.5839,0.4161	-31696.64
0.5325,0.4675	-31700.30
0.5351,0.4649	-31697.89
0.5493,0.4507	-31701.74
0.5702,0.4298	-31703.49
0.5440,0.4560	-31699.67
0.5849,0.4151	-31692.58
0.5651,0.4349	-31696.34
0.5377,0.4623	-31699.98
0.5757,0.4243	-31690.47
0.5777,0.4223	-31700.73
0.5765,0.4235	-31701.54
0.5446,0.4554	-31697.89
0.5197,0.4803	-31701.42
0.5466,0.4534	-31700.27
0.5855,0.4145	-31696.05
0.5454,0.4546	-31697.14
0.6037,0.3963	-31694.10
0.5605,0.4395	-31696.10
0.5352,0.4648	-31701.27
0.5736,0.4264	-31700.65
0.5766,0.4234	-31700.94
0.5211,0.4789	-31700.97
0.5576,0.4424	-31693.82
0.5435,0.4565	-31697.58
0.5266,0.4734	-31701.27
0.5715,0.4285	-31699.04
0.5655,0.4345	-31693.18
0.5344,0.4656	-31700.70
0.5763,0.4237	-31695.06
0.5732,0.4268	-31692.95
0.5438,0.4562	-31697.04
0.5465,0.4535	-31699.52
0.5946,0.4054	-31690.90
0.5279,0.4721	-31702.06
0.5790,0.4210	-31694.17
0.5553,0.4447	-31697.52
0.5556,0.4444	-31697.75
0.5356,0.4644	-31699.71
0.6020,0.3980	-31696.47
0.5119,0.4881	-31701.88
0.5582,0.4418	-31698.00
0.5658,0.4342	-31700.06
0.5865,0.4135	-31688.76
0.5374,0.4626	-31700.73
0.6200,0.3800	-31691.68
0.5412,0.4588	-31701.31
0.5342,0.4658	-31699.19
0.5332,0.4668	-31700.29
0.5620,0.4380	-31698.33
0.4700,0.5300	-31703.94
0.6069,0.3931	-31689.56
0.5154,0.4846	-31701.83
0.5166,0.4834	-31701.28
0.5256,0.4744	-31700.55
0.5338,0.4662	-31701.78
0.5407,0.4593	-31700.15
0.5810,0.4190	-31692.24
0.4933,0.5067	-31702.67
0.4947,0.5053	-31702.24
0.5203,0.4797	-31701.49
0.5264,0.4736	-31700.74
0.5502,0.4498	-31698.58
0.5716,0.4284	-31694.72
0.5066,0.4934	-31702.03
0.5229,0.4771	-31699.82
0.5650,0.4350	-31698.17
0.5272,0.4728	-31702.58
0.5327,0.4673	-31701.08
0.5960,0.4040	-31695.58
0.5180,0.4820	-31701.16
0.5415,0.4585	-31697.50
0.5479,0.4521	-31698.58
0.5080,0.4920	-31701.68
0.5415,0.4585	-31699.49
0.5442,0.4558	-31699.32
0.5528,0.4472	-31700.08
0.5359,0.4641	-31697.54
0.5456,0.4544	-31701.70
0.5382,0.4618	-31699.83
0.5017,0.4983	-31702.28
0.5521,0.4479	-31698.17
0.5506,0.4494	-31697.56
0.5663,0.4337	-31701.15
0.5536,0.4464	-31698.39
0.5169,0.4831	-31702.62
0.5007,0.4993	-31702.38
0.5568,0.4432	-31697.07
0.5393,0.4607	-31695.73
0.5656,0.4344	-31698.72
0.5762,0.4238	-31699.98
0.5203,0.4797	-31701.49
0.5235,0.4765	-31701.47
0.5322,0.4678	-31700.95
0.5315,0.4685	-31699.81
0.5567,0.4433	-31700.26
0.5050,0.4950	-31702.18
0.5333,0.4667	-31700.29
0.5211,0.4789	-31700.64
0.5424,0.4576	-31696.94
0.5511,0.4489	-31699.40
0.5128,0.4872	-31700.69
0.5015,0.4985	-31702.47
0.5451,0.4549	-31703.13
0.5212,0.4788	-31701.14
0.5800,0.4200	-31696.12
0.5872,0.4128	-31694.03
0.5131,0.4869	-31702.49
0.5365,0.4635	-31698.67
0.5728,0.4272	-31697.65
0.4976,0.5024	-31702.70
0.5652,0.4348	-31694.77
0.5782,0.4218	-31699.52
0.5157,0.4843	-31701.95
0.5187,0.4813	-31700.01
0.5650,0.4350	-31692.42
0.5303,0.4697	-31701.91
0.5720,0.4280	-31700.52
0.5814,0.4186	-31696.51
0.4966,0.5034	-31702.65
0.5177,0.4823	-31701.53
0.5616,0.4384	-31697.33
0.5370,0.4630	-31700.87
0.5936,0.4064	-31697.70
0.5717,0.4283	-31699.05
0.4966,0.5034	-31702.57
0.5476,0.4524	-31703.36
0.5845,0.4155	-31698.04
0.6033,0.3967	-31696.59
0.5678,0.4322	-31695.82
0.5717,0.4283	-31693.56
0.4919,0.5081	-31702.71
0.5405,0.4595	-31698.04
0.5505,0.4495	-31699.39
0.5918,0.4082	-31691.60
0.5333,0.4667	-31702.16
0.5610,0.4390	-31697.81
0.5231,0.4769	-31702.21
0.5415,0.4585	-31700.49
0.5648,0.4352	-31696.60
0.5195,0.4805	-31702.12
0.5037,0.4963	-31702.07
0.6084,0.3916	-31699.31
0.4901,0.5099	-31703.37
0.4985,0.5015	-31702.52
0.5768,0.4232	-31692.90
0.5349,0.4651	-31699.30
0.4904,0.5096	-31702.45
0.6113,0.3887	-31699.69
0.4668,0.5332	-31707.35
0.5236,0.4764	-31699.96
0.5381,0.4619	-31699.98
0.5477,0.4523	-31696.28
0.5204,0.4796	-31701.16
0.5663,0.4337	-31700.62
0.5142,0.4858	-31700.42
0.5157,0.4843	-31701.19
0.5820,0.4180	-31696.54
0.5394,0.4606	-31696.67
0.5397,0.4603	-31701.10
0.5443,0.4557	-31699.68
0.5742,0.4258	-31694.13
0.5021,0.4979	-31702.38
0.5779,0.4221	-31687.87
0.6018,0.3982	-31691.08
0.5380,0.4620	-31700.89
0.5335,0.4665	-31699.75
0.5573,0.4427	-31697.99
0.5119,0.4881	-31700.60
0.5537,0.4463	-31698.61
0.5732,0.4268	-31696.49
0.5556,0.4444	-31701.32
0.5396,0.4604	-31699.19
0.5475,0.4525	-31699.15
0.5303,0.4697	-31699.97
0.5676,0.4324	-31702.35
0.5720,0.4280	-31696.75
0.5068,0.4932	-31702.05
0.5559,0.4441	-31699.55
0.5163,0.4837	-31701.56
0.5179,0.4821	-31701.52
0.5693,0.4307	-31695.56
0.5730,0.4270	-31696.49
0.5250,0.4750	-31700.97
0.5401,0.4599	-31699.02
0.5260,0.4740	-31700.33
0.5276,0.4724	-31700.61
0.5975,0.4025	-31691.35
0.5166,0.4834	-31701.22
0.5326,0.4674	-31699.38
0.5410,0.4590	-31699.17
0.5691,0.4309	-31697.78
0.5795,0.4205	-31694.82
0.5751,0.4249	-31694.74
0.5848,0.4152	-31692.58
0.5479,0.4521	-31697.42
0.5464,0.4536	-31699.89
0.5755,0.4245	-31698.40
0.5747,0.4253	-31700.15
0.5823,0.4177	-31700.21
0.5565,0.4435	-31700.48
0.5267,0.4733	-31702.13
0.5423,0.4577	-31702.04
0.5614,0.4386	-31697.82
0.5204,0.4796	-31701.16
0.5421,0.4579	-31700.84
0.5058,0.4942	-31702.23
0.5565,0.4435	-31697.75
0.5117,0.4883	-31701.33
0.5450,0.4550	-31695.89
0.5190,0.4810	-31700.90
0.5583,0.4417	-31697.53
0.5099,0.4901	-31700.90
0.5419,0.4581	-31700.84
0.5440,0.4560	-31701.08
0.5492,0.4508	-31699.36
0.5120,0.4880	-31701.88
0.5280,0.4720	-31700.27
0.4951,0.5049	-31702.46
0.5297,0.4703	-31698.92
0.5494,0.4506	-31697.58
0.5515,0.4485	-31696.52
0.5334,0.4666	-31701.36
0.5403,0.4597	-31696.43
0.4940,0.5060	-31703.28
0.5069,0.4931	-31702.32
0.5584,0.4416	-31703.17
0.5244,0.4756	-31700.30
0.5442,0.4558	-31700.03
0.5330,0.4670	-31699.24
0.5407,0.4593	-31700.80
0.5121,0.4879	-31701.88
0.5737,0.4263	-31698.59
0.5477,0.4523	-31702.02
0.5363,0.4637	-31697.23
0.5283,0.4717	-31699.81
0.5830,0.4170	-31705.64
0.5179,0.4821	-31701.81
0.5741,0.4259	-31694.73
0.5532,0.4468	-31694.76
0.5058,0.4942	-31702.34
0.5322,0.4678	-31701.34
0.5806,0.4194	-31696.79
0.5564,0.4436	-31699.79
0.5793,0.4207	-31700.25
0.5691,0.4309	-31697.78
0.5257,0.4743	-31701.07
0.5314,0.4686	-31699.68
0.5631,0.4369	-31696.33
0.5503,0.4497	-31698.78
0.5434,0.4566	-31699.15
0.5683,0.4317	-31698.03
0.5597,0.4403	-31701.14
0.5103,0.4897	-31701.89
0.5594,0.4406	-31695.39
0.5887,0.4113	-31700.53
0.5746,0.4254	-31698.64
0.5616,0.4384	-31700.54
0.5173,0.4827	-31700.29
0.5193,0.4807	-31701.50
0.5350,0.4650	-31699.72
0.5230,0.4770	-31702.02
0.5256,0.4744	-31700.76
0.5350,0.4650	-31700.14
0.5408,0.4592	-31702.11
0.5328,0.4672	-31701.08
0.5500,0.4500	-31700.18
0.5228,0.4772	-31702.29
0.5509,0.4491	-31700.62
0.5735,0.4265	-31697.39
0.5310,0.4690	-31702.18
0.4925,0.5075	-31703.46
0.5470,0.4530	-31698.39
0.5404,0.4596	-31702.41
0.5490,0.4510	-31697.59
0.5319,0.4681	-31701.20
0.5313,0.4687	-31698.94
0.5275,0.4725	-31700.07
0.5227,0.4773	-31701.29
0.5660,0.4340	-31697.14
0.5309,0.4691	-31699.33
0.5309,0.4691	-31701.68
0.5230,0.4770	-31701.84
0.5351,0.4649	-31699.86
0.5398,0.4602	-31699.03
0.5666,0.4334	-31697.70
0.5127,0.4873	-31702.22
0.5276,0.4724	-31700.17
0.5245,0.4755	-31698.53
0.5116,0.4884	-31701.05
0.5583,0.4417	-31701.28
0.4894,0.5106	-31702.56
0.5577,0.4423	-31697.30
0.4979,0.5021	-31702.35
0.5087,0.4913	-31701.80
0.5457,0.4543	-31696.58
0.5603,0.4397	-31703.13
0.5054,0.4946	-31702.21
0.5207,0.4793	-31700.24
0.5248,0.4752	-31700.48
0.5423,0.4577	-31697.80
0.5571,0.4429	-31693.17
0.5629,0.4371	-31697.34
0.4955,0.5045	-31702.58
0.5106,0.4894	-31702.17
0.5308,0.4692	-31701.93
0.5126,0.4874	-31701.77
0.5337,0.4663	-31702.04
0.5500,0.4500	-31699.78
0.5512,0.4488	-31698.38
0.5590,0.4410	-31700.38
0.5253,0.4747	-31701.37
0.5624,0.4376	-31703.86
0.5378,0.4622	-31698.62
0.5810,0.4190	-31695.51
0.5753,0.4247	-31695.65
0.5633,0.4367	-31698.11
0.5306,0.4694	-31701.80
0.5909,0.4091	-31695.27
0.5255,0.4745	-31699.54
0.5397,0.4603	-31699.35
0.5827,0.4173	-31696.91
0.5570,0.4430	-31700.27
0.5448,0.4552	-31701.30
0.6103,0.3897	-31682.51
0.5494,0.4506	-31700.36
0.5082,0.4918	-31702.19
0.5536,0.4464	-31697.31
0.5435,0.4565	-31700.72
0.5391,0.4609	-31699.82
0.6152,0.3848	-31696.01
0.5158,0.4842	-31700.81
0.5176,0.4824	-31701.11
0.5625,0.4375	-31703.88
0.5607,0.4393	-31698.05
0.5611,0.4389	-31697.32
0.5459,0.4541	-31698.77
0.5434,0.4566	-31696.89
0.5668,0.4332	-31697.97
0.5371,0.4629	-31700.58
0.5406,0.4594	-31703.24
0.5363,0.4637	-31698.24
0.5302,0.4698	-31700.82
0.4804,0.5196	-31704.11
0.5527,0.4473	-31699.23
0.5226,0.4774	-31700.84
0.5316,0.4684	-31698.92
0.5687,0.4313	-31699.43
0.5526,0.4474	-31699.23
0.5410,0.4590	-31699.00
0.5706,0.4294	-31697.27
0.4824,0.5176	-31702.75
0.5534,0.4466	-31694.10
0.5429,0.4571	-31699.32
0.5656,0.4344	-31700.83
0.5277,0.4723	-31701.39
0.5906,0.4094	-31689.02
0.4707,0.5293	-31703.97
0.5810,0.4190	-31694.53
0.5442,0.4558	-31699.14
0.5619,0.4381	-31698.33
0.5396,0.4604	-31697.92
0.5738,0.4262	-31698.59
0.4704,0.5296	-31705.55
0.5789,0.4211	-31696.39
0.5613,0.4387	-31697.32
0.5522,0.4478	-31696.29
0.5901,0.4099	-31693.77
0.5636,0.4364	-31697.87
0.4870,0.5130	-31703.33
0.5755,0.4245	-31691.09
0.5727,0.4273	-31692.38
0.5190,0.4810	-31699.45
0.5818,0.4182	-31693.89
0.5174,0.4826	-31701.11
0.5419,0.4581	-31698.15
0.5424,0.4576	-31697.45
0.5414,0.4586	-31699.00
0.5627,0.4373	-31694.57
0.5129,0.4871	-31701.55
0.5169,0.4831	-31699.85
0.5737,0.4263	-31698.59
0.5531,0.4469	-31699.03
0.5615,0.4385	-31697.82
0.5706,0.4294	-31695.00
0.5590,0.4410	-31695.17
0.4909,0.5091	-31703.24
0.6012,0.3988	-31693.11
0.5593,0.4407	-31698.97
0.5373,0.4627	-31698.64
0.5401,0.4599	-31699.02
0.5754,0.4246	-31693.22
0.5262,0.4738	-31699.07
0.6003,0.3997	-31695.10
0.5621,0.4379	-31701.83
0.5495,0.4505	-31702.75
0.5371,0.4629	-31698.35
0.5540,0.4460	-31699.04
0.5191,0.4809	-31701.20
0.6323,0.3677	-31685.81
0.5627,0.4373	-31696.08
0.5213,0.4787	-31700.88
0.5338,0.4662	-31698.80
0.5671,0.4329	-31695.55
0.4935,0.5065	-31703.02
0.5720,0.4280	-31700.81
0.5562,0.4438	-31699.33
0.5628,0.4372	-31697.34
0.5157,0.4843	-31700.95
0.5248,0.4752	-31699.98
0.5271,0.4729	-31700.19
0.5483,0.4517	-31694.70
0.5467,0.4533	-31699.71
0.5562,0.4438	-31696.85
0.5671,0.4329	-31700.95
0.5495,0.4505	-31701.16
0.5395,0.4605	-31697.92
0.5605,0.4395	-31696.10
0.5247,0.4753	-31700.19
0.5430,0.4570	-31697.08
0.5517,0.4483	-31695.27
0.5561,0.4439	-31695.27
0.5333,0.4667	-31701.09
0.5431,0.4569	-31699.67
0.5437,0.4563	-31700.37
0.5164,0.4836	-31700.44
0.5466,0.4534	-31698.40
0.5288,0.4712	-31700.36
0.5482,0.4518	-31695.87
0.5637,0.4363	-31698.38
0.5330,0.4670	-31699.63
0.5218,0.4782	-31700.78
0.5333,0.4667	-31698.15
0.5309,0.4691	-31702.43
0.5295,0.4705	-31701.29
0.5694,0.4306	-31696.96
0.5975,0.4025	-31697.67
0.5401,0.4599	-31699.50
0.5318,0.4682	-31699.29
0.5548,0.4452	-31699.73
0.5669,0.4331	-31697.71
0.5653,0.4347	-31697.65
0.5345,0.4655	-31701.53
0.5392,0.4608	-31697.47
0.5349,0.4651	-31701.40
0.5699,0.4301	-31697.25
0.5855,0.4145	-31695.70
0.5995,0.4005	-31695.44
0.5354,0.4646	-31700.28
0.5623,0.4377	-31698.59
0.5166,0.4834	-31701.22
0.5823,0.4177	-31701.87
0.6076,0.3924	-31694.39
0.5943,0.4057	-31697.00
0.5532,0.4468	-31700.10
0.5480,0.4520	-31696.07
0.5326,0.4674	-31699.12
0.5956,0.4044	-31692.08
0.6320,0.3680	-31696.61
0.5558,0.4442	-31697.52
0.6021,0.3979	-31698.13
0.5474,0.4526	-31695.73
0.5220,0.4780	-31701.47
0.5409,0.4591	-31700.15
0.6251,0.3749	-31702.34
0.5483,0.4517	-31701.48
0.5657,0.4343	-31693.70
0.5376,0.4624	-31701.64
0.5074,0.4926	-31701.61
0.5465,0.4535	-31698.40
0.5695,0.4305	-31698.92
0.5444,0.4556	-31697.72
0.5738,0.4262	-31695.62
0.5309,0.4691	-31700.45
0.5157,0.4843	-31702.83
0.5297,0.4703	-31699.15
0.5417,0.4583	-31699.83
0.5447,0.4553	-31696.45
0.5781,0.4219	-31695.42
0.5213,0.4787	-31701.14
0.5481,0.4519	-31701.47
0.5426,0.4574	-31699.66
0.5256,0.4744	-31699.84
0.5109,0.4891	-31701.65
0.5675,0.4325	-31703.70
0.5624,0.4376	-31697.59
0.5425,0.4575	-31698.98
0.5569,0.4431	-31700.96
0.5247,0.4753	-31700.29
0.5491,0.4509	-31699.96
0.5750,0.4250	-31699.28
0.5913,0.4087	-31694.55
0.5491,0.4509	-31702.91
0.5450,0.4550	-31698.24
0.5451,0.4549	-31699.32
0.5270,0.4730	-31700.63
0.5721,0.4279	-31688.62
0.5549,0.4451	-31696.42
0.5024,0.4976	-31702.26
0.5401,0.4599	-31698.21
0.5277,0.4723	-31699.28
0.5111,0.4889	-31701.33
0.5828,0.4172	-31695.91
0.5933,0.4067	-31693.52
0.5408,0.4592	-31700.64
0.5354,0.4646	-31702.27
0.5190,0.4810	-31701.35
0.5175,0.4825	-31702.09
0.5888,0.4112	-31694.08
0.6166,0.3834	-31690.47
0.5643,0.4357	-31695.56
0.5404,0.4596	-31697.72
0.5436,0.4564	-31699.84
0.5670,0.4330	-31695.82
0.5634,0.4366	-31699.65
0.5463,0.4537	-31698.96
0.5764,0.4236	-31698.14
0.5884,0.4116	-31692.28
0.5176,0.4824	-31701.81
0.5851,0.4149	-31690.87
0.5120,0.4880	-31700.83
0.5557,0.4443	-31697.97
0.5682,0.4318	-31698.57
0.5843,0.4157	-31695.30
0.5610,0.4390	-31700.02
0.5653,0.4347	-31699.23
0.5538,0.4462	-31697.53
0.5241,0.4759	-31699.64
0.5716,0.4284	-31693.85
0.6038,0.3962	-31689.89
0.5593,0.4407	-31699.68
0.5614,0.4386	-31697.57
0.5787,0.4213	-31699.87
0.5133,0.4867	-31702.02
0.5636,0.4364	-31694.54
0.6140,0.3860	-31697.28
0.5652,0.4348	-31696.60
0.5251,0.4749	-31700.77
0.5784,0.4216	-31696.37
0.5184,0.4816	-31700.92
0.5746,0.4254	-31694.73
0.5707,0.4293	-31691.02
0.5618,0.4382	-31695.84
0.5701,0.4299	-31698.67
0.5399,0.4601	-31697.74
0.5492,0.4508	-31699.56
0.5722,0.4278	-31699.66
0.5300,0.4700	-31699.01
0.5733,0.4267	-31698.56
0.5145,0.4855	-31702.59
0.5180,0.4820	-31699.86
0.5701,0.4299	-31698.11
0.5859,0.4141	-31701.27
0.5314,0.4686	-31699.69
0.5340,0.4660	-31701.24
0.5164,0.4836	-31702.67
0.5079,0.4921	-31702.35
0.5275,0.4725	-31701.06
0.5691,0.4309	-31700.01
0.5707,0.4293	-31696.14
0.5254,0.4746	-31700.36
0.5571,0.4429	-31697.75
0.5370,0.4630	-31700.73
0.5134,0.4866	-31701.91
0.5284,0.4716	-31700.03
0.5140,0.4860	-31702.57
0.5388,0.4612	-31698.89
0.5441,0.4559	-31697.73
0.5121,0.4879	-31701.35
0.4914,0.5086	-31702.77
0.4910,0.5090	-31702.62
0.5174,0.4826	-31701.74
0.5225,0.4775	-31700.30
0.5503,0.4497	-31700.19
0.5160,0.4840	-31701.11
0.5002,0.4998	-31702.37
0.5684,0.4316	-31698.03
0.5191,0.4809	-31700.51
0.5151,0.4849	-31702.01
0.5522,0.4478	-31701.94
0.5689,0.4311	-31695.83
0.5502,0.4498	-31699.38
0.5815,0.4185	-31691.58
0.5545,0.4455	-31699.28
0.5210,0.4790	-31702.15
0.5318,0.4682	-31700.18
0.5920,0.4080	-31691.61
0.5261,0.4739	-31700.23
0.5718,0.4282	-31696.45
0.5384,0.4616	-31701.67
0.5094,0.4906	-31701.65
0.5520,0.4480	-31698.59
0.5511,0.4489	-31701.45
0.5617,0.4383	-31698.32
0.5321,0.4679	-31698.63
0.5208,0.4792	-31701.48
0.4985,0.5015	-31702.50
0.5866,0.4134	-31694.00
0.5230,0.4770	-31699.35
0.5436,0.4564	-31697.40
0.5492,0.4508	-31701.54
0.5518,0.4482	-31697.75
0.5301,0.4699	-31700.70
0.5706,0.4294	-31696.71
0.5265,0.4735	-31699.47
0.5515,0.4485	-31693.42
0.5713,0.4287	-31692.13
0.5511,0.4489	-31698.79
0.5132,0.4868	-31701.01
0.5347,0.4653	-31700.56
0.5642,0.4358	-31693.24
0.5511,0.4489	-31697.97
0.5694,0.4306	-31696.68
0.5403,0.4597	-31699.02
0.5327,0.4673	-31699.64
0.5311,0.4689	-31700.07
0.5821,0.4179	-31701.51
0.5560,0.4440	-31694.82
0.5031,0.4969	-31702.18
0.5752,0.4248	-31700.80
0.5153,0.4847	-31701.21
0.4780,0.5220	-31705.30
0.5821,0.4179	-31688.92
0.5759,0.4241	-31700.56
0.5237,0.4763	-31702.42
0.5315,0.4685	-31701.07
0.5406,0.4594	-31698.68
0.5139,0.4861	-31701.12
0.5672,0.4328	-31697.44
0.6199,0.3801	-31696.07
0.5068,0.4932	-31702.10
0.5212,0.4788	-31699.02
0.5343,0.4657	-31700.97
0.5977,0.4023	-31695.71
0.5484,0.4516	-31698.19
0.6020,0.3980	-31689.43
0.4988,0.5012	-31702.54
0.5389,0.4611	-31698.42
0.5672,0.4328	-31692.04
0.5462,0.4538	-31699.33
0.5769,0.4231	-31697.86
0.5868,0.4132	-31688.75
0.5375,0.4625	-31701.19
0.5541,0.4459	-31700.13
0.5606,0.4394	-31697.56
0.5560,0.4440	-31700.45
0.5972,0.4028	-31689.77
0.5061,0.4939	-31702.25
0.5107,0.4893	-31701.70
0.5569,0.4431	-31695.70
0.6059,0.3941	-31697.70
0.5886,0.4114	-31695.51
0.6130,0.3870	-31698.54
0.5172,0.4828	-31701.95
0.5320,0.4680	-31700.69
0.5601,0.4399	-31695.86
0.5380,0.4620	-31700.74
0.5791,0.4209	-31702.15
0.5983,0.4017	-31691.77
0.5526,0.4474	-31697.33
0.5899,0.4101	-31697.76
0.5417,0.4583	-31701.17
0.5728,0.4272	-31696.19
0.5836,0.4164	-31697.98
0.5364,0.4636	-31701.45
0.5544,0.4456	-31694.68
0.5380,0.4620	-31697.09
0.5777,0.4223	-31695.72
0.5981,0.4019	-31688.98
0.5390,0.4610	-31698.89
0.5374,0.4626	-31698.93
0.5704,0.4296	-31698.97
0.5251,0.4749	-31702.48
0.6065,0.3935	-31697.34
0.5656,0.4344	-31696.08
0.5619,0.4381	-31696.83
0.5556,0.4444	-31699.98
0.5632,0.4368	-31699.13
0.5213,0.4787	-31701.48
0.5284,0.4716	-31699.69
0.5803,0.4197	-31698.72
0.5726,0.4274	-31697.35
0.5261,0.4739	-31700.33
0.5390,0.4610	-31700.45
0.5220,0.4780	-31700.24
0.5422,0.4578	-31698.65
0.5832,0.4168	-31692.57
0.5212,0.4788	-31700.21
0.5274,0.4726	-31701.50
0.5767,0.4233	-31696.00
0.5395,0.4605	-31698.87
0.5214,0.4786	-31701.48
0.6083,0.3917	-31691.81
0.5702,0.4298	-31698.39
0.5213,0.4787	-31700.71
0.5674,0.4326	-31701.79
0.5483,0.4517	-31701.87
0.5063,0.4937	-31701.74
0.5896,0.4104	-31694.11
0.5338,0.4662	-31698.66
0.5495,0.4505	-31699.37
0.5512,0.4488	-31698.58
0.5429,0.4571	-31702.07
0.5274,0.4726	-31700.95
0.6080,0.3920	-31690.47
0.5349,0.4651	-31700.14
0.5326,0.4674	-31701.34
0.5349,0.4651	-31697.20
0.5606,0.4394	-31696.83
0.5501,0.4499	-31699.38
0.5428,0.4572	-31696.40
0.5642,0.4358	-31698.14
0.5421,0.4579	-31696.62
0.5647,0.4353	-31695.30
0.5197,0.4803	-31702.52
0.5079,0.4921	-31701.84
0.5612,0.4388	-31700.28
0.5225,0.4775	-31703.10
0.5308,0.4692	-31700.82
0.5139,0.4861	-31701.40
0.5319,0.4681	-31700.56
0.5543,0.4457	-31700.58
0.5692,0.4308	-31701.69
0.5379,0.4621	-31700.59
0.5464,0.4536	-31699.14
0.5144,0.4856	-31701.84
0.5420,0.4580	-31699.66
0.5855,0.4145	-31692.25
0.5284,0.4716	-31702.98
0.5164,0.4836	-31700.97
0.5319,0.4681	-31699.29
0.5075,0.4925	-31701.93
0.5064,0.4936	-31701.91
0.5705,0.4295	-31696.99
0.5362,0.4638	-31698.10
0.5046,0.4954	-31701.91
0.5029,0.4971	-31702.01
0.5353,0.4647	-31699.43
0.5573,0.4427	-31699.60
0.5536,0.4464	-31699.47
0.5474,0.4526	-31697.25
0.4981,0.5019	-31702.51
0.5309,0.4691	-31700.07
0.5701,0.4299	-31696.98
0.5653,0.4347	-31701.60
0.5271,0.4729	-31699.22
0.5752,0.4248	-31699.90
0.4961,0.5039	-31702.52
0.5068,0.4932	-31702.18
0.5906,0.4094	-31700.02
0.6019,0.3981	-31692.74
0.5036,0.4964	-31702.26
0.5997,0.4003	-31705.56
0.5010,0.4990	-31702.41
0.5280,0.4720	-31701.17
0.5589,0.4411	-31701.80
0.6241,0.3759	-31692.02
0.5313,0.4687	-31700.31
0.5921,0.4079	-31691.98
0.5428,0.4572	-31701.55
0.5206,0.4794	-31701.32
0.5596,0.4404	-31696.83
0.6329,0.3671	-31692.93
0.5236,0.4764	-31701.38
0.5886,0.4114	-31693.36
0.5641,0.4359	-31691.44
0.5497,0.4503	-31699.37
0.5197,0.4803	-31701.89
0.6089,0.3911	-31694.05
0.5509,0.4491	-31696.95
0.5825,0.4175	-31698.89
0.5980,0.4020	-31696.12
0.5316,0.4684	-31699.80
0.5189,0.4811	-31700.90
0.5871,0.4129	-31701.41
0.5645,0.4355	-31701.78
0.5436,0.4564	-31698.27
0.5964,0.4036	-31694.83
0.5722,0.4278	-31695.59
0.5449,0.4551	-31698.06
0.5523,0.4477	-31699.22
0.5476,0.4524	-31694.19
0.5314,0.4686	-31703.08
0.5833,0.4167	-31695.26
0.5468,0.4532	-31702.71
0.5412,0.4588	-31702.64
0.5706,0.4294	-31693.58
0.5696,0.4304	-31695.56
0.5307,0.4693	-31699.83
0.5194,0.4806	-31700.57
0.5317,0.4683	-31701.83
0.5102,0.4898	-31701.48
0.4868,0.5132	-31703.24
0.5297,0.4703	-31698.79
0.5276,0.4724	-31701.17
0.5177,0.4823	-31700.82
0.5220,0.4780	-31699.98
0.5257,0.4743	-31701.58
0.5125,0.4875	-31701.67
0.5699,0.4301	-31699.50
0.5099,0.4901	-31701.07
0.5075,0.4925	-31701.69
0.5146,0.4854	-31701.72
0.5600,0.4400	-31697.79
0.5217,0.4783	-31702.60
0.5743,0.4257	-31697.73
0.5318,0.4682	-31698.90
0.5360,0.4640	-31700.57
0.5246,0.4754	-31700.98
0.5535,0.4465	-31701.83
0.5577,0.4423	-31693.35
0.5378,0.4622	-31700.59
0.5284,0.4716	-31700.14
0.5625,0.4375	-31697.59
0.5358,0.4642	-31699.28
0.5314,0.4686	-31701.44
0.5373,0.4627	-31698.64
0.5587,0.4413	-31697.53
0.5306,0.4694	-31696.90
0.5739,0.4261	-31698.30
0.5586,0.4414	-31695.65
0.5626,0.4374	-31701.62
0.5387,0.4613	-31699.20
0.5304,0.4696	-31698.99
0.5834,0.4166	-31692.24
0.5594,0.4406	-31697.78
0.5216,0.4784	-31700.09
0.5563,0.4437	-31700.01
0.5425,0.4575	-31698.98
0.5021,0.4979	-31702.16
0.6298,0.3702	-31689.39
0.5270,0.4730	-31699.76
0.5281,0.4719	-31701.51
0.5595,0.4405	-31698.26
0.5100,0.4900	-31702.25
0.5093,0.4907	-31701.03
0.5669,0.4331	-31704.70
0.5180,0.4820	-31701.16
0.5233,0.4767	-31700.07
0.5753,0.4247	-31705.06
0.5512,0.4488	-31697.76
0.5379,0.4621	-31699.22
0.5424,0.4576	-31700.51
0.4966,0.5034	-31702.89
0.5441,0.4559	-31697.73
0.5915,0.4085	-31690.86
0.5576,0.4424	-31701.46
0.5419,0.4581	-31700.33
0.5162,0.4838	-31700.39
0.5226,0.4774	-31702.01
0.5245,0.4755	-31701.86
0.5872,0.4128	-31692.26
0.5552,0.4448	-31696.86
0.5590,0.4410	-31697.30
0.4766,0.5234	-31704.72
0.5465,0.4535	-31697.47
0.5289,0.4711	-31698.16
0.5521,0.4479	-31697.54
0.5634,0.4366	-31695.82
0.5711,0.4289	-31692.43
0.5206,0.4794	-31700.42
0.5262,0.4738	-31700.64
0.5359,0.4641	-31697.98
0.5351,0.4649	-31701.97
0.5819,0.4181	-31700.17
0.5685,0.4315	-31699.42
0.5188,0.4812	-31701.58
0.5300,0.4700	-31702.02
0.5378,0.4622	-31698.62
0.5735,0.4265	-31692.95
0.5399,0.4601	-31696.79
0.5324,0.4676	-31698.36
0.5295,0.4705	-31700.11
0.5473,0.4527	-31702.94
0.5671,0.4329	-31698.52
0.5845,0.4155	-31692.24
0.5752,0.4248	-31697.16
0.5425,0.4575	-31698.81
0.5495,0.4505	-31698.97
0.5275,0.4725	-31701.94
0.5811,0.4189	-31702.39
0.5720,0.4280	-31692.69
0.5878,0.4122	-31694.76
0.5015,0.4985	-31702.39
0.5362,0.4638	-31698.97
0.5364,0.4636	-31702.47
0.5344,0.4656	-31698.77
0.5021,0.4979	-31702.26
0.5625,0.4375	-31698.09
0.5173,0.4827	-31702.16
0.5317,0.4683	-31699.68
0.5373,0.4627	-31699.98
0.5408,0.4592	-31699.17
0.4949,0.5051	-31702.75
0.5460,0.4540	-31700.43
0.5616,0.4384	-31699.06
0.5253,0.4747	-31701.07
0.5582,0.4418	-31694.02
0.4930,0.5070	-31702.57
0.4620,0.5380	-31706.61
0.5193,0.4807	-31702.12
0.5683,0.4317	-31689.50
0.5464,0.4536	-31704.36
0.6006,0.3994	-31692.26
0.5109,0.4891	-31700.99
0.5032,0.4968	-31702.33
0.5673,0.4327	-31696.09
0.5289,0.4711	-31700.94
0.5573,0.4427	-31697.53
0.5503,0.4497	-31700.59
0.5162,0.4838	-31701.11
0.5436,0.4564	-31701.59
0.5560,0.4440	-31697.07
0.5161,0.4839	-31702.53
0.5834,0.4166	-31698.63
0.5339,0.4661	-31698.25
0.5071,0.4929	-31701.67
0.5790,0.4210	-31697.99
0.5701,0.4299	-31698.39
0.5607,0.4393	-31699.75
0.6002,0.3998	-31687.37
0.5184,0.4816	-31701.51
0.5161,0.4839	-31701.11
0.5717,0.4283	-31695.87
0.5743,0.4257	-31698.32
0.5878,0.4122	-31696.53
0.5370,0.4630	-31698.06
0.5793,0.4207	-31695.13
0.5512,0.4488	-31699.40
0.5468,0.4532	-31701.96
0.5747,0.4253	-31698.05
0.5726,0.4274	-31696.18
0.5414,0.4586	-31699.83
0.5249,0.4751	-31701.27
0.5463,0.4537	-31700.44
0.5983,0.4017	-31693.36
0.5725,0.4275	-31700.27
0.5555,0.4445	-31697.75
0.5206,0.4794	-31702.64
0.4929,0.5071	-31702.43
0.5144,0.4856	-31701.26
0.5995,0.4005	-31693.43
0.5836,0.4164	-31692.24
0.5694,0.4306	-31696.68
0.5507,0.4493	-31700.41
0.5308,0.4692	-31700.45
0.5417,0.4583	-31702.00
0.6025,0.3975	-31697.75
0.5721,0.4279	-31694.43
0.5199,0.4801	-31701.01
0.5439,0.4561	-31697.91
0.5327,0.4673	-31700.95
0.5254,0.4746	-31702.09
0.5524,0.4476	-31695.65
0.5740,0.4260	-31693.83
0.5109,0.4891	-31701.56
0.5272,0.4728	-31700.62
0.5586,0.4414	-31698.01
0.5621,0.4379	-31698.08
0.5535,0.4465	-31700.11
0.5313,0.4687	-31705.58
0.5238,0.4762	-31701.85
0.5263,0.4737	-31700.85
0.5293,0.4707	-31702.34
0.5181,0.4819	-31701.66
0.5274,0.4726	-31700.29
0.5092,0.4908	-31701.41
0.5344,0.4656	-31701.53
0.5730,0.4270	-31699.14
0.5246,0.4754	-31701.47
0.5406,0.4594	-31701.45
0.5727,0.4273	-31694.72
0.5124,0.4876	-31701.63
0.5505,0.4495	-31696.75
0.5290,0.4710	-31698.39
0.5149,0.4851	-31700.94
0.5630,0.4370	-31694.81
0.5508,0.4492	-31696.54
0.5290,0.4710	-31700.82
0.5332,0.4668	-31699.76
0.5172,0.4828	-31701.61
0.5239,0.4761	-31700.13
0.5535,0.4465	-31697.32
0.5729,0.4271	-31695.60
0.5359,0.4641	-31700.71
0.5186,0.4814	-31699.50
0.5427,0.4573	-31702.23
0.4978,0.5022	-31702.68
0.5794,0.4206	-31698.65
0.5954,0.4046	-31694.77
0.5378,0.4622	-31699.53
0.5308,0.4692	-31700.32
0.5082,0.4918	-31701.53
0.4992,0.5008	-31702.44
0.5575,0.4425	-31697.53
0.5775,0.4225	-31693.84
0.5612,0.4388	-31696.34
0.5796,0.4204	-31695.78
0.5810,0.4190	-31697.80
0.5050,0.4950	-31701.84
0.5164,0.4836	-31701.62
0.5533,0.4467	-31696.89
0.5054,0.4946	-31701.76
0.5707,0.4293	-31696.14
0.5537,0.4463	-31697.75
0.5035,0.4965	-31702.14
0.5553,0.4447	-31704.63
0.5693,0.4307	-31695.28
0.5325,0.4675	-31699.52
0.5717,0.4283	-31701.36
0.5704,0.4296	-31697.27
0.5180,0.4820	-31702.96
0.5641,0.4359	-31699.43
0.5935,0.4065	-31695.42
0.5487,0.4513	-31701.12
0.5598,0.4402	-31696.34
0.5730,0.4270	-31695.02
0.5146,0.4854	-31702.42
0.5515,0.4485	-31699.20
0.5289,0.4711	-31700.25
0.5537,0.4463	-31696.24
0.5625,0.4375	-31697.59
0.5631,0.4369	-31698.11
0.5258,0.4742	-31699.52
0.5832,0.4168	-31695.26
0.5096,0.4904	-31702.37
0.5230,0.4770	-31702.12
0.5592,0.4408	-31695.16
0.5432,0.4568	-31701.23
0.5104,0.4896	-31701.97
0.5818,0.4182	-31698.18
0.5622,0.4378	-31695.33
0.5596,0.4404	-31700.42
0.5451,0.4549	-31699.50
0.5513,0.4487	-31698.17
0.5590,0.4410	-31696.83
0.5550,0.4450	-31698.85
0.5393,0.4607	-31699.04
0.5324,0.4676	-31700.95
0.5584,0.4416	-31697.77
0.5237,0.4763	-31701.57
0.5299,0.4701	-31701.89
0.5429,0.4571	-31698.46
0.5238,0.4762	-31701.28
0.5106,0.4894	-31701.70
0.5593,0.4407	-31700.16
0.5252,0.4748	-31700.06
0.5464,0.4536	-31698.40
0.5402,0.4598	-31698.70
0.5166,0.4834	-31700.62
0.5501,0.4499	-31701.19
0.5602,0.4398	-31700.70
0.5395,0.4605	-31700.77
0.5518,0.4482	-31695.68
0.5390,0.4610	-31701.54
0.5074,0.4926	-31701.70
0.5400,0.4600	-31699.66
0.5675,0.4325	-31700.72
0.5256,0.4744	-31701.99
0.5249,0.4751	-31700.78
0.5689,0.4311	-31698.61
0.5534,0.4466	-31701.39
0.5153,0.4847	-31701.83
0.5542,0.4458	-31699.92
0.5078,0.4922	-31702.10
0.5610,0.4390	-31694.87
0.5404,0.4596	-31697.24
0.5330,0.4670	-31702.15
0.5240,0.4760	-31701.09
0.5622,0.4378	-31698.33
0.5301,0.4699	-31700.70
0.5455,0.4545	-31698.41
0.5232,0.4768	-31699.25
0.5394,0.4606	-31701.72
0.5229,0.4771	-31701.66
0.5574,0.4426	-31702.14
0.5185,0.4815	-31699.81
0.5415,0.4585	-31697.50
0.5161,0.4839	-31701.88
0.5411,0.4589	-31700.32
0.5711,0.4289	-31699.30
0.5290,0.4710	-31701.06
0.5000,0.5000	-31702.40
0.5079,0.4921	-31701.94
0.5344,0.4656	-31700.42
0.5417,0.4583	-31697.65
0.5758,0.4242	-31696.58
0.5263,0.4737	-31700.43
0.5352,0.4648	-31698.31
0.5041,0.4959	-31702.18
0.5251,0.4749	-31700.27
0.5427,0.4573	-31699.84
0.5547,0.4453	-31696.65
0.5533,0.4467	-31697.10
0.5256,0.4744	-31699.74
0.5283,0.4717	-31701.85
0.5244,0.4756	-31701.37
0.5370,0.4630	-31697.61
0.5714,0.4286	-31697.59
0.5747,0.4253	-31697.74
0.5202,0.4798	-31701.16
0.5339,0.4661	-31701.37
0.5234,0.4766	-31701.75
0.5616,0.4384	-31693.11
0.5721,0.4279	-31692.69
0.5583,0.4417	-31697.77
0.5272,0.4728	-31699.42
0.5791,0.4209	-31694.17
0.5430,0.4570	-31697.43
0.5604,0.4396	-31698.28
0.5560,0.4440	-31695.72
0.5539,0.4461	-31700.12
0.4720,0.5280	-31704.73
0.6364,0.3636	-31692.22
0.5338,0.4662	-31701.91
0.5554,0.4446	-31699.52
0.5131,0.4869	-31700.92
0.5587,0.4413	-31698.95
0.5000,0.5000	-31702.40
0.6459,0.3541	-31691.02
0.5306,0.4694	-31700.33
0.5917,0.4083	-31690.86
0.5036,0.4964	-31702.42
0.5922,0.4078	-31693.85
0.5072,0.4928	-31702.26
0.6071,0.3929	-31693.92
0.5272,0.4728	-31700.84
0.5855,0.4145	-31697.43
0.5280,0.4720	-31699.48
0.5891,0.4109	-31694.09
0.5336,0.4664	-31699.62
0.5941,0.4059	-31697.75
0.5508,0.4492	-31698.78
0.5836,0.4164	-31694.94
0.5588,0.4412	-31694.94
0.5371,0.4629	-31699.24
0.5190,0.4810	-31700.60
0.5858,0.4142	-31697.80
0.5083,0.4917	-31701.89
0.5386,0.4614	-31700.60
0.5573,0.4427	-31697.99
0.5471,0.4529	-31699.72
0.5132,0.4868	-31701.23
0.5463,0.4537	-31697.29
0.5081,0.4919	-31702.03
0.5488,0.4512	-31697.01
0.5306,0.4694	-31701.31
0.5607,0.4393	-31700.97
0.5652,0.4348	-31697.92
0.5425,0.4575	-31698.64
0.4886,0.5114	-31702.45
0.5739,0.4261	-31691.75
0.4951,0.5049	-31702.52
0.5417,0.4583	-31702.00
0.5572,0.4428	-31699.82
0.5139,0.4861	-31701.96
0.5237,0.4763	-31700.52
0.6032,0.3968	-31698.67
0.4955,0.5045	-31702.49
0.5414,0.4586	-31699.33
0.5776,0.4224	-31699.78
0.5105,0.4895	-31702.59
0.5238,0.4762	-31701.38
0.5556,0.4444	-31697.08
0.5039,0.4961	-31702.07
0.5639,0.4361	-31696.08
0.5877,0.4123	-31691.91
0.5094,0.4906	-31701.46
0.5510,0.4490	-31697.97
0.5253,0.4747	-31701.48
0.4975,0.5025	-31702.51
0.5677,0.4323	-31694.73
0.5751,0.4249	-31701.09
0.5421,0.4579	-31700.00
0.5713,0.4287	-31691.85
0.5232,0.4768	-31700.27
0.5706,0.4294	-31694.43
0.5918,0.4082	-31697.17
0.5742,0.4258	-31700.11
0.5385,0.4615	-31701.22
0.5360,0.4640	-31699.85
0.5583,0.4417	-31698.70
0.5719,0.4281	-31695.88
0.5792,0.4208	-31683.95
0.5470,0.4530	-31696.51
0.5830,0.4170	-31700.28
0.5354,0.4646	-31699.00
0.5355,0.4645	-31698.86
0.5478,0.4522	-31702.99
0.5744,0.4256	-31701.33
0.5453,0.4547	-31702.95
0.5510,0.4490	-31698.99
0.5460,0.4540	-31701.36
0.5327,0.4673	-31700.30
0.5367,0.4633	-31698.66
0.5332,0.4668	-31698.57
0.5441,0.4559	-31699.50
0.5121,0.4879	-31701.45
0.5915,0.4085	-31698.26
0.5516,0.4484	-31695.48
0.5155,0.4845	-31702.45
0.5475,0.4525	-31700.29
0.6163,0.3837	-31691.88
0.5739,0.4261	-31698.30
0.5670,0.4330	-31697.17
0.5646,0.4354	-31695.56
0.5327,0.4673	-31699.91
0.6024,0.3976	-31687.36
0.6085,0.3915	-31691.38
0.5082,0.4918	-31701.66
0.5562,0.4438	-31700.68
0.5587,0.4413	-31699.66
0.5910,0.4090	-31697.11
0.5677,0.4323	-31695.55
0.5857,0.4143	-31696.75
0.5463,0.4537	-31697.47
0.5582,0.4418	-31698.70
0.5910,0.4090	-31698.95
0.5765,0.4235	-31692.29
0.5532,0.4468	-31700.52
0.5513,0.4487	-31698.99
0.5438,0.4562	-31701.96
0.5431,0.4569	-31703.99
0.5677,0.4323	-31698.55
0.5240,0.4760	-31702.53
0.5450,0.4550	-31696.08
0.5421,0.4579	-31702.70
0.5704,0.4296	-31696.70
0.5473,0.4527	-31698.39
0.5969,0.4031	-31699.58
0.5337,0.4663	-31699.75
0.5615,0.4385	-31694.60
0.5223,0.4777	-31700.94
0.5703,0.4297	-31696.70
0.5729,0.4271	-31700.30
0.5662,0.4338	-31699.55
0.5333,0.4667	-31697.36
0.5778,0.4222	-31699.49
0.5279,0.4721	-31700.27
0.5699,0.4301	-31690.78
0.5459,0.4541	-31699.69
0.5644,0.4356	-31701.52
0.5267,0.4733	-31698.82
0.5901,0.4099	-31694.86
0.5398,0.4602	-31701.74
0.5472,0.4528	-31700.66
0.5303,0.4697	-31697.66
0.5577,0.4423	-31699.61
0.5747,0.4253	-31696.54
0.5861,0.4139	-31695.03
0.5551,0.4449	-31694.87
0.5370,0.4630	-31701.47
0.5262,0.4738	-31703.37
0.4988,0.5012	-31702.45
0.5798,0.4202	-31705.45
0.5876,0.4124	-31694.04
0.5840,0.4160	-31697.67
0.5325,0.4675	-31697.57
0.5393,0.4607	-31701.72
0.5244,0.4756	-31701.77
0.5729,0.4271	-31693.25
0.5874,0.4126	-31693.32
0.5240,0.4760	-31701.09
0.5154,0.4846	-31701.40
0.5278,0.4722	-31700.50
0.5135,0.4865	-31701.31
0.5534,0.4466	-31700.11
0.5772,0.4228	-31695.08
0.5699,0.4301	-31694.16
0.5407,0.4593	-31702.11
0.4607,0.5393	-31705.91
0.5270,0.4730	-31700.52
0.5184,0.4816	-31701.66
0.5529,0.4471	-31699.66
0.5646,0.4354	-31690.36
0.5154,0.4846	-31701.58
0.5005,0.4995	-31702.38
0.5558,0.4442	-31695.28
0.5380,0.4620	-31702.72
0.5745,0.4255	-31698.94
0.5419,0.4581	-31698.99
0.5198,0.4802	-31701.18
0.4752,0.5248	-31704.61
0.5372,0.4628	-31702.97
0.5269,0.4731	-31700.95
0.5414,0.4586	-31700.49
0.5537,0.4463	-31697.31
0.5222,0.4778	-31702.72
0.4885,0.5115	-31703.51
0.5431,0.4569	-31698.28
0.5384,0.4616	-31697.36
0.5352,0.4648	-31701.55
0.5573,0.4427	-31696.84
0.6046,0.3954	-31696.28
0.4895,0.5105	-31703.61
0.5607,0.4393	-31689.99
0.5170,0.4830	-31700.11
0.5122,0.4878	-31701.49
0.5604,0.4396	-31696.10
0.5750,0.4250	-31694.13
0.4762,0.5238	-31703.63
0.5588,0.4412	-31695.65
0.5002,0.4998	-31702.40
0.5509,0.4491	-31700.62
0.5269,0.4731	-31702.13
0.5755,0.4245	-31688.35
0.5139,0.4861	-31702.24
0.5341,0.4659	-31700.56
0.4978,0.5022	-31702.44
0.5214,0.4786	-31701.14
0.5435,0.4565	-31701.41
0.5462,0.4538	-31698.22
0.5306,0.4694	-31702.65
0.5400,0.4600	-31701.43
0.5447,0.4553	-31702.19
0.4965,0.5035	-31702.46
0.5442,0.4558	-31700.74
0.5399,0.4601	-31695.98
0.5086,0.4914	-31701.46
0.5157,0.4843	-31701.76
0.5633,0.4367	-31700.66
0.4996,0.5004	-31702.41
0.5532,0.4468	-31700.52
0.5313,0.4687	-31698.68
0.5533,0.4467	-31700.10
0.5362,0.4638	-31699.55
0.5829,0.4171	-31698.93
0.5568,0.4432	-31698.66
0.5441,0.4559	-31699.32
0.5236,0.4764	-31701.75
0.5308,0.4692	-31700.94
0.5064,0.4936	-31701.86
0.5638,0.4362	-31703.01
0.5499,0.4501	-31697.78
0.5272,0.4728	-31701.17
0.5689,0.4311	-31695.56
0.5314,0.4686	-31700.82
0.5206,0.4794	-31702.06
0.5453,0.4547	-31699.14
0.5413,0.4587	-31699.50
0.5608,0.4392	-31693.41
0.5905,0.4095	-31697.08
0.5669,0.4331	-31695.28
0.5360,0.4640	-31699.27
0.5572,0.4428	-31698.44
0.5923,0.4077	-31691.61
0.5761,0.4239	-31698.44
0.5488,0.4512	-31697.60
0.5935,0.4065	-31693.53
0.5345,0.4655	-31700.56
0.5222,0.4778	-31700.14
0.5644,0.4356	-31701.52
0.5443,0.4557	-31697.72
0.5583,0.4417	-31700.34
0.5764,0.4236	-31694.76
0.5602,0.4398	-31699.25
0.5399,0.4601	-31699.34
0.5510,0.4490	-31698.17
0.5785,0.4215	-31693.53
0.5072,0.4928	-31702.17
0.5863,0.4137	-31691.21
0.5594,0.4406	-31696.11
0.5344,0.4656	-31699.32
0.5564,0.4436	-31694.13
0.6011,0.3989	-31697.21
0.5234,0.4766	-31702.03
0.5577,0.4423	-31698.45
0.5145,0.4855	-31701.55
0.5469,0.4531	-31696.89
0.5427,0.4573	-31697.44
0.5881,0.4119	-31696.55
0.5373,0.4627	-31701.78
0.5107,0.4893	-31701.31
0.5550,0.4450	-31693.77
0.5491,0.4509	-31700.74
0.5445,0.4555	-31700.03
0.5816,0.4184	-31695.53
0.5337,0.4663	-31700.15
0.5131,0.4869	-31700.86
0.5355,0.4645	-31699.57
0.5079,0.4921	-31701.85
0.5398,0.4602	-31700.30
0.5392,0.4608	-31697.46
0.5474,0.4526	-31698.77
0.5257,0.4743	-31700.35
0.5041,0.4959	-31702.07
0.5333,0.4667	-31699.36
0.5551,0.4449	-31700.18
0.5529,0.4471	-31699.66
0.5512,0.4488	-31700.43
0.5473,0.4527	-31699.72
0.4906,0.5094	-31703.77
0.5373,0.4627	-31702.97
0.6031,0.3969	-31691.13
0.5137,0.4863	-31701.03
0.5566,0.4434	-31698.43
0.5542,0.4458	-31699.70
0.5281,0.4719	-31701.51
0.5475,0.4525	-31698.96
0.5932,0.4068	-31697.29
0.4989,0.5011	-31702.45
0.5598,0.4402	-31699.47
0.5544,0.4456	-31706.26
0.5518,0.4482	-31702.95
0.5403,0.4597	-31698.85
0.6116,0.3884	-31693.82
0.5130,0.4870	-31700.87
0.5206,0.4794	-31700.74
0.5451,0.4549	-31699.69
0.5411,0.4589	-31701.64
0.5334,0.4666	-31700.83
0.6326,0.3674	-31685.83
0.5068,0.4932	-31701.83
0.5387,0.4613	-31700.14
0.5187,0.4813	-31701.58
0.5424,0.4576	-31699.49
0.5695,0.4305	-31698.92
0.5898,0.4102	-31688.31
0.5454,0.4546	-31697.14
0.5273,0.4727	-31700.73
0.5291,0.4709	-31700.71
0.5244,0.4756	-31700.20
0.5550,0.4450	-31702.39
0.5974,0.4026	-31691.35
0.5662,0.4338	-31697.42
0.4974,0.5026	-31702.41
0.5357,0.4643	-31701.00
0.5376,0.4624	-31700.59
0.5587,0.4413	-31695.18
0.5819,0.4181	-31695.54
0.5475,0.4525	-31698.58
0.5578,0.4422	-31698.23
0.5650,0.4350	-31691.64
0.5568,0.4432	-31697.52
0.5521,0.4479	-31699.63
0.5812,0.4188	-31694.86
0.5175,0.4825	-31702.30
0.5567,0.4433	-31699.34
0.5140,0.4860	-31702.24
0.5289,0.4711	-31699.55
0.5478,0.4522	-31698.39
0.5211,0.4789	-31701.82
0.5309,0.4691	-31699.21
0.5430,0.4570	-31701.56
0.5284,0.4716	-31701.17
0.5244,0.4756	-31701.57
0.4987,0.5013	-31702.48
0.5284,0.4716	-31702.42
0.5213,0.4787	-31701.65
0.5186,0.4814	-31700.54
0.5264,0.4736	-31699.79
0.5526,0.4474	-31696.69
0.5038,0.4962	-31702.15
0.5230,0.4770	-31700.92
0.5796,0.4204	-31695.14
0.4986,0.5014	-31702.49
0.5332,0.4668	-31700.29
0.5198,0.4802	-31701.73
0.4943,0.5057	-31702.99
0.5676,0.4324	-31698.54
0.5528,0.4472	-31698.17
0.5520,0.4480	-31696.50
0.5360,0.4640	-31700.14
0.5402,0.4598	-31697.57
0.5097,0.4903	-31701.56
0.6115,0.3885	-31698.35
0.5456,0.4544	-31696.95
0.5575,0.4425	-31698.68
0.5277,0.4723	-31701.83
0.5280,0.4720	-31701.39
0.5216,0.4784	-31700.87
0.6295,0.3705	-31692.56
0.5816,0.4184	-31692.57
0.5653,0.4347	-31698.18
0.5365,0.4635	-31703.79
0.5478,0.4522	-31698.19
0.4919,0.5081	-31703.00
0.5935,0.4065	-31699.58
0.5455,0.4545	-31703.70
0.5841,0.4159	-31703.79
0.5513,0.4487	-31695.70
0.5737,0.4263	-31699.77
0.5312,0.4688	-31701.82
0.5615,0.4385	-31697.82
0.5253,0.4747	-31702.29
0.5531,0.4469	-31699.03
0.5688,0.4312	-31698.05
0.5459,0.4541	-31696.01
0.5001,0.4999	-31702.40
0.5596,0.4404	-31697.54
0.4921,0.5079	-31702.64
0.5259,0.4741	-31702.10
0.5571,0.4429	-31703.03
0.5207,0.4793	-31699.82
0.4990,0.5010	-31702.45
0.5843,0.4157	-31698.70
0.5004,0.4996	-31702.38
0.5388,0.4612	-31702.00
0.5476,0.4524	-31700.11
0.5486,0.4514	-31700.14
0.5386,0.4614	-31699.52
0.5521,0.4479	-31699.63
0.5243,0.4757	-31700.79
0.5163,0.4837	-31700.58
0.5520,0.4480	-31696.08
0.5914,0.4086	-31687.53
0.5682,0.4318	-31696.38
0.5080,0.4920	-31702.38
0.4880,0.5120	-31703.14
0.5378,0.4622	-31700.59
0.5290,0.4710	-31700.94
0.5466,0.4534	-31698.77
0.5392,0.4608	-31698.72
0.5152,0.4848	-31700.49
0.5459,0.4541	-31702.64
0.5765,0.4235	-31692.60
0.5111,0.4889	-31701.77
0.5409,0.4591	-31698.84
0.5146,0.4854	-31701.14
0.5572,0.4428	-31698.21
0.5517,0.4483	-31699.42
0.5578,0.4422	-31695.20
0.5511,0.4489	-31699.61
0.5345,0.4655	-31700.28
0.5381,0.4619	-31699.98
0.5332,0.4668	-31700.96
0.5879,0.4121	-31691.56
0.5602,0.4398	-31701.18
0.5423,0.4577	-31699.49
0.5371,0.4629	-31697.90
0.5551,0.4449	-31697.52
0.5015,0.4985	-31702.45
0.5892,0.4108	-31695.54
0.5604,0.4396	-31699.25
0.5498,0.4502	-31700.37
0.5891,0.4109	-31698.41
0.5916,0.4084	-31689.38
0.5306,0.4694	-31701.55
0.5448,0.4552	-31700.94
0.5397,0.4603	-31696.48
0.5240,0.4760	-31702.05
0.5436,0.4564	-31701.24
0.5449,0.4551	-31698.24
0.5145,0.4855	-31701.32
0.5707,0.4293	-31696.71
0.5707,0.4293	-31695.57
0.5602,0.4398	-31698.28
0.5103,0.4897	-31701.47
0.5412,0.4588	-31698.50
0.5372,0.4628	-31703.11
0.5761,0.4239	-31698.74
0.5607,0.4393	-31700.00
0.5652,0.4348	-31696.08
0.5575,0.4425	-31699.61
0.5814,0.4186	-31699.14
0.5235,0.4765	-31700.63
0.5763,0.4237	-31691.37
0.5780,0.4220	-31700.13
0.5826,0.4174	-31696.57
0.5583,0.4417	-31701.51
0.6099,0.3901	-31689.67
0.5277,0.4723	-31701.50
0.5939,0.4061	-31694.31
0.5778,0.4222	-31692.90
0.5080,0.4920	-31701.97
0.5235,0.4765	-31700.44
0.5837,0.4163	-31700.35
0.5513,0.4487	-31697.55
0.5804,0.4196	-31699.70
0.5384,0.4616	-31701.06
0.5193,0.4807	-31699.50
0.5228,0.4772	-31702.29
0.5604,0.4396	-31700.95
0.5282,0.4718	-31699.59
0.5521,0.4479	-31701.52
0.4957,0.5043	-31702.75
0.5155,0.4845	-31701.33
0.5355,0.4645	-31698.71
0.5718,0.4282	-31698.77
0.5072,0.4928	-31702.14
0.5688,0.4312	-31696.94
0.4949,0.5051	-31702.65
0.5437,0.4563	-31699.50
0.4911,0.5089	-31702.08
0.5445,0.4555	-31694.33
0.5429,0.4571	-31698.63
0.5727,0.4273	-31699.11
0.5320,0.4680	-31701.71
0.5034,0.4966	-31702.37
0.4966,0.5034	-31702.76
0.5055,0.4945	-31702.21
0.5412,0.4588	-31698.50
0.5522,0.4478	-31698.59
0.5308,0.4692	-31699.71
0.5669,0.4331	-31697.44
0.4948,0.5052	-31702.53
0.5352,0.4648	-31698.45
0.5231,0.4769	-31700.64
0.5309,0.4691	-31702.68
0.5415,0.4585	-31698.83
0.5338,0.4662	-31699.88
0.5319,0.4681	-31700.18
0.5206,0.4794	-31700.58
0.5199,0.4801	-31700.54
0.5521,0.4479	-31698.17
0.5517,0.4483	-31699.62
0.5213,0.4787	-31699.09
0.5407,0.4593	-31698.52
0.5640,0.4360	-31697.36
0.5280,0.4720	-31700.38
0.5216,0.4784	-31701.74
0.5617,0.4383	-31698.32
0.5145,0.4855	-31701.72
0.5582,0.4418	-31701.97
0.5369,0.4631	-31702.05
0.5104,0.4896	-31702.42
0.5316,0.4684	-31700.18
0.5686,0.4314	-31698.59
0.5571,0.4429	-31695.23
0.5698,0.4302	-31693.88
0.5313,0.4687	-31700.69
0.5166,0.4834	-31700.95
0.5724,0.4276	-31696.76
0.5672,0.4328	-31702.59
0.5521,0.4479	-31703.40
0.5603,0.4397	-31698.52
0.5410,0.4590	-31698.18
0.5544,0.4456	-31696.21
0.6048,0.3952	-31688.65
0.5766,0.4234	-31701.86
0.5525,0.4475	-31696.06
0.5470,0.4530	-31700.47
0.5438,0.4562	-31699.32
0.5437,0.4563	-31698.27
0.5779,0.4221	-31699.49
0.5988,0.4012	-31697.39
0.5336,0.4664	-31700.69
0.5470,0.4530	-31698.77
0.5545,0.4455	-31701.24
0.5334,0.4666	-31701.23
0.5644,0.4356	-31698.67
0.5760,0.4240	-31693.22
0.5315,0.4685	-31698.42
0.5487,0.4513	-31701.50
0.5211,0.4789	-31701.06
0.5746,0.4254	-31698.64
0.5758,0.4242	-31695.67
0.5494,0.4506	-31700.76
0.5431,0.4569	-31700.36
0.5146,0.4854	-31701.78
0.5950,0.4050	-31700.13
0.5839,0.4161	-31692.91
0.5642,0.4358	-31698.14
0.5076,0.4924	-31701.68
0.6032,0.3968	-31688.62
0.5312,0.4688	-31702.69
0.5981,0.4019	-31693.75
0.5909,0.4091	-31699.32
0.5151,0.4849	-31701.53
0.5331,0.4669	-31700.29
0.5667,0.4333	-31700.65
0.5062,0.4938	-31702.42
0.5776,0.4224	-31694.15
0.5780,0.4220	-31698.24
0.5114,0.4886	-31701.58
0.5360,0.4640	-31701.43
0.5305,0.4695	-31701.80
0.5440,0.4560	-31701.61
0.5515,0.4485	-31699.82
0.6041,0.3959	-31690.75
0.5169,0.4831	-31701.27
0.5272,0.4728	-31698.22
0.5463,0.4537	-31700.45
0.5728,0.4272	-31699.70
0.5030,0.4970	-31702.25
0.6061,0.3939	-31695.57
0.5364,0.4636	-31700.57
0.5588,0.4412	-31701.08
0.5437,0.4563	-31697.57
0.5742,0.4258	-31699.22
0.5298,0.4702	-31701.53
0.5113,0.4887	-31701.67
0.5265,0.4735	-31702.02
0.5265,0.4735	-31700.64
0.5504,0.4496	-31702.02
0.6267,0.3733	-31692.27
0.5182,0.4818	-31700.57
0.5248,0.4752	-31701.08
0.5347,0.4653	-31697.92
0.5337,0.4663	-31699.88
0.5358,0.4642	-31701.14
0.5834,0.4166	-31692.57
0.5228,0.4772	-31703.02
0.5115,0.4885	-31702.54
0.5064,0.4936	-31702.14
0.5390,0.4610	-31699.82
0.4862,0.5138	-31703.57
0.5781,0.4219	-31694.79
0.5059,0.4941	-31701.87
0.5334,0.4666	-31700.42
0.4955,0.5045	-31702.60
0.5302,0.4698	-31699.97
0.5286,0.4714	-31701.17
0.5753,0.4247	-31698.39
0.5243,0.4757	-31700.30
0.4915,0.5085	-31703.17
0.5504,0.4496	-31699.99
0.5716,0.4284	-31697.89
0.5483,0.4517	-31694.12
0.5558,0.4442	-31697.52
0.5405,0.4595	-31697.06
0.4908,0.5092	-31702.88
0.5555,0.4445	-31697.52
0.5519,0.4481	-31692.75
0.5361,0.4639	-31699.85
0.5724,0.4276	-31700.55
0.5310,0.4690	-31699.08
0.5208,0.4792	-31700.65
0.5199,0.4801	-31701.65
0.5352,0.4648	-31698.73
0.5563,0.4437	-31698.88
0.5605,0.4395	-31695.37
0.5222,0.4778	-31701.38
0.5106,0.4894	-31700.39
0.4737,0.5263	-31703.45
0.5148,0.4852	-31701.89
0.5499,0.4501	-31702.38
0.5998,0.4002	-31700.32
0.5407,0.4593	-31701.45
0.5068,0.4932	-31701.94
0.5233,0.4767	-31700.44
0.5273,0.4727	-31701.49
0.5406,0.4594	-31699.34
0.5867,0.4133	-31695.41
0.5463,0.4537	-31696.91
0.5352,0.4648	-31702.68
0.5523,0.4477	-31699.22
0.5386,0.4614	-31698.28
0.5235,0.4765	-31700.44
0.5613,0.4387	-31701.75
0.5241,0.4759	-31701.66
0.5507,0.4493	-31697.97
0.5274,0.4726	-31698.42
0.5335,0.4665	-31700.02
0.5384,0.4616	-31699.21
0.5317,0.4683	-31700.31
0.5536,0.4464	-31696.89
0.5735,0.4265	-31695.91
0.5267,0.4733	-31699.24
0.5431,0.4569	-31703.13
0.5525,0.4475	-31701.97
0.5201,0.4799	-31700.69
0.5829,0.4171	-31696.59
0.5541,0.4459	-31696.22
0.5774,0.4226	-31699.14
0.5492,0.4508	-31699.17
0.5292,0.4708	-31701.17
0.5171,0.4829	-31701.74
0.5988,0.4012	-31696.59
0.5185,0.4815	-31700.11
0.5600,0.4400	-31694.65
0.5342,0.4658	-31699.74
0.5159,0.4841	-31700.93
0.5433,0.4567	-31698.63
0.6123,0.3877	-31692.97
0.5274,0.4726	-31699.63
0.5625,0.4375	-31698.34
0.5599,0.4401	-31695.14
0.5305,0.4695	-31698.86
0.5258,0.4742	-31701.07
0.5965,0.4035	-31696.01
0.5390,0.4610	-31697.79
0.5732,0.4268	-31696.49
0.5273,0.4727	-31700.51
0.5242,0.4758	-31701.28
0.5643,0.4357	-31701.50
0.6016,0.3984	-31693.54
0.5627,0.4373	-31698.10
0.6041,0.3959	-31702.58
0.5168,0.4832	-31702.49
0.5258,0.4742	-31703.14
0.5615,0.4385	-31696.83
0.5791,0.4209	-31693.21
0.5397,0.4603	-31702.53
0.5486,0.4514	-31697.40
0.5450,0.4550	-31696.25
0.5336,0.4664	-31697.20
0.5957,0.4043	-31696.34
0.5318,0.4682	-31702.22
0.5285,0.4715	-31701.97
0.5385,0.4615	-31701.52
0.5285,0.4715	-31697.74
0.5146,0.4854	-31703.01
0.5949,0.4051	-31695.13
0.4921,0.5079	-31703.24
0.5296,0.4704	-31699.28
0.5506,0.4494	-31698.78
0.5367,0.4633	-31699.10
0.5300,0.4700	-31700.70
0.5767,0.4233	-31698.78
0.5062,0.4938	-31702.34
0.5446,0.4554	-31701.29
0.5449,0.4551	-31699.68
0.5511,0.4489	-31698.17
0.5635,0.4365	-31701.95
0.5632,0.4368	-31698.37
0.5490,0.4510	-31698.58
0.5298,0.4702	-31701.06
0.5640,0.4360	-31699.42
0.5380,0.4620	-31698.76
0.5397,0.4603	-31697.75
0.5775,0.4225	-31698.21
0.5311,0.4689	-31701.19
0.5349,0.4651	-31696.93
0.5179,0.4821	-31700.45
0.5503,0.4497	-31697.37
0.5181,0.4819	-31700.44
0.5704,0.4296	-31691.88
0.5536,0.4464	-31696.45
0.5129,0.4871	-31701.40
0.5337,0.4663	-31699.88
0.5795,0.4205	-31697.70
0.5356,0.4644	-31699.85
0.5757,0.4243	-31695.97
0.5573,0.4427	-31700.29
0.5210,0.4790	-31700.98
0.5533,0.4467	-31696.89
0.4963,0.5037	-31702.60
0.5538,0.4462	-31699.47
0.5440,0.4560	-31696.15
0.5674,0.4326	-31700.16
0.5046,0.4954	-31701.90
0.5195,0.4805	-31700.79
0.5359,0.4641	-31696.83
0.5754,0.4246	-31696.26
0.5580,0.4420	-31701.26
0.5643,0.4357	-31696.59
0.4900,0.5100	-31702.62
0.5462,0.4538	-31696.18
0.5890,0.4110	-31689.05
0.5930,0.4070	-31691.25
0.5624,0.4376	-31701.10
0.5567,0.4433	-31699.80
0.5488,0.4512	-31699.36
0.5456,0.4544	-31702.43
0.5720,0.4280	-31698.20
0.5752,0.4248	-31697.77
0.5425,0.4575	-31697.10
0.5520,0.4480	-31699.21
0.5302,0.4698	-31700.33
0.5317,0.4683	-31702.60
0.5147,0.4853	-31702.07
0.6044,0.3956	-31694.15
0.5277,0.4723	-31698.84
0.5753,0.4247	-31691.71
0.5562,0.4438	-31697.52
0.5358,0.4642	-31700.42
0.5486,0.4514	-31699.74
0.5284,0.4716	-31698.22
0.5469,0.4531	-31700.65
0.5453,0.4547	-31699.87
0.5727,0.4273	-31699.41
0.5619,0.4381	-31697.83
0.5453,0.4547	-31701.50
0.5821,0.4179	-31698.20
0.5525,0.4475	-31696.49
0.5200,0.4800	-31702.13
0.5589,0.4411	-31696.83
0.5246,0.4754	-31701.28
0.5442,0.4558	-31696.66
0.5833,0.4167	-31697.62
0.5273,0.4727	-31702.04
0.5084,0.4916	-31701.79
0.5463,0.4537	-31698.77
0.5305,0.4695	-31700.21
0.5349,0.4651	-31699.72
0.5879,0.4121	-31695.47
0.5604,0.4396	-31697.31
0.5077,0.4923	-31702.01
0.5410,0.4590	-31700.15
0.5399,0.4601	-31698.70
0.5337,0.4663	-31698.80
0.5818,0.4182	-31697.19
0.5916,0.4084	-31694.56
0.5660,0.4340	-31698.47
0.5522,0.4478	-31701.32
0.5276,0.4724	-31700.17
0.5197,0.4803	-31700.15
0.5781,0.4219	-31702.34
0.5939,0.4061	-31698.87
0.5615,0.4385	-31697.32
0.5854,0.4146	-31696.73
0.5969,0.4031	-31687.80
0.5532,0.4468	-31698.81
0.5276,0.4724	-31699.29
0.5353,0.4647	-31700.56
0.5526,0.4474	-31697.12
0.5814,0.4186	-31694.87
0.5318,0.4682	-31698.91
0.5380,0.4620	-31700.29
0.5287,0.4713	-31702.32
0.5147,0.4853	-31700.49
0.5566,0.4434	-31698.66
0.5850,0.4150	-31695.67
0.5629,0.4371	-31693.80
0.5531,0.4469	-31699.88
0.5282,0.4718	-31701.17
0.5649,0.4351	-31697.12
0.5270,0.4730	-31701.60
0.5650,0.4350	-31693.46
0.5390,0.4610	-31698.89
0.5332,0.4668	-31699.23
0.5767,0.4233	-31694.45
0.5353,0.4647	-31698.58
0.5489,0.4511	-31699.16
0.5417,0.4583	-31700.66
0.5356,0.4644	-31697.57
0.4813,0.5187	-31704.08
0.5062,0.4938	-31701.70
0.5122,0.4878	-31701.73
0.5648,0.4352	-31700.77
0.5739,0.4261	-31698.00
0.5625,0.4375	-31698.59
0.5263,0.4737	-31701.48
0.5763,0.4237	-31694.45
0.5269,0.4731	-31701.38
0.5448,0.4552	-31699.14
0.5598,0.4402	-31695.14
0.5898,0.4102	-31697.02
0.5126,0.4874	-31701.01
0.5429,0.4571	-31700.70
0.5126,0.4874	-31701.82
0.5118,0.4882	-31701.42
0.5796,0.4204	-31693.21
0.5361,0.4639	-31700.28
0.5171,0.4829	-31702.57
0.5315,0.4685	-31698.67
0.5356,0.4644	-31700.85
0.4957,0.5043	-31702.69
0.5509,0.4491	-31697.56
0.5534,0.4466	-31698.17
0.5284,0.4716	-31701.74
0.5212,0.4788	-31701.39
0.5281,0.4719	-31700.38
0.5020,0.4980	-31702.26
0.5407,0.4593	-31700.15
0.5576,0.4424	-31702.38
0.5547,0.4453	-31692.25
0.5353,0.4647	-31696.46
0.5522,0.4478	-31698.59
0.5514,0.4486	-31700.24
0.5174,0.4826	-31700.07
0.5681,0.4319	-31699.66
0.5098,0.4902	-31702.06
0.5134,0.4866	-31702.34
0.5830,0.4170	-31701.29
0.5797,0.4203	-31699.00
0.5365,0.4635	-31700.13
0.6177,0.3823	-31684.30
0.5342,0.4658	-31700.56
0.5653,0.4347	-31694.24
0.5490,0.4510	-31697.79
0.6009,0.3991	-31698.41
0.5106,0.4894	-31701.66
0.5756,0.4244	-31695.96
0.5364,0.4636	-31698.38
0.5755,0.4245	-31697.18
0.5237,0.4763	-31700.90
0.6188,0.3812	-31692.07
0.5326,0.4674	-31698.08
0.5259,0.4741	-31698.79
0.5442,0.4558	-31699.50
0.5642,0.4358	-31701.75
0.5325,0.4675	-31699.26
0.6125,0.3875	-31699.85
0.5389,0.4611	-31699.36
0.5175,0.4825	-31701.32
0.5419,0.4581	-31700.67
0.5570,0.4430	-31695.24
0.5535,0.4465	-31697.75
0.5923,0.4077	-31697.96
0.5569,0.4431	-31694.78
0.5612,0.4388	-31700.77
0.5469,0.4531	-31700.09
0.5649,0.4351	-31702.61
0.5768,0.4232	-31694.45
0.5407,0.4593	-31699.17
0.5210,0.4790	-31701.06
0.5480,0.4520	-31695.88
0.5342,0.4658	-31701.24
0.5090,0.4910	-31702.11
0.5993,0.4007	-31693.01
0.5401,0.4599	-31699.82
0.5200,0.4800	-31701.49
0.5083,0.4917	-31701.86
0.5719,0.4281	-31695.88
0.5467,0.4533	-31699.52
0.5731,0.4269	-31695.02
0.5564,0.4436	-31698.66
0.5669,0.4331	-31697.17
0.4974,0.5026	-31702.62
0.5283,0.4717	-31700.94
0.5136,0.4864	-31701.63
0.5902,0.4098	-31693.41
0.5427,0.4573	-31699.15
0.5737,0.4263	-31700.07
0.5375,0.4625	-31700.43
0.5320,0.4680	-31702.10
0.5269,0.4731	-31700.74
0.5641,0.4359	-31698.91
0.4731,0.5269	-31702.00
0.5285,0.4715	-31700.48
0.5339,0.4661	-31701.92
0.5519,0.4481	-31699.84
0.5116,0.4884	-31701.99
0.5338,0.4662	-31699.75
0.4842,0.5158	-31702.92
0.5446,0.4554	-31700.22
0.5320,0.4680	-31698.89
0.5847,0.4153	-31694.29
0.5103,0.4897	-31701.68
0.5712,0.4288	-31697.30
0.5047,0.4953	-31702.06
0.5498,0.4502	-31698.38
0.5443,0.4557	-31700.74
0.5378,0.4622	-31703.01
0.5173,0.4827	-31702.30
0.5280,0.4720	-31700.05
0.5302,0.4698	-31701.18
0.5290,0.4710	-31701.06
0.5426,0.4574	-31703.59
0.5830,0.4170	-31694.92
0.5487,0.4513	-31700.53
0.5456,0.4544	-31696.58
0.5336,0.4664	-31700.29
0.5494,0.4506	-31697.19
0.5453,0.4547	-31697.14
0.5471,0.4529	-31701.23
0.5382,0.4618	-31702.43
0.5427,0.4573	-31703.43
0.5267,0.4733	-31700.74
0.5346,0.4654	-31698.90
0.5249,0.4751	-31701.57
0.5749,0.4251	-31698.36
0.5531,0.4469	-31697.96
0.5377,0.4623	-31698.92
0.5324,0.4676	-31700.95
0.5143,0.4857	-31701.16
0.5325,0.4675	-31701.47
0.5586,0.4414	-31698.48
0.5584,0.4416	-31698.24
0.5042,0.4958	-31702.16
0.5765,0.4235	-31697.54
0.5528,0.4472	-31700.51
0.5592,0.4408	-31702.54
0.5767,0.4233	-31694.45
0.5935,0.4065	-31698.45
0.5222,0.4778	-31699.34
0.5510,0.4490	-31698.58
0.5273,0.4727	-31698.33
0.5351,0.4649	-31699.44
0.5206,0.4794	-31699.68
0.5929,0.4071	-31693.50
0.5507,0.4493	-31699.19
0.5458,0.4542	-31696.20
0.5473,0.4527	-31703.32
0.5496,0.4504	-31699.57
0.5063,0.4937	-31701.64
0.5951,0.4049	-31693.21
0.5782,0.4218	-31693.21
0.5536,0.4464	-31697.96
0.5678,0.4322	-31697.19
0.5373,0.4627	-31698.64
0.5687,0.4313	-31702.19
0.5982,0.4018	-31698.92
0.5503,0.4497	-31701.20
0.5634,0.4366	-31700.66
0.5876,0.4124	-31700.06
0.5300,0.4700	-31700.94
0.5186,0.4814	-31700.54
0.6017,0.3983	-31697.27
0.5202,0.4798	-31700.28
0.5215,0.4785	-31700.53
0.5551,0.4449	-31699.29
0.5317,0.4683	-31701.20
0.5066,0.4934	-31702.24
0.5425,0.4575	-31697.79
0.5491,0.4509	-31701.93
0.5411,0.4589	-31699.00
0.5526,0.4474	-31701.55
0.5633,0.4367	-31697.61
0.5205,0.4795	-31700.17
0.5163,0.4837	-31701.10
0.5949,0.4051	-31695.12
0.5453,0.4547	-31695.15
0.5523,0.4477	-31701.32
0.5235,0.4765	-31700.91
0.5428,0.4572	-31699.84
0.4926,0.5074	-31703.15
0.5764,0.4236	-31695.37
0.5263,0.4737	-31702.75
0.5360,0.4640	-31698.98
0.5120,0.4880	-31701.69
0.5131,0.4869	-31701.65
0.5206,0.4794	-31698.93
0.5766,0.4234	-31700.93
0.5190,0.4810	-31701.35
0.5090,0.4910	-31701.49
0.5142,0.4858	-31701.33
0.5516,0.4484	-31702.73
0.5268,0.4732	-31701.70
0.5927,0.4073	-31697.25
0.5619,0.4381	-31697.33
0.5451,0.4549	-31698.78
0.5403,0.4597	-31698.37
0.5712,0.4288	-31693.86
0.5103,0.4897	-31701.68
0.5435,0.4565	-31698.62
0.5605,0.4395	-31699.26
0.4857,0.5143	-31704.02
0.5381,0.4619	-31700.59
0.5208,0.4792	-31700.15
0.5147,0.4853	-31701.25
0.5971,0.4029	-31694.48
0.5940,0.4060	-31693.93
0.5137,0.4863	-31701.41
0.5266,0.4734	-31699.89
0.5345,0.4655	-31700.97
0.5376,0.4624	-31699.23
0.5457,0.4543	-31696.39
0.5549,0.4451	-31695.32
0.5299,0.4701	-31702.62
0.5644,0.4356	-31699.19
0.4996,0.5004	-31702.45
0.5374,0.4626	-31697.89
0.5528,0.4472	-31694.78
0.5345,0.4655	-31701.67
0.5211,0.4789	-31700.89
0.5405,0.4595	-31697.39
0.5223,0.4777	-31700.85
0.5383,0.4617	-31701.05
0.5305,0.4695	-31702.28
0.5270,0.4730	-31700.19
0.5306,0.4694	-31699.84
0.5200,0.4800	-31701.17
0.5526,0.4474	-31696.90
0.5758,0.4242	-31698.41
0.5213,0.4787	-31699.95
0.5034,0.4966	-31702.28
0.5392,0.4608	-31700.30
0.5413,0.4587	-31702.48
0.5424,0.4576	-31698.30
0.5331,0.4669	-31700.43
0.5593,0.4407	-31700.40
0.5195,0.4805	-31703.06
0.5348,0.4652	-31697.49
0.5592,0.4408	-31700.15
0.5295,0.4705	-31701.41
0.5086,0.4914	-31701.19
0.5217,0.4783	-31700.61
0.5477,0.4523	-31696.28
0.5325,0.4675	-31701.99
0.5291,0.4709	-31700.36
0.5383,0.4617	-31700.59
0.4988,0.5012	-31702.52
0.5769,0.4231	-31695.38
0.5871,0.4129	-31698.25
0.5225,0.4775	-31701.11
0.5251,0.4749	-31699.97
0.5548,0.4452	-31696.86
0.5315,0.4685	-31701.57
0.5559,0.4441	-31700.89
0.5558,0.4442	-31698.87
0.5596,0.4404	-31698.26
0.5225,0.4775	-31701.11
0.5513,0.4487	-31702.70
0.5055,0.4945	-31702.21
0.5236,0.4764	-31700.71
0.5596,0.4404	-31695.87
0.5689,0.4311	-31698.88
0.5498,0.4502	-31698.98
0.5359,0.4641	-31699.42
0.5250,0.4750	-31699.97
0.5981,0.4019	-31691.76
0.5364,0.4636	-31699.11
0.5792,0.4208	-31694.81
0.5184,0.4816	-31702.25
0.5564,0.4436	-31698.20
0.5020,0.4980	-31702.26
0.6165,0.3835	-31691.89
0.5310,0.4690	-31699.95
0.5732,0.4268	-31695.02
0.5035,0.4965	-31702.21
0.5711,0.4289	-31690.42
0.5099,0.4901	-31702.06
0.5645,0.4355	-31700.23
0.5052,0.4948	-31701.99
0.5473,0.4527	-31700.48
0.5476,0.4524	-31695.90
0.5803,0.4197	-31700.34
0.5324,0.4676	-31699.26
0.5420,0.4580	-31698.99
0.5289,0.4711	-31699.67
0.4984,0.5016	-31702.44
0.5470,0.4530	-31701.41
0.5863,0.4137	-31698.53
0.5467,0.4533	-31698.96
0.5383,0.4617	-31701.06
0.5645,0.4355	-31698.15
0.5043,0.4957	-31702.28
0.5480,0.4520	-31697.23
0.5635,0.4365	-31697.87
0.5372,0.4628	-31699.39
0.5750,0.4250	-31701.39
0.5577,0.4423	-31701.70
0.5481,0.4519	-31699.73
0.5170,0.4830	-31701.47
0.5546,0.4454	-31699.94
0.5548,0.4452	-31699.28
0.5495,0.4505	-31699.17
0.5296,0.4704	-31700.82
0.5302,0.4698	-31700.70
0.4850,0.5150	-31703.53
0.5738,0.4262	-31698.89
0.5681,0.4319	-31696.10
0.5463,0.4537	-31698.03
0.5418,0.4582	-31700.00
0.5275,0.4725	-31699.40
0.4853,0.5147	-31703.68
0.5682,0.4318	-31696.92
0.5493,0.4507	-31695.61
0.5297,0.4703	-31699.39
0.5232,0.4768	-31700.82
0.5572,0.4428	-31696.15
0.4898,0.5102	-31703.28
0.5211,0.4789	-31700.80
0.5698,0.4302	-31694.16
0.5865,0.4135	-31697.14
0.4991,0.5009	-31702.43
0.5323,0.4677	-31701.73
0.5137,0.4863	-31701.85
0.5343,0.4657	-31702.48
0.5694,0.4306	-31696.96
0.6050,0.3950	-31690.78
0.5768,0.4232	-31695.69
0.5510,0.4490	-31703.08
0.5469,0.4531	-31699.15
0.5440,0.4560	-31698.26
0.5536,0.4464	-31698.61
0.5951,0.4049	-31697.84
0.5458,0.4542	-31701.90
0.5489,0.4511	-31699.16
0.5343,0.4657	-31700.70
0.5163,0.4837	-31701.04
0.5281,0.4719	-31701.73
0.5537,0.4463	-31698.82
0.5288,0.4712	-31699.67
0.5645,0.4355	-31697.37
0.5259,0.4741	-31700.13
0.5627,0.4373	-31697.59
0.5368,0.4632	-31703.08
0.5693,0.4307	-31696.40
0.5423,0.4577	-31700.68
0.5959,0.4041	-31693.64
0.5491,0.4509	-31699.56
0.5596,0.4404	-31698.02
0.5200,0.4800	-31700.37
0.5433,0.4567	-31696.55
0.5366,0.4634	-31702.63
0.5753,0.4247	-31695.35
0.5371,0.4629	-31698.20
0.5241,0.4759	-31700.31
0.5118,0.4882	-31701.70
0.5744,0.4256	-31693.23
0.5490,0.4510	-31698.97
0.5578,0.4422	-31696.37
0.5387,0.4613	-31697.81
0.5501,0.4499	-31702.80
0.5130,0.4870	-31701.24
0.5731,0.4269	-31696.49
0.5588,0.4412	-31698.25
0.5548,0.4452	-31697.52
