#isoforms=['ENSG00000101294.SE.1.A.up_ENSG00000101294.SE.1.A.SE1_ENSG00000101294.SE.1.A.dn','ENSG00000101294.SE.1.B.up_ENSG00000101294.SE.1.B.dn']	exon_lens=('ENSG00000101294.SE.1.A.up',99),('ENSG00000101294.SE.1.A.SE1',376),('ENSG00000101294.SE.1.A.dn',89),('ENSG00000101294.SE.1.B.up',99),('ENSG00000101294.SE.1.B.dn',89)	iters=5000	burn_in=500	lag=10	percent_accept=94.10	proposal_type=drift	counts=(0,0):105,(1,0):21,(1,1):37	assigned_counts=0:26,1:32	chrom=chr20	strand=+	mRNA_starts=31527484,31527484	mRNA_ends=31545035,31545035
sampled_psi	log_score
0.2918,0.7082	-366.09
0.3325,0.6675	-368.71
0.2137,0.7863	-363.85
0.2524,0.7476	-364.25
0.2840,0.7160	-366.83
0.1976,0.8024	-366.70
0.2636,0.7364	-364.47
0.3712,0.6288	-371.99
0.2176,0.7824	-358.74
0.2140,0.7860	-365.15
0.2821,0.7179	-370.53
0.1896,0.8104	-363.98
0.2947,0.7053	-364.42
0.2990,0.7010	-370.54
0.1976,0.8024	-361.09
0.2132,0.7868	-367.77
0.2822,0.7178	-371.46
0.2265,0.7735	-363.91
0.2613,0.7387	-365.46
0.2384,0.7616	-364.03
0.2003,0.7997	-366.65
0.2209,0.7791	-363.88
0.2780,0.7220	-364.81
0.2388,0.7612	-365.20
0.2466,0.7534	-364.15
0.2843,0.7157	-364.99
0.1754,0.8246	-356.49
0.2440,0.7560	-369.76
0.3076,0.6924	-369.77
0.2108,0.7892	-365.17
0.2569,0.7431	-370.70
0.2586,0.7414	-365.42
0.1712,0.8288	-361.17
0.2839,0.7161	-367.75
0.3104,0.6896	-365.81
0.2473,0.7527	-368.61
0.2693,0.7307	-365.60
0.2854,0.7146	-366.85
0.1785,0.8215	-358.05
0.2642,0.7358	-367.56
0.3472,0.6528	-371.01
0.2902,0.7098	-368.73
0.2474,0.7526	-367.50
0.2782,0.7218	-368.63
0.1601,0.8399	-359.70
0.2531,0.7469	-367.51
0.2577,0.7423	-367.52
0.3020,0.6980	-368.03
0.2558,0.7442	-362.17
0.2738,0.7262	-367.63
0.2241,0.7759	-363.89
0.2131,0.7869	-363.85
0.2647,0.7353	-366.54
0.3116,0.6884	-372.19
0.2743,0.7257	-372.50
0.3002,0.6998	-362.92
0.2360,0.7640	-367.53
0.2131,0.7869	-363.85
0.2719,0.7281	-366.63
0.3039,0.6961	-367.24
0.2622,0.7378	-364.44
0.3072,0.6928	-373.01
0.1981,0.8019	-363.89
0.2398,0.7602	-362.90
0.3067,0.6933	-368.12
0.3188,0.6812	-369.90
0.2674,0.7326	-368.59
0.2796,0.7204	-366.75
0.1729,0.8271	-364.28
0.2141,0.7859	-367.75
0.2664,0.7336	-369.60
0.3141,0.6859	-368.28
0.2693,0.7307	-367.59
0.3260,0.6740	-370.00
0.1792,0.8208	-362.62
0.2247,0.7753	-360.18
0.2680,0.7320	-368.59
0.3201,0.6799	-369.16
0.2374,0.7626	-366.35
0.2806,0.7194	-367.71
0.1938,0.8062	-369.63
0.2202,0.7798	-360.08
0.3135,0.6865	-366.70
0.2745,0.7255	-368.61
0.2185,0.7815	-366.41
0.2629,0.7371	-367.55
0.2022,0.7978	-365.24
0.2019,0.7981	-358.37
0.2954,0.7046	-363.57
0.2357,0.7643	-364.00
0.2633,0.7367	-365.49
0.2310,0.7690	-365.15
0.1826,0.8174	-361.08
0.1963,0.8037	-359.68
0.2807,0.7193	-364.89
0.2361,0.7639	-360.48
0.2460,0.7540	-361.90
0.2237,0.7763	-366.38
0.2069,0.7931	-358.48
0.2280,0.7720	-361.48
0.2900,0.7100	-364.25
0.2576,0.7424	-363.29
0.2464,0.7536	-364.15
0.2246,0.7754	-366.38
0.1927,0.8073	-359.64
0.2241,0.7759	-365.14
0.2958,0.7042	-365.32
0.2106,0.7894	-363.85
0.2509,0.7491	-364.22
0.2251,0.7749	-360.19
0.2407,0.7593	-368.66
0.2479,0.7521	-366.39
0.2820,0.7180	-366.79
0.2335,0.7665	-367.54
0.2347,0.7653	-360.44
0.2778,0.7222	-368.63
0.2215,0.7785	-361.37
0.2459,0.7541	-361.90
0.3129,0.6871	-368.25
0.2428,0.7572	-364.09
0.2788,0.7212	-362.93
0.2755,0.7245	-364.75
0.2823,0.7177	-364.93
0.2214,0.7786	-363.88
0.2436,0.7564	-366.37
0.2609,0.7391	-364.41
0.2852,0.7148	-365.93
0.2404,0.7596	-368.66
0.2610,0.7390	-369.62
0.1756,0.8244	-359.58
0.2206,0.7794	-363.87
0.2201,0.7799	-360.08
0.2845,0.7155	-370.52
0.2374,0.7626	-362.85
0.2401,0.7599	-362.90
0.1435,0.8565	-354.69
0.2196,0.7804	-363.87
0.2119,0.7881	-367.79
0.2764,0.7236	-365.74
0.2348,0.7652	-366.35
0.2344,0.7656	-362.80
0.1471,0.8529	-365.23
0.2094,0.7906	-363.85
0.1954,0.8046	-359.67
0.2697,0.7303	-367.60
0.2400,0.7600	-361.75
0.2236,0.7764	-365.14
0.1235,0.8765	-360.88
0.2126,0.7874	-366.47
0.2254,0.7746	-357.73
0.2236,0.7764	-361.40
0.2294,0.7706	-363.94
0.2490,0.7510	-368.60
0.1352,0.8648	-365.90
0.1690,0.8310	-365.98
0.2647,0.7353	-367.56
0.2149,0.7851	-366.45
0.2374,0.7626	-361.69
0.2223,0.7777	-368.89
0.1546,0.8454	-366.58
0.1962,0.8038	-366.73
0.2255,0.7745	-366.37
0.2278,0.7722	-365.14
0.2121,0.7879	-365.16
0.1828,0.8172	-358.09
0.1391,0.8609	-365.66
0.1744,0.8256	-365.80
0.2397,0.7603	-365.20
0.2073,0.7927	-361.17
0.2113,0.7887	-366.48
0.1863,0.8137	-364.02
0.1363,0.8637	-362.14
0.1298,0.8702	-358.67
0.2431,0.7569	-364.10
0.1865,0.8135	-355.18
0.2249,0.7751	-358.95
0.1796,0.8204	-358.06
0.1581,0.8419	-363.07
0.1207,0.8793	-357.08
0.2142,0.7858	-362.55
0.1720,0.8280	-369.02
0.2359,0.7641	-359.30
0.1892,0.8108	-365.44
0.1426,0.8574	-367.26
0.1243,0.8757	-354.99
0.2202,0.7798	-363.87
0.1857,0.8143	-359.60
0.2374,0.7626	-362.85
0.1958,0.8042	-362.50
0.1456,0.8544	-361.76
0.1633,0.8367	-356.39
0.1962,0.8038	-368.14
0.1740,0.8260	-364.26
0.2248,0.7752	-361.42
0.2151,0.7849	-363.85
0.1514,0.8486	-361.57
0.1298,0.8702	-360.57
0.2711,0.7289	-370.58
0.1784,0.8216	-365.69
0.2214,0.7786	-365.14
0.2179,0.7821	-362.59
0.1736,0.8264	-365.83
0.1487,0.8513	-356.42
0.2793,0.7207	-364.85
0.1890,0.8110	-362.53
0.2112,0.7888	-362.53
0.2281,0.7719	-362.70
0.1924,0.8076	-358.21
0.1561,0.8439	-358.07
0.2874,0.7126	-367.80
0.1739,0.8261	-359.58
0.2399,0.7601	-365.21
0.2001,0.7999	-362.50
0.1978,0.8022	-361.10
0.1527,0.8473	-361.54
0.2879,0.7121	-363.28
0.2025,0.7975	-363.87
0.2719,0.7281	-368.60
0.1920,0.8080	-362.51
0.2142,0.7858	-362.55
0.1880,0.8120	-361.07
0.3050,0.6950	-371.39
0.1894,0.8106	-362.53
0.2680,0.7320	-363.57
0.2239,0.7761	-368.87
0.2262,0.7738	-357.76
0.1930,0.8070	-359.65
0.2762,0.7238	-367.66
0.1883,0.8117	-361.07
0.2702,0.7298	-367.60
0.2157,0.7843	-362.57
0.2428,0.7572	-362.95
0.1872,0.8128	-365.48
0.2768,0.7232	-365.74
0.1822,0.8178	-362.59
0.2926,0.7074	-366.11
0.2607,0.7393	-363.37
0.2239,0.7761	-360.16
0.1647,0.8353	-362.89
0.2379,0.7621	-362.86
0.2012,0.7988	-366.63
0.2718,0.7282	-370.57
0.3246,0.6754	-370.71
0.2204,0.7796	-362.61
0.1923,0.8077	-361.08
0.2250,0.7750	-362.66
0.1922,0.8078	-361.08
0.2622,0.7378	-365.47
0.3611,0.6389	-369.55
0.2114,0.7886	-361.22
0.1884,0.8116	-362.53
0.2466,0.7534	-364.15
0.1727,0.8273	-368.99
0.2539,0.7461	-363.20
0.3329,0.6671	-371.50
0.2335,0.7665	-366.35
0.1670,0.8330	-358.02
0.2672,0.7328	-368.59
0.2024,0.7976	-358.38
0.2872,0.7128	-371.43
0.3402,0.6598	-369.58
0.2370,0.7630	-366.35
0.1680,0.8320	-358.02
0.2549,0.7451	-365.37
0.2087,0.7913	-363.85
0.2970,0.7030	-372.26
0.3669,0.6331	-371.92
0.2687,0.7313	-369.59
0.1909,0.8091	-362.52
0.2347,0.7653	-361.62
0.1870,0.8130	-362.54
0.3046,0.6954	-365.61
0.3351,0.6649	-369.47
0.3357,0.6643	-372.21
0.1875,0.8125	-371.34
0.2355,0.7645	-365.18
0.1948,0.8052	-362.50
0.3128,0.6872	-365.89
0.3440,0.6560	-369.67
0.2868,0.7132	-365.06
0.2022,0.7978	-359.75
0.2232,0.7768	-361.40
0.1931,0.8069	-359.65
0.3244,0.6756	-368.51
0.3573,0.6427	-372.95
0.2930,0.7070	-368.76
0.1849,0.8151	-365.53
0.2394,0.7606	-368.67
0.1840,0.8160	-356.61
0.4119,0.5881	-373.19
0.3275,0.6725	-368.59
0.2935,0.7065	-363.50
0.1843,0.8157	-368.51
0.2327,0.7673	-359.20
0.1914,0.8086	-362.51
0.4127,0.5873	-371.80
0.3639,0.6361	-368.52
0.2908,0.7092	-368.74
0.1726,0.8274	-361.16
0.2330,0.7670	-366.35
0.1531,0.8469	-358.11
0.4535,0.5465	-374.39
0.3653,0.6347	-372.44
0.3151,0.6849	-365.97
0.1665,0.8335	-356.41
0.2134,0.7866	-363.85
0.1515,0.8485	-358.13
0.4611,0.5389	-374.11
0.3989,0.6011	-372.94
0.3158,0.6842	-370.63
0.1519,0.8481	-363.28
0.1784,0.8216	-358.05
0.1527,0.8473	-363.25
0.4675,0.5325	-375.00
0.3128,0.6872	-369.82
0.2937,0.7063	-369.65
0.1725,0.8275	-356.45
0.1779,0.8221	-367.23
0.1920,0.8080	-359.64
0.4430,0.5570	-374.38
0.2843,0.7157	-367.76
0.3261,0.6739	-367.10
0.1711,0.8289	-362.75
0.1882,0.8118	-359.61
0.2255,0.7745	-361.44
0.4567,0.5433	-373.08
0.2609,0.7391	-366.50
0.2938,0.7062	-367.89
0.1886,0.8114	-366.91
0.1696,0.8304	-359.60
0.2003,0.7997	-366.65
0.4575,0.5425	-374.48
0.2192,0.7808	-363.87
0.2899,0.7101	-366.04
0.2188,0.7812	-367.68
0.1414,0.8586	-363.72
0.1660,0.8340	-354.79
0.4503,0.5497	-373.32
0.2010,0.7990	-365.26
0.3590,0.6410	-369.48
0.1874,0.8126	-362.54
0.1592,0.8408	-366.37
0.1413,0.8587	-351.10
0.4858,0.5142	-375.41
0.2477,0.7523	-364.17
0.3374,0.6626	-369.52
0.1836,0.8164	-361.08
0.1710,0.8290	-361.17
0.1632,0.8368	-366.20
0.4655,0.5345	-375.24
0.2366,0.7634	-366.35
0.2933,0.7067	-367.01
0.2032,0.7968	-357.03
0.1656,0.8344	-362.87
0.2135,0.7865	-359.94
0.5195,0.4805	-376.38
0.2019,0.7981	-366.62
0.2758,0.7242	-362.83
0.1784,0.8216	-367.21
0.1795,0.8205	-364.14
0.1920,0.8080	-362.51
0.5302,0.4698	-376.07
0.1982,0.8018	-362.50
0.2396,0.7604	-359.43
0.1674,0.8326	-361.22
0.1582,0.8418	-359.73
0.2072,0.7928	-361.17
0.5049,0.4951	-375.74
0.1943,0.8057	-362.50
0.2682,0.7318	-372.60
0.1863,0.8137	-361.07
0.1284,0.8716	-360.63
0.2232,0.7768	-361.39
0.4294,0.5706	-372.73
0.2061,0.7939	-369.25
0.2563,0.7437	-360.06
0.1865,0.8135	-361.07
0.1432,0.8568	-365.43
0.2369,0.7631	-366.35
0.4688,0.5312	-374.39
0.2215,0.7785	-363.88
0.2275,0.7725	-367.59
0.1711,0.8289	-370.64
0.1327,0.8673	-366.07
0.2696,0.7304	-369.59
0.4648,0.5352	-375.09
0.1942,0.8058	-363.93
0.1853,0.8147	-365.52
0.1893,0.8107	-363.98
0.1367,0.8633	-356.59
0.2614,0.7386	-369.62
0.4887,0.5113	-375.32
0.1974,0.8026	-363.90
0.2112,0.7888	-359.90
0.2191,0.7809	-367.68
0.1582,0.8418	-363.07
0.2191,0.7809	-368.95
0.5159,0.4841	-376.37
0.1897,0.8103	-356.72
0.2575,0.7425	-364.34
0.2232,0.7768	-363.89
0.1586,0.8414	-358.05
0.2457,0.7543	-365.26
0.5415,0.4585	-376.92
0.2126,0.7874	-366.47
0.2864,0.7136	-366.87
0.2557,0.7443	-370.72
0.1539,0.8461	-359.80
0.2374,0.7626	-360.52
0.5423,0.4577	-377.46
0.2059,0.7941	-363.86
0.3293,0.6707	-367.92
0.2472,0.7528	-365.27
0.1559,0.8441	-366.52
0.2668,0.7332	-362.52
0.5652,0.4348	-376.18
0.1950,0.8050	-365.34
0.3053,0.6947	-371.39
0.2857,0.7143	-368.69
0.1355,0.8645	-365.88
0.2219,0.7781	-365.14
0.5581,0.4419	-377.97
0.1869,0.8131	-361.07
0.3364,0.6636	-368.82
0.2770,0.7230	-366.71
0.1201,0.8799	-361.08
0.2063,0.7937	-363.86
0.5910,0.4090	-375.82
0.1489,0.8511	-359.91
0.3127,0.6873	-367.46
0.2904,0.7096	-369.63
0.1220,0.8780	-355.05
0.1950,0.8050	-361.08
0.5255,0.4745	-376.30
0.1660,0.8340	-367.70
0.2711,0.7289	-369.59
0.2775,0.7225	-365.76
0.1211,0.8789	-361.02
0.1961,0.8039	-363.91
0.4407,0.5593	-374.10
0.1782,0.8218	-361.11
0.2657,0.7343	-362.48
0.3001,0.6999	-365.46
0.1036,0.8964	-366.64
0.2398,0.7602	-367.51
0.4056,0.5944	-372.68
0.1788,0.8212	-362.63
0.2248,0.7752	-361.42
0.2755,0.7245	-365.72
0.1285,0.8715	-364.46
0.2488,0.7512	-367.50
0.3562,0.6438	-371.17
0.1632,0.8368	-362.93
0.2106,0.7894	-367.81
0.2495,0.7505	-365.30
0.1227,0.8773	-358.96
0.2178,0.7822	-365.14
0.3842,0.6158	-373.64
0.1574,0.8426	-364.77
0.2135,0.7865	-365.16
0.2935,0.7065	-365.25
0.1286,0.8714	-358.71
0.2295,0.7705	-365.15
0.3741,0.6259	-368.44
0.1671,0.8329	-358.02
0.2210,0.7790	-362.62
0.2960,0.7040	-367.93
0.1468,0.8532	-361.72
0.2296,0.7704	-365.15
0.3715,0.6285	-374.09
0.1968,0.8032	-365.31
0.1992,0.8008	-359.71
0.2487,0.7513	-367.50
0.1463,0.8537	-365.27
0.2079,0.7921	-361.18
0.3954,0.6046	-371.18
0.1464,0.8536	-363.50
0.2084,0.7916	-361.18
0.2866,0.7134	-365.05
0.1334,0.8666	-362.28
0.2030,0.7970	-365.23
0.3667,0.6333	-369.18
0.1807,0.8193	-362.60
0.1831,0.8169	-368.56
0.3180,0.6820	-368.36
0.1150,0.8850	-363.45
0.2052,0.7948	-361.15
0.3415,0.6585	-370.27
0.1783,0.8217	-364.16
0.1372,0.8628	-365.78
0.2866,0.7134	-365.96
0.1029,0.8971	-358.06
0.2264,0.7736	-367.60
0.2550,0.7450	-368.58
0.1747,0.8253	-362.69
0.1528,0.8472	-354.68
0.2909,0.7091	-368.74
0.1160,0.8840	-357.28
0.2231,0.7769	-366.38
0.2020,0.7980	-367.99
0.1861,0.8139	-361.07
0.1553,0.8447	-358.08
0.2878,0.7122	-365.99
0.1203,0.8797	-357.09
0.2337,0.7663	-369.92
0.2205,0.7795	-361.35
0.1915,0.8085	-361.07
0.1208,0.8792	-359.06
0.2608,0.7392	-367.54
0.1483,0.8517	-361.67
0.2480,0.7520	-363.06
0.2377,0.7623	-361.69
0.2208,0.7792	-363.88
0.1475,0.8525	-354.68
0.2450,0.7550	-365.25
0.1229,0.8771	-366.82
0.2386,0.7614	-362.88
0.2104,0.7896	-363.85
0.2512,0.7488	-363.13
0.1580,0.8420	-364.75
0.2200,0.7800	-358.81
0.1182,0.8818	-363.21
0.2178,0.7822	-361.31
0.2189,0.7811	-361.32
0.2445,0.7555	-365.25
0.1891,0.8109	-362.53
0.2318,0.7682	-365.16
0.1214,0.8786	-357.05
0.2394,0.7606	-365.20
0.1841,0.8159	-364.06
0.2745,0.7255	-369.59
0.1458,0.8542	-358.22
0.2200,0.7800	-365.14
0.1288,0.8712	-364.44
0.2311,0.7689	-362.75
0.1974,0.8026	-363.90
0.2382,0.7618	-367.52
0.1648,0.8352	-364.51
0.2146,0.7854	-361.26
0.1479,0.8521	-365.19
0.2429,0.7571	-366.37
0.1994,0.8006	-363.89
0.2299,0.7701	-366.36
0.1984,0.8016	-366.69
0.2172,0.7828	-361.30
0.1250,0.8750	-360.80
0.2520,0.7480	-363.15
0.1730,0.8270	-361.15
0.2500,0.7500	-370.80
0.1810,0.8190	-361.09
0.2154,0.7846	-365.15
0.1504,0.8496	-363.34
0.2932,0.7068	-372.28
0.1610,0.8390	-359.69
0.2519,0.7481	-363.15
0.1435,0.8565	-358.26
0.1769,0.8231	-361.12
0.1830,0.8170	-364.07
0.3105,0.6895	-369.00
0.1863,0.8137	-365.50
0.2361,0.7639	-365.18
0.1723,0.8277	-364.30
0.1586,0.8414	-356.38
0.1959,0.8041	-365.32
0.2768,0.7232	-365.74
0.2073,0.7927	-357.15
0.2149,0.7851	-363.85
0.1938,0.8062	-363.93
0.1646,0.8354	-364.52
0.1978,0.8022	-365.30
0.2810,0.7190	-365.83
0.2348,0.7652	-363.99
0.2293,0.7707	-368.78
0.1765,0.8235	-361.12
0.1782,0.8218	-364.16
0.2025,0.7975	-363.87
0.2638,0.7362	-363.45
0.2107,0.7893	-363.85
0.2538,0.7462	-365.35
0.1950,0.8050	-359.67
0.1993,0.8007	-365.28
0.1581,0.8419	-361.40
0.2699,0.7301	-368.59
0.1690,0.8310	-361.20
0.2574,0.7426	-362.22
0.1680,0.8320	-362.81
0.1808,0.8192	-359.58
0.2310,0.7690	-365.15
0.3320,0.6680	-369.40
0.1353,0.8647	-360.33
0.2780,0.7220	-366.72
0.1607,0.8393	-366.30
0.1759,0.8241	-362.67
0.2517,0.7483	-359.88
0.3048,0.6952	-368.09
0.1467,0.8533	-359.96
0.3064,0.6936	-368.94
0.1847,0.8153	-355.14
0.2075,0.7925	-366.53
0.2399,0.7601	-364.05
0.3787,0.6213	-369.64
0.1714,0.8286	-367.47
0.2809,0.7191	-366.77
0.1958,0.8042	-356.85
0.2076,0.7924	-366.53
0.2497,0.7503	-367.50
0.3680,0.6320	-370.85
0.2132,0.7868	-363.85
0.2983,0.7017	-369.68
0.2275,0.7725	-373.70
0.2262,0.7738	-362.68
0.2414,0.7586	-366.36
0.3402,0.6598	-372.23
0.1889,0.8111	-361.07
0.3105,0.6895	-365.81
0.2118,0.7882	-358.59
0.2755,0.7245	-365.72
0.1992,0.8008	-362.50
0.3727,0.6273	-372.01
0.1849,0.8151	-359.59
0.3157,0.6843	-365.99
0.1856,0.8144	-359.60
0.2319,0.7681	-365.16
0.2018,0.7982	-361.12
0.4052,0.5948	-374.59
0.2233,0.7767	-366.38
0.3131,0.6869	-367.47
0.2123,0.7877	-359.92
0.2713,0.7287	-367.61
0.1970,0.8030	-362.50
0.4134,0.5866	-373.57
0.2546,0.7454	-364.29
0.2902,0.7098	-363.36
0.1715,0.8285	-359.59
0.2586,0.7414	-367.53
0.1926,0.8074	-362.51
0.4603,0.5397	-373.60
0.2505,0.7495	-368.60
0.3064,0.6936	-370.57
0.1942,0.8058	-358.23
0.2635,0.7365	-363.44
0.2111,0.7889	-363.85
0.4795,0.5205	-374.90
0.2567,0.7433	-367.52
0.3666,0.6334	-374.65
0.2147,0.7853	-363.85
0.2192,0.7808	-363.87
0.2024,0.7976	-372.10
0.3954,0.6046	-372.88
0.2548,0.7452	-362.14
0.3111,0.6889	-374.57
0.2188,0.7812	-360.05
0.1995,0.8005	-359.72
0.2177,0.7823	-360.02
0.3928,0.6072	-372.83
0.2295,0.7705	-359.09
0.2607,0.7393	-365.45
0.2118,0.7882	-365.16
0.2022,0.7978	-362.50
0.1987,0.8013	-359.71
0.3506,0.6494	-369.84
0.1832,0.8168	-365.57
0.2772,0.7228	-365.75
0.1910,0.8090	-362.52
0.1868,0.8132	-369.90
0.2227,0.7773	-366.39
0.3273,0.6727	-370.02
0.1955,0.8045	-365.33
0.3255,0.6745	-367.81
0.2179,0.7821	-360.03
0.1896,0.8104	-374.14
0.1971,0.8029	-359.69
0.2856,0.7144	-365.94
0.1764,0.8236	-361.12
0.3039,0.6961	-372.21
0.1891,0.8109	-369.80
0.2160,0.7840	-362.57
0.1941,0.8059	-361.08
0.3259,0.6741	-368.55
0.1930,0.8070	-359.65
0.3160,0.6840	-369.86
0.2330,0.7670	-363.97
0.2334,0.7666	-368.73
0.2214,0.7786	-363.88
0.3308,0.6692	-371.49
0.1785,0.8215	-371.79
0.2739,0.7261	-367.64
0.2448,0.7552	-361.87
0.2337,0.7663	-361.60
0.2672,0.7328	-370.60
0.3774,0.6226	-373.10
0.1802,0.8198	-365.64
0.2307,0.7693	-362.74
0.2433,0.7567	-367.50
0.2142,0.7858	-367.75
0.2975,0.7025	-367.10
0.3653,0.6347	-370.79
0.1746,0.8254	-364.24
0.2100,0.7900	-369.15
0.1998,0.8002	-363.88
0.2114,0.7886	-362.53
0.3090,0.6910	-364.15
0.3443,0.6557	-371.61
0.1984,0.8016	-363.89
0.2224,0.7776	-362.63
0.1880,0.8120	-364.00
0.2281,0.7719	-359.05
0.2656,0.7344	-366.55
0.3081,0.6919	-365.73
0.2238,0.7762	-365.14
0.1979,0.8021	-365.29
0.1924,0.8076	-366.81
0.2345,0.7655	-367.54
0.2536,0.7464	-364.27
0.3423,0.6577	-369.63
0.1991,0.8009	-356.93
0.2037,0.7963	-365.23
0.1901,0.8099	-361.07
0.2357,0.7643	-367.53
0.2296,0.7704	-367.57
0.3009,0.6991	-369.70
0.2211,0.7789	-365.14
0.2595,0.7405	-369.63
0.1760,0.8240	-359.58
0.2526,0.7474	-367.51
0.2312,0.7688	-362.75
0.3027,0.6973	-371.39
0.2153,0.7847	-367.74
0.3044,0.6956	-365.60
0.1707,0.8293	-362.76
0.2352,0.7648	-366.35
0.2397,0.7603	-365.20
0.2834,0.7166	-370.53
0.1537,0.8463	-359.80
0.2543,0.7457	-364.28
0.2004,0.7996	-362.50
0.2846,0.7154	-361.31
0.2194,0.7806	-367.68
0.2319,0.7681	-367.55
0.1611,0.8389	-361.33
0.2722,0.7278	-368.60
0.1890,0.8110	-368.35
0.2587,0.7413	-367.53
0.2192,0.7808	-361.33
0.2133,0.7867	-363.85
0.1794,0.8206	-361.10
0.2953,0.7047	-368.79
0.1941,0.8059	-359.66
0.2387,0.7613	-362.88
0.2157,0.7843	-362.57
0.2082,0.7918	-358.51
0.1992,0.8008	-369.45
0.2633,0.7367	-368.58
0.2508,0.7492	-363.13
0.2543,0.7457	-358.90
0.2492,0.7508	-367.50
0.1788,0.8212	-365.68
0.2230,0.7770	-367.63
0.2694,0.7306	-367.59
0.2876,0.7124	-368.71
0.2157,0.7843	-367.73
0.2339,0.7661	-371.10
0.1563,0.8437	-361.44
0.2105,0.7895	-363.85
0.2526,0.7474	-368.59
0.2963,0.7037	-371.40
0.2165,0.7835	-366.43
0.2374,0.7626	-365.19
0.1639,0.8361	-362.91
0.1993,0.8007	-361.10
0.2797,0.7203	-362.02
0.3026,0.6974	-366.38
0.2302,0.7698	-361.53
0.2448,0.7552	-368.63
0.1770,0.8230	-365.73
0.2018,0.7982	-363.87
0.2823,0.7177	-368.66
0.2887,0.7113	-371.42
0.2357,0.7643	-362.82
0.2435,0.7565	-365.24
0.1955,0.8045	-368.16
0.2542,0.7458	-368.59
0.2559,0.7441	-363.25
0.2665,0.7335	-369.60
0.2491,0.7509	-367.50
0.2054,0.7946	-366.56
0.2094,0.7906	-359.86
0.2434,0.7566	-365.23
0.2965,0.7035	-367.94
0.3070,0.6930	-370.57
0.2517,0.7483	-366.41
0.2052,0.7948	-359.80
0.1992,0.8008	-355.54
0.2620,0.7380	-368.58
0.2692,0.7308	-368.59
0.3000,0.7000	-368.85
0.2736,0.7264	-369.59
0.2009,0.7991	-369.40
0.1691,0.8309	-364.38
0.2417,0.7583	-362.93
0.2336,0.7664	-368.73
0.2939,0.7061	-373.16
0.2651,0.7349	-366.54
0.2228,0.7772	-366.39
0.2054,0.7946	-359.80
0.2459,0.7541	-361.90
0.2193,0.7807	-367.68
0.2672,0.7328	-362.53
0.2416,0.7584	-365.22
0.2039,0.7961	-358.41
0.1869,0.8131	-365.48
0.2328,0.7672	-360.39
0.1879,0.8121	-364.00
0.2789,0.7211	-364.84
0.2211,0.7789	-367.65
0.2294,0.7706	-365.15
0.2046,0.7954	-369.29
0.2387,0.7613	-358.24
0.1938,0.8062	-362.50
0.2806,0.7194	-365.82
0.2130,0.7870	-361.24
0.2217,0.7783	-368.90
0.1911,0.8089	-363.96
0.2523,0.7477	-367.50
0.2201,0.7799	-362.61
0.2825,0.7175	-365.87
0.2145,0.7855	-365.15
0.1841,0.8159	-356.61
0.2052,0.7948	-367.92
0.2286,0.7714	-365.14
0.2498,0.7502	-362.00
0.2338,0.7662	-366.35
0.2123,0.7877	-365.16
0.1644,0.8356	-369.40
0.1979,0.8021	-365.29
0.2075,0.7925	-358.49
0.2551,0.7449	-366.44
0.1989,0.8011	-365.28
0.2033,0.7967	-361.13
0.1386,0.8614	-356.56
0.1929,0.8071	-363.94
0.2383,0.7617	-364.03
0.2373,0.7627	-366.35
0.2045,0.7955	-369.29
0.2324,0.7676	-362.77
0.1515,0.8485	-359.85
0.1587,0.8413	-369.73
0.2448,0.7552	-367.50
0.2134,0.7866	-361.24
0.2251,0.7749	-358.96
0.2053,0.7947	-366.57
0.1468,0.8532	-352.92
0.1447,0.8553	-358.24
0.2115,0.7885	-361.22
0.2355,0.7645	-367.53
0.2112,0.7888	-366.49
0.2129,0.7871	-363.85
0.1550,0.8450	-364.87
0.1273,0.8727	-366.46
0.1879,0.8121	-359.61
0.2547,0.7453	-362.14
0.1864,0.8136	-365.49
0.2024,0.7976	-365.24
0.1617,0.8383	-361.32
0.1418,0.8582	-360.10
0.1933,0.8067	-363.93
0.2309,0.7691	-367.56
0.1857,0.8143	-361.07
0.2123,0.7877	-363.85
0.1684,0.8316	-366.00
0.1399,0.8601	-361.98
0.2203,0.7797	-363.87
0.2879,0.7121	-365.99
0.1732,0.8268	-362.71
0.2352,0.7648	-362.81
0.1562,0.8438	-359.76
0.1544,0.8456	-354.69
0.2003,0.7997	-362.50
0.2858,0.7142	-366.86
0.1658,0.8342	-362.86
0.2970,0.7030	-366.22
0.1701,0.8299	-356.43
0.1862,0.8138	-362.55
0.1962,0.8038	-370.96
0.3426,0.6574	-370.29
0.1992,0.8008	-363.89
0.2162,0.7838	-359.99
0.1694,0.8306	-362.79
0.2069,0.7931	-361.17
0.1926,0.8074	-368.24
0.3164,0.6836	-367.56
0.1913,0.8087	-356.75
0.1905,0.8095	-358.18
0.1758,0.8242	-354.94
0.2023,0.7977	-357.01
0.2184,0.7816	-366.42
0.2605,0.7395	-372.75
0.2242,0.7758	-363.90
0.1864,0.8136	-358.13
0.1579,0.8421	-359.73
0.1951,0.8049	-368.17
0.2117,0.7883	-363.85
0.3112,0.6888	-367.42
0.2499,0.7501	-366.40
0.1862,0.8138	-371.40
0.1900,0.8100	-361.07
0.2007,0.7993	-365.26
0.2297,0.7703	-363.94
0.2833,0.7167	-370.53
0.2385,0.7615	-365.19
0.1656,0.8344	-364.49
0.1840,0.8160	-362.57
0.2033,0.7967	-365.23
0.2409,0.7591	-362.92
0.3077,0.6923	-368.14
0.2217,0.7783	-366.39
0.1722,0.8278	-365.87
0.1593,0.8407	-359.71
0.2359,0.7641	-366.35
0.2814,0.7186	-366.78
0.2968,0.7032	-371.39
0.2564,0.7436	-362.19
0.1666,0.8334	-364.46
0.1647,0.8353	-362.89
0.2203,0.7797	-361.34
0.2717,0.7283	-367.61
0.2605,0.7395	-368.58
0.2419,0.7581	-362.94
0.1808,0.8192	-362.60
0.1777,0.8223	-358.05
0.2538,0.7462	-364.27
0.2297,0.7703	-365.15
0.2690,0.7310	-360.59
0.2243,0.7757	-361.41
0.1849,0.8151	-364.04
0.1764,0.8236	-364.20
0.2744,0.7256	-362.78
0.2303,0.7697	-361.53
0.2315,0.7685	-357.95
0.2310,0.7690	-361.54
0.1563,0.8437	-363.13
0.1817,0.8183	-362.59
0.2804,0.7196	-364.88
0.2318,0.7682	-363.96
0.2351,0.7649	-366.35
0.2328,0.7672	-362.78
0.1438,0.8562	-363.61
0.1865,0.8135	-364.02
0.3101,0.6899	-368.19
0.2203,0.7797	-365.14
0.2332,0.7668	-362.78
0.2199,0.7801	-370.20
0.1763,0.8237	-361.12
0.1628,0.8372	-367.85
0.3232,0.6768	-369.22
0.1939,0.8061	-361.08
0.2036,0.7964	-365.23
0.2707,0.7293	-364.63
0.2024,0.7976	-359.75
0.1503,0.8497	-354.68
0.2773,0.7227	-368.63
0.2244,0.7756	-365.14
0.2081,0.7919	-367.86
0.3031,0.6969	-367.22
0.2068,0.7932	-362.51
0.1328,0.8672	-366.06
0.2667,0.7333	-364.54
0.2052,0.7948	-367.92
0.2208,0.7792	-362.61
0.3036,0.6964	-368.89
0.2421,0.7579	-370.93
0.1705,0.8295	-362.76
0.3151,0.6849	-369.85
0.2386,0.7614	-365.20
0.2622,0.7378	-367.54
0.2930,0.7070	-367.88
0.2486,0.7514	-364.18
0.1923,0.8077	-365.38
0.2937,0.7063	-367.89
0.2763,0.7237	-367.66
0.2585,0.7415	-365.42
0.3011,0.6989	-368.86
0.2680,0.7320	-373.61
0.2083,0.7917	-365.19
0.2695,0.7305	-367.60
0.2788,0.7212	-367.69
0.2560,0.7440	-362.18
0.2843,0.7157	-367.75
0.2727,0.7273	-376.45
0.1862,0.8138	-362.55
0.2709,0.7291	-367.61
0.2818,0.7182	-365.85
0.1780,0.8220	-359.58
0.2077,0.7923	-365.19
0.2591,0.7409	-368.58
0.1829,0.8171	-362.58
0.2879,0.7121	-365.09
0.2619,0.7381	-365.47
0.2138,0.7862	-363.85
0.2096,0.7904	-365.18
0.2035,0.7965	-363.86
0.1944,0.8056	-362.50
0.2972,0.7028	-371.39
0.2906,0.7094	-370.52
0.1935,0.8065	-359.65
0.2160,0.7840	-362.57
0.1928,0.8072	-366.80
0.1936,0.8064	-361.08
0.2817,0.7183	-365.85
0.1917,0.8083	-361.07
0.1896,0.8104	-366.88
0.2133,0.7867	-362.55
0.1793,0.8207	-361.10
0.1770,0.8230	-359.58
0.3265,0.6735	-370.73
0.2391,0.7609	-366.36
0.1840,0.8160	-358.10
0.1932,0.8068	-359.65
0.1740,0.8260	-359.58
0.2021,0.7979	-370.74
0.2807,0.7193	-369.59
0.2239,0.7761	-363.89
0.1857,0.8143	-362.55
0.1873,0.8127	-362.54
0.1730,0.8270	-365.85
0.2199,0.7801	-360.07
0.3078,0.6922	-365.71
0.1835,0.8165	-364.07
0.1755,0.8245	-359.58
0.1836,0.8164	-364.06
0.1777,0.8223	-362.64
0.2020,0.7980	-359.75
0.2816,0.7184	-368.66
0.1872,0.8128	-359.60
0.1957,0.8043	-361.09
0.1854,0.8146	-364.03
0.1691,0.8309	-359.61
0.1916,0.8084	-362.51
0.3237,0.6763	-365.55
0.1978,0.8022	-362.50
0.1686,0.8314	-359.61
0.1752,0.8248	-364.23
0.1764,0.8236	-359.58
0.2003,0.7997	-363.88
0.2784,0.7216	-362.92
0.1767,0.8233	-361.12
0.1764,0.8236	-356.50
0.1746,0.8254	-364.24
0.2136,0.7864	-362.55
0.1916,0.8084	-366.83
0.2496,0.7504	-362.00
0.1736,0.8264	-361.15
0.1730,0.8270	-361.15
0.1671,0.8329	-364.44
0.2216,0.7784	-361.37
0.1653,0.8347	-354.78
0.2297,0.7703	-365.15
0.1790,0.8210	-361.10
0.1393,0.8607	-360.19
0.1690,0.8310	-361.20
0.1826,0.8174	-361.08
0.1780,0.8220	-361.11
0.2413,0.7587	-367.51
0.1916,0.8084	-366.83
0.1291,0.8709	-360.60
0.1570,0.8430	-368.15
0.2051,0.7949	-365.21
0.1733,0.8267	-370.52
0.2575,0.7425	-369.64
0.1838,0.8162	-364.06
0.1354,0.8646	-352.91
0.1437,0.8563	-358.26
0.2108,0.7892	-361.21
0.1509,0.8491	-359.86
0.2560,0.7440	-368.58
0.1680,0.8320	-366.02
0.1399,0.8601	-358.35
0.1722,0.8278	-362.73
0.2287,0.7713	-362.71
0.1509,0.8491	-361.59
0.2530,0.7470	-363.18
0.1572,0.8428	-359.74
0.1197,0.8803	-359.11
0.1966,0.8034	-363.91
0.2381,0.7619	-367.52
0.1303,0.8697	-354.85
0.1952,0.8048	-361.08
0.1458,0.8542	-356.45
0.1006,0.8994	-358.23
0.1711,0.8289	-358.02
0.2148,0.7852	-361.26
0.1848,0.8152	-361.08
0.2285,0.7715	-359.06
0.1543,0.8457	-356.39
0.0937,0.9063	-358.80
0.1551,0.8449	-359.78
0.2208,0.7792	-365.14
0.1831,0.8169	-358.09
0.2229,0.7771	-361.39
0.1306,0.8694	-354.84
0.0948,0.9052	-356.44
0.1545,0.8455	-364.89
0.2293,0.7707	-365.15
0.2091,0.7909	-365.18
0.2356,0.7644	-361.65
0.1422,0.8578	-361.89
0.0751,0.9249	-353.49
0.1513,0.8487	-354.68
0.2094,0.7906	-366.51
0.2539,0.7461	-364.27
0.2765,0.7235	-364.78
0.1445,0.8555	-361.80
0.1032,0.8968	-358.03
0.2006,0.7994	-362.50
0.2228,0.7772	-367.64
0.2740,0.7260	-362.76
0.2334,0.7666	-362.79
0.1526,0.8474	-361.54
0.0906,0.9094	-356.79
0.1940,0.8060	-369.63
0.1911,0.8089	-366.85
0.3200,0.6800	-369.91
0.2138,0.7862	-369.06
0.1285,0.8715	-370.20
0.1006,0.8994	-358.22
0.2420,0.7580	-366.36
0.2067,0.7933	-363.85
0.3178,0.6822	-369.12
0.2026,0.7974	-366.61
0.1590,0.8410	-358.05
0.1111,0.8889	-361.69
0.2806,0.7194	-367.71
0.1905,0.8095	-356.73
0.2744,0.7256	-369.59
0.2635,0.7365	-365.50
0.1316,0.8684	-368.03
0.1336,0.8664	-371.62
0.2322,0.7678	-367.55
0.2032,0.7968	-366.60
0.2323,0.7677	-367.55
0.2475,0.7525	-361.94
0.1247,0.8753	-354.97
0.1267,0.8733	-358.79
0.2286,0.7714	-363.93
0.2092,0.7908	-362.52
0.1978,0.8022	-363.90
0.1951,0.8049	-368.17
0.1459,0.8541	-363.52
0.1560,0.8440	-359.76
0.2336,0.7664	-365.16
0.2617,0.7383	-366.50
0.2068,0.7932	-362.51
0.1923,0.8077	-359.64
0.1724,0.8276	-351.75
0.1580,0.8420	-363.08
0.2477,0.7523	-366.39
0.2345,0.7655	-361.62
0.2033,0.7967	-367.96
0.1956,0.8044	-359.67
0.1931,0.8069	-359.65
0.1647,0.8353	-364.51
0.2146,0.7854	-367.75
0.2518,0.7482	-369.68
0.1768,0.8232	-362.66
0.1941,0.8059	-358.23
0.2001,0.7999	-369.43
0.1697,0.8303	-359.60
0.2282,0.7718	-371.24
0.2684,0.7316	-363.57
0.1743,0.8257	-359.58
0.2159,0.7841	-367.73
0.1953,0.8047	-365.33
0.1818,0.8182	-367.10
0.2575,0.7425	-371.76
0.2644,0.7356	-370.63
0.1887,0.8113	-363.99
0.2567,0.7433	-364.33
0.1841,0.8159	-361.08
0.1932,0.8068	-359.65
0.2538,0.7462	-366.43
0.2180,0.7820	-360.03
0.1844,0.8156	-365.54
0.2715,0.7285	-370.57
0.1644,0.8356	-358.02
0.2058,0.7942	-359.81
0.2263,0.7737	-367.60
0.2212,0.7788	-366.39
0.1973,0.8027	-358.29
0.2601,0.7399	-371.71
0.1719,0.8281	-361.16
0.2350,0.7650	-358.09
0.2443,0.7557	-367.50
0.2200,0.7800	-360.08
0.2212,0.7788	-365.14
0.2144,0.7856	-363.85
0.1827,0.8173	-365.58
0.2500,0.7500	-362.01
0.2400,0.7600	-365.21
0.2506,0.7494	-367.50
0.2612,0.7388	-362.34
0.2130,0.7870	-358.62
0.1495,0.8505	-365.11
0.2447,0.7553	-365.25
0.2122,0.7878	-359.92
0.2311,0.7689	-369.96
0.2761,0.7239	-365.73
0.2500,0.7500	-360.91
0.1823,0.8177	-373.09
0.2257,0.7743	-362.67
0.2014,0.7986	-362.50
0.2231,0.7769	-361.39
0.2563,0.7437	-372.84
0.2121,0.7879	-369.10
0.1652,0.8348	-358.02
0.2595,0.7405	-366.48
0.2085,0.7915	-358.52
0.2576,0.7424	-369.64
0.2574,0.7426	-366.46
0.1752,0.8248	-365.78
0.1669,0.8331	-361.23
0.2577,0.7423	-366.46
0.1749,0.8251	-365.79
0.2474,0.7526	-370.84
0.2294,0.7706	-365.15
0.1790,0.8210	-361.10
0.1741,0.8259	-359.58
0.2273,0.7727	-361.47
0.1463,0.8537	-367.03
0.2156,0.7844	-363.86
0.1740,0.8260	-361.14
0.1478,0.8522	-358.18
0.2181,0.7819	-363.86
0.2174,0.7826	-365.14
0.1389,0.8611	-354.73
0.2048,0.7952	-361.15
0.1874,0.8126	-366.94
0.1224,0.8776	-360.95
0.2684,0.7316	-366.58
0.2180,0.7820	-362.59
0.1202,0.8798	-363.07
0.1718,0.8282	-362.74
0.2022,0.7978	-357.01
0.1141,0.8859	-353.28
0.3013,0.6987	-369.70
0.2131,0.7869	-358.62
0.1158,0.8842	-355.26
0.1814,0.8186	-365.61
0.1768,0.8232	-358.04
0.1201,0.8799	-361.08
0.2686,0.7314	-363.58
0.2311,0.7689	-368.76
0.1135,0.8865	-355.35
0.1938,0.8062	-363.93
0.1951,0.8049	-359.67
0.1187,0.8813	-355.16
0.3151,0.6849	-369.07
0.2170,0.7830	-362.58
0.1114,0.8886	-357.52
0.2394,0.7606	-360.58
0.2080,0.7920	-362.52
0.1388,0.8612	-356.55
0.3174,0.6826	-368.35
0.2024,0.7976	-362.50
0.1128,0.8872	-355.38
0.2242,0.7758	-366.38
0.2378,0.7622	-361.70
0.1214,0.8786	-366.94
0.2368,0.7632	-362.84
0.1957,0.8043	-366.74
0.1264,0.8736	-362.66
0.2391,0.7609	-369.83
0.2324,0.7676	-362.77
0.1397,0.8603	-363.81
0.2368,0.7632	-365.18
0.1677,0.8323	-358.02
0.1735,0.8265	-361.15
0.1962,0.8038	-366.73
0.2107,0.7893	-359.89
0.1526,0.8474	-356.40
0.2280,0.7720	-363.92
0.1623,0.8377	-359.67
0.1843,0.8157	-356.61
0.2067,0.7933	-366.54
0.2398,0.7602	-369.82
0.1286,0.8714	-364.45
0.2278,0.7722	-363.92
0.1703,0.8297	-359.60
0.1732,0.8268	-359.59
0.2136,0.7864	-366.46
0.2480,0.7520	-364.17
0.1612,0.8388	-358.03
0.1651,0.8349	-356.40
0.1859,0.8141	-359.60
0.1816,0.8184	-359.58
0.2419,0.7581	-362.94
0.2176,0.7824	-365.14
0.1775,0.8225	-370.31
0.1506,0.8494	-359.87
0.1920,0.8080	-365.39
0.2035,0.7965	-362.50
0.1963,0.8037	-366.73
0.2228,0.7772	-365.14
0.1785,0.8215	-362.63
0.1270,0.8730	-354.92
0.2002,0.7998	-362.50
0.2060,0.7940	-365.20
0.1579,0.8421	-358.06
0.2319,0.7681	-365.16
0.1740,0.8260	-359.58
0.1377,0.8623	-362.08
0.2262,0.7738	-360.22
0.2992,0.7008	-371.39
0.1459,0.8541	-361.75
0.2357,0.7643	-368.71
0.1714,0.8286	-362.75
0.1418,0.8582	-356.50
0.2228,0.7772	-361.39
0.2401,0.7599	-368.66
0.1538,0.8462	-364.92
0.2521,0.7479	-369.68
0.1973,0.8027	-365.30
0.1769,0.8231	-359.58
0.2724,0.7276	-370.57
0.2171,0.7829	-363.86
0.1722,0.8278	-365.87
0.2745,0.7255	-365.70
0.2042,0.7958	-362.50
0.1785,0.8215	-376.37
0.2465,0.7535	-368.62
0.1894,0.8106	-363.98
0.2176,0.7824	-363.86
0.2890,0.7110	-372.32
0.1953,0.8047	-359.67
0.2242,0.7758	-366.38
0.2901,0.7099	-366.94
0.2141,0.7859	-363.85
0.2038,0.7962	-358.41
0.3089,0.6911	-367.36
0.1558,0.8442	-361.45
0.2420,0.7580	-364.08
0.2812,0.7188	-368.65
0.2597,0.7403	-362.29
0.1837,0.8163	-365.55
0.3040,0.6960	-371.39
0.1754,0.8246	-361.13
0.2145,0.7855	-366.45
0.2797,0.7203	-367.70
0.2538,0.7462	-365.35
0.1739,0.8261	-359.58
0.3044,0.6956	-368.08
0.2010,0.7990	-366.64
0.2190,0.7810	-360.05
0.2778,0.7222	-364.81
0.2428,0.7572	-360.68
0.2102,0.7898	-363.85
0.2927,0.7073	-367.88
0.2002,0.7998	-361.11
0.2219,0.7781	-362.63
0.3168,0.6832	-369.10
0.2260,0.7740	-362.68
0.1948,0.8052	-369.60
0.3472,0.6528	-368.49
0.1878,0.8122	-364.00
0.2071,0.7929	-361.17
0.3005,0.6995	-368.85
0.2117,0.7883	-365.16
0.1885,0.8115	-362.53
0.3323,0.6677	-372.90
0.1945,0.8055	-365.34
0.2258,0.7742	-361.44
0.3452,0.6548	-368.42
0.2011,0.7989	-368.01
0.1865,0.8135	-369.91
0.3169,0.6831	-369.11
0.2084,0.7916	-366.52
0.2817,0.7183	-362.10
0.3475,0.6525	-371.65
0.2096,0.7904	-362.52
0.2185,0.7815	-360.04
0.3816,0.6184	-373.14
0.2420,0.7580	-364.08
0.2840,0.7160	-365.90
0.3718,0.6282	-372.52
0.2357,0.7643	-360.47
0.2158,0.7842	-362.57
0.3426,0.6574	-369.64
0.2393,0.7607	-362.89
0.3251,0.6749	-369.99
0.3446,0.6554	-367.76
0.2446,0.7554	-365.25
0.1757,0.8243	-362.67
0.3347,0.6653	-368.08
0.3127,0.6873	-365.10
0.3272,0.6728	-369.30
0.2885,0.7115	-365.11
0.2382,0.7618	-364.03
0.1512,0.8488	-361.58
0.3480,0.6520	-370.40
0.3376,0.6624	-370.20
0.3469,0.6531	-371.64
0.2459,0.7541	-363.02
0.2343,0.7657	-360.43
0.2165,0.7835	-369.00
0.3335,0.6665	-368.74
0.2541,0.7459	-363.20
0.3603,0.6397	-367.80
0.2720,0.7280	-369.59
0.2312,0.7688	-365.15
0.2260,0.7740	-363.91
0.3424,0.6576	-374.20
0.2802,0.7198	-362.99
0.3319,0.6681	-370.80
0.2541,0.7459	-365.35
0.2420,0.7580	-361.80
0.2117,0.7883	-359.91
0.3358,0.6642	-368.12
0.3001,0.6999	-363.77
0.3902,0.6098	-370.56
0.2446,0.7554	-366.37
0.2846,0.7154	-365.92
0.2320,0.7680	-365.16
0.3108,0.6892	-369.00
0.3095,0.6905	-368.98
0.3359,0.6641	-372.21
0.2619,0.7381	-363.40
0.2324,0.7676	-362.77
0.2092,0.7908	-358.53
0.2884,0.7116	-366.00
0.2921,0.7079	-366.98
0.3228,0.6772	-368.47
0.2429,0.7571	-370.91
0.1996,0.8004	-363.88
0.2235,0.7765	-361.40
0.2830,0.7170	-366.81
0.2841,0.7159	-365.90
0.2835,0.7165	-364.04
0.1927,0.8073	-361.08
0.2130,0.7870	-363.85
0.2211,0.7789	-363.88
0.2790,0.7210	-368.64
0.2991,0.7009	-366.28
0.2893,0.7107	-365.13
0.2062,0.7938	-362.51
0.2179,0.7821	-365.14
0.2367,0.7633	-368.70
0.2514,0.7486	-365.32
0.3151,0.6849	-365.19
0.2829,0.7171	-367.74
0.2026,0.7974	-362.50
0.2017,0.7983	-365.25
0.2108,0.7892	-362.53
0.2652,0.7348	-365.52
0.3101,0.6899	-364.99
0.2480,0.7520	-369.72
0.1946,0.8054	-359.66
0.2228,0.7772	-361.39
0.2325,0.7675	-362.77
0.2511,0.7489	-369.69
0.3043,0.6957	-368.08
0.3034,0.6966	-366.40
0.1529,0.8471	-358.11
0.2133,0.7867	-359.94
0.2498,0.7502	-371.90
0.2391,0.7609	-361.73
0.2873,0.7127	-365.98
0.2999,0.7001	-369.69
0.1405,0.8595	-360.15
0.2452,0.7548	-361.88
0.2179,0.7821	-366.42
0.2044,0.7956	-362.50
0.2256,0.7744	-367.60
0.2621,0.7379	-362.37
0.1564,0.8436	-361.44
0.2481,0.7519	-361.96
0.2501,0.7499	-364.21
0.2182,0.7818	-362.59
0.2457,0.7543	-367.50
0.2800,0.7200	-364.87
0.1508,0.8492	-359.86
0.2905,0.7095	-368.74
0.3016,0.6984	-372.23
0.2253,0.7747	-363.90
0.2353,0.7647	-361.64
0.2501,0.7499	-365.31
0.1466,0.8534	-363.49
0.2821,0.7179	-368.66
0.2988,0.7012	-367.13
0.2567,0.7433	-370.71
0.2032,0.7968	-363.87
0.2771,0.7229	-363.83
0.1761,0.8239	-362.67
0.2448,0.7552	-369.75
0.2912,0.7088	-367.85
0.2446,0.7554	-362.99
0.2070,0.7930	-359.83
0.2699,0.7301	-364.61
0.1709,0.8291	-361.18
0.2551,0.7449	-365.37
0.2857,0.7143	-365.03
0.2269,0.7731	-359.01
0.1967,0.8033	-354.05
0.2736,0.7264	-366.66
0.1528,0.8472	-364.96
0.2511,0.7489	-366.41
0.2915,0.7085	-369.63
0.2333,0.7667	-365.16
0.1837,0.8163	-361.08
0.2621,0.7379	-365.47
0.1701,0.8299	-364.36
0.2825,0.7175	-368.66
0.3240,0.6760	-370.71
0.1789,0.8211	-364.15
0.1857,0.8143	-358.12
0.2577,0.7423	-364.35
0.1753,0.8247	-358.03
0.2960,0.7040	-363.60
0.2831,0.7169	-368.67
0.1851,0.8149	-361.08
0.1938,0.8062	-362.50
0.2247,0.7753	-365.14
0.1731,0.8269	-364.28
0.2623,0.7377	-367.54
0.2752,0.7248	-362.81
0.1866,0.8134	-361.07
0.2145,0.7855	-359.96
0.2039,0.7961	-362.50
0.1867,0.8133	-362.54
0.2158,0.7842	-365.15
0.2652,0.7348	-368.58
0.1751,0.8249	-362.68
0.2036,0.7964	-361.14
0.1986,0.8014	-365.29
0.1738,0.8262	-367.38
0.1946,0.8054	-359.66
0.2632,0.7368	-362.40
0.2204,0.7796	-363.87
0.2180,0.7820	-363.86
0.1825,0.8175	-362.58
0.1952,0.8048	-361.08
0.1809,0.8191	-362.60
0.2327,0.7673	-365.16
0.2416,0.7584	-362.93
0.2225,0.7775	-365.14
0.1707,0.8293	-365.92
0.2333,0.7667	-367.54
0.1656,0.8344	-358.02
0.2295,0.7705	-367.57
0.2390,0.7610	-360.56
0.2245,0.7755	-363.90
0.1484,0.8516	-358.17
0.1936,0.8064	-365.36
0.1403,0.8597	-369.22
0.1837,0.8163	-362.57
0.2313,0.7687	-365.15
0.2069,0.7931	-358.48
0.1358,0.8642	-354.76
0.2012,0.7988	-361.12
0.1471,0.8529	-363.47
0.2154,0.7846	-370.32
0.2523,0.7477	-366.42
0.2526,0.7474	-363.17
0.1434,0.8566	-356.48
0.1847,0.8153	-367.01
0.1588,0.8412	-363.05
0.2108,0.7892	-363.85
0.2487,0.7513	-360.87
0.2455,0.7545	-368.62
0.1573,0.8427	-363.10
0.1637,0.8363	-362.92
0.1394,0.8606	-363.82
0.2495,0.7505	-365.30
0.2095,0.7905	-366.51
0.2311,0.7689	-362.75
0.1507,0.8493	-363.33
0.1508,0.8492	-356.41
0.1415,0.8585	-365.52
0.2454,0.7546	-361.88
0.2379,0.7621	-368.68
0.2208,0.7792	-360.09
0.1426,0.8574	-365.46
0.1643,0.8357	-358.02
0.1915,0.8085	-362.51
0.2310,0.7690	-366.36
0.2158,0.7842	-365.15
0.2117,0.7883	-363.85
0.1509,0.8491	-359.86
0.1686,0.8314	-364.40
0.2209,0.7791	-366.40
0.2223,0.7777	-368.89
0.2147,0.7853	-369.04
0.2335,0.7665	-366.35
0.1449,0.8551	-361.79
0.1613,0.8387	-362.98
0.2125,0.7875	-363.85
0.2444,0.7556	-368.63
0.1948,0.8052	-361.08
0.1850,0.8150	-359.59
0.1771,0.8229	-370.33
0.1715,0.8285	-356.44
0.1797,0.8203	-361.10
0.2294,0.7706	-363.94
0.2136,0.7864	-361.25
0.1736,0.8264	-356.46
0.1567,0.8433	-358.07
0.1765,0.8235	-358.04
0.2092,0.7908	-363.85
0.2255,0.7745	-361.44
0.2018,0.7982	-366.62
0.2113,0.7887	-362.53
0.1730,0.8270	-362.72
0.1848,0.8152	-361.08
0.1591,0.8409	-356.38
0.2238,0.7762	-360.16
0.1779,0.8221	-362.64
0.1863,0.8137	-366.97
0.1758,0.8242	-356.49
0.1721,0.8279	-361.16
0.1587,0.8413	-369.73
0.2288,0.7712	-363.93
0.2126,0.7874	-367.78
0.2145,0.7855	-370.34
0.1538,0.8462	-359.80
0.2131,0.7869	-365.16
0.1697,0.8303	-359.60
0.2378,0.7622	-368.68
0.1920,0.8080	-359.64
0.2228,0.7772	-362.64
0.1549,0.8451	-363.17
0.1837,0.8163	-364.06
0.1670,0.8330	-361.23
0.2153,0.7847	-363.86
0.1837,0.8163	-364.06
0.2128,0.7872	-361.23
0.1478,0.8522	-361.69
0.1487,0.8513	-365.14
0.1698,0.8302	-365.95
0.2261,0.7739	-371.29
0.1712,0.8288	-356.44
0.1771,0.8229	-356.51
0.1458,0.8542	-356.45
0.1317,0.8683	-366.14
0.1453,0.8547	-361.77
0.2454,0.7546	-361.88
0.1663,0.8337	-356.40
0.1774,0.8226	-358.04
0.1692,0.8308	-354.83
0.1380,0.8620	-356.57
0.1374,0.8626	-358.42
0.2630,0.7370	-362.40
0.1905,0.8095	-359.63
0.1942,0.8058	-359.66
0.1699,0.8301	-358.02
0.1325,0.8675	-360.45
0.1489,0.8511	-358.16
0.2742,0.7258	-364.72
0.1862,0.8138	-362.55
0.1347,0.8653	-360.35
0.1609,0.8391	-361.34
0.1351,0.8649	-360.34
0.1464,0.8536	-359.97
0.3048,0.6952	-366.44
0.1754,0.8246	-358.03
0.1254,0.8746	-362.73
0.1987,0.8013	-363.89
0.1419,0.8581	-363.70
0.1452,0.8548	-363.55
0.2989,0.7011	-366.27
0.1708,0.8292	-361.18
0.1391,0.8609	-367.48
0.2154,0.7846	-365.15
0.1357,0.8643	-365.87
0.1676,0.8324	-366.03
0.2706,0.7294	-370.58
0.1942,0.8058	-368.20
0.1515,0.8485	-366.74
0.2141,0.7859	-366.45
0.1684,0.8316	-367.60
0.1727,0.8273	-359.59
0.2769,0.7231	-364.79
0.2271,0.7729	-365.14
0.1546,0.8454	-371.68
0.2149,0.7851	-365.15
0.1781,0.8219	-361.11
0.1785,0.8215	-367.21
0.2075,0.7925	-367.87
0.2431,0.7569	-364.10
0.1691,0.8309	-362.79
0.2261,0.7739	-366.37
0.2086,0.7914	-362.52
0.1907,0.8093	-361.07
0.1954,0.8046	-363.92
0.2419,0.7581	-370.93
0.1460,0.8540	-359.98
0.2183,0.7817	-363.86
0.2108,0.7892	-363.85
0.2072,0.7928	-362.51
0.2188,0.7812	-361.32
0.2399,0.7601	-361.74
0.1498,0.8502	-356.41
0.2004,0.7996	-365.26
0.2049,0.7951	-365.22
0.2187,0.7813	-363.87
0.2099,0.7901	-361.20
0.2669,0.7331	-372.63
0.1623,0.8377	-362.95
0.2249,0.7751	-370.09
0.2156,0.7844	-359.98
0.2402,0.7598	-366.36
0.2233,0.7767	-361.40
0.2373,0.7627	-361.68
0.2087,0.7913	-366.52
0.2204,0.7796	-363.87
0.1953,0.8047	-359.67
0.2811,0.7189	-367.71
0.1836,0.8164	-364.06
0.2187,0.7813	-362.59
0.1732,0.8268	-361.15
0.1931,0.8069	-359.65
0.2627,0.7373	-361.35
0.2829,0.7171	-364.95
0.1858,0.8142	-368.46
0.2067,0.7933	-365.20
0.1673,0.8327	-367.65
0.2413,0.7587	-360.64
0.2597,0.7403	-367.53
0.2556,0.7444	-370.72
0.1597,0.8403	-358.04
0.2498,0.7502	-360.90
0.1785,0.8215	-359.58
0.1971,0.8029	-362.50
0.2251,0.7749	-366.37
0.2778,0.7222	-366.72
0.1435,0.8565	-360.05
0.2324,0.7676	-362.77
0.1952,0.8048	-359.67
0.2245,0.7755	-372.57
0.2677,0.7323	-370.60
0.2812,0.7188	-370.53
0.1457,0.8543	-368.84
0.3222,0.6778	-368.46
0.2550,0.7450	-367.51
0.2726,0.7274	-362.72
0.2562,0.7438	-366.45
0.3027,0.6973	-371.39
0.1458,0.8542	-359.99
0.2528,0.7472	-364.25
0.2796,0.7204	-364.86
0.2750,0.7250	-366.68
0.2414,0.7586	-367.51
0.3229,0.6771	-370.70
0.1525,0.8475	-359.83
0.2642,0.7358	-361.41
0.2433,0.7567	-361.83
0.3033,0.6967	-368.89
0.2402,0.7598	-361.75
0.3096,0.6904	-367.38
0.1542,0.8458	-361.50
0.2673,0.7327	-367.58
0.2178,0.7822	-362.58
0.3127,0.6873	-367.46
0.2328,0.7672	-362.78
0.3380,0.6620	-368.19
0.1213,0.8787	-361.01
0.2385,0.7615	-364.03
0.2125,0.7875	-367.78
0.2876,0.7124	-368.71
0.1917,0.8083	-366.83
0.3166,0.6834	-370.64
0.1362,0.8638	-358.45
0.2420,0.7580	-366.36
0.1871,0.8129	-365.48
0.2954,0.7046	-367.05
0.2069,0.7931	-363.85
0.3290,0.6710	-372.90
0.1534,0.8466	-358.10
0.2616,0.7384	-366.50
0.2147,0.7853	-361.26
0.2502,0.7498	-363.11
0.2595,0.7405	-364.38
0.3109,0.6891	-369.80
0.1597,0.8403	-361.36
0.2540,0.7460	-369.66
0.1763,0.8237	-362.66
0.2075,0.7925	-358.49
0.2988,0.7012	-363.71
0.2509,0.7491	-362.03
0.1301,0.8699	-358.65
0.2017,0.7983	-362.50
0.2212,0.7788	-362.62
0.2005,0.7995	-362.50
0.2900,0.7100	-366.94
0.2140,0.7860	-363.85
0.1269,0.8731	-358.78
0.2263,0.7737	-370.06
0.2208,0.7792	-365.14
0.1803,0.8197	-359.58
0.2404,0.7596	-359.46
0.2207,0.7793	-363.88
0.1263,0.8737	-356.87
0.2094,0.7906	-361.19
0.2142,0.7858	-362.55
0.1685,0.8315	-362.80
0.2756,0.7244	-361.85
0.2299,0.7701	-363.94
0.1186,0.8814	-359.17
0.2168,0.7832	-369.00
0.2260,0.7740	-365.14
0.1655,0.8345	-361.25
0.2582,0.7418	-365.41
0.1901,0.8099	-353.82
0.1347,0.8653	-356.64
0.2525,0.7475	-366.42
0.2673,0.7327	-367.58
0.1517,0.8483	-361.57
0.2720,0.7280	-370.57
0.1955,0.8045	-365.33
0.1333,0.8667	-362.29
0.2180,0.7820	-360.03
0.2391,0.7609	-368.67
0.1704,0.8296	-365.93
0.3038,0.6962	-370.56
0.1813,0.8187	-359.58
0.1644,0.8356	-362.90
0.2501,0.7499	-366.40
0.2303,0.7697	-361.53
0.1749,0.8251	-356.48
0.3167,0.6833	-367.57
0.1992,0.8008	-365.28
0.1545,0.8455	-359.79
0.2575,0.7425	-366.46
0.2001,0.7999	-361.11
0.1441,0.8559	-356.47
0.3126,0.6874	-372.18
0.1935,0.8065	-365.36
0.1328,0.8672	-354.80
0.2643,0.7357	-369.60
0.2108,0.7892	-365.17
0.1350,0.8650	-360.34
0.3397,0.6603	-369.57
0.1852,0.8148	-362.56
0.1469,0.8531	-358.20
0.2874,0.7126	-365.98
0.1854,0.8146	-359.59
0.1579,0.8421	-366.43
0.3710,0.6290	-371.46
0.1872,0.8128	-362.54
0.1799,0.8201	-361.10
0.2472,0.7528	-370.84
0.1893,0.8107	-358.16
0.1879,0.8121	-365.46
0.4081,0.5919	-373.49
0.2129,0.7871	-367.77
0.2066,0.7934	-369.24
0.2565,0.7435	-368.58
0.1661,0.8339	-364.47
0.2038,0.7962	-363.86
0.4250,0.5750	-372.57
0.2011,0.7989	-365.26
0.2273,0.7727	-365.14
0.2352,0.7648	-362.82
0.1723,0.8277	-361.16
0.1967,0.8033	-362.50
0.3597,0.6403	-371.81
0.1762,0.8238	-362.66
0.2458,0.7542	-361.90
0.2848,0.7152	-367.76
0.1786,0.8214	-364.16
0.1887,0.8113	-365.45
0.3334,0.6666	-368.74
0.1706,0.8294	-361.18
0.2243,0.7757	-362.66
0.2838,0.7162	-374.23
0.1650,0.8350	-362.88
0.1921,0.8079	-361.07
0.3278,0.6722	-367.88
0.1894,0.8106	-361.07
0.2353,0.7647	-362.82
0.2596,0.7404	-362.29
0.1908,0.8092	-359.63
0.1983,0.8017	-361.10
0.3058,0.6942	-365.65
0.1931,0.8069	-371.09
0.2765,0.7235	-363.82
0.2530,0.7470	-364.26
0.2019,0.7981	-361.12
0.1917,0.8083	-365.39
0.2020,0.7980	-362.50
0.1746,0.8254	-364.24
0.2852,0.7148	-366.85
0.2933,0.7067	-365.25
0.2155,0.7845	-366.44
0.2024,0.7976	-365.24
0.2130,0.7870	-361.24
0.1897,0.8103	-361.07
0.2832,0.7168	-369.60
0.2916,0.7084	-371.41
0.2171,0.7829	-374.12
0.1937,0.8063	-359.65
0.2031,0.7969	-366.60
0.2059,0.7941	-365.21
0.2720,0.7280	-370.57
0.2576,0.7424	-362.23
0.1919,0.8081	-361.07
0.2171,0.7829	-360.01
0.2476,0.7524	-365.28
0.1777,0.8223	-359.58
0.2719,0.7281	-366.63
0.2176,0.7824	-366.42
0.2187,0.7813	-361.32
0.2360,0.7640	-359.30
0.2731,0.7269	-364.69
0.1762,0.8238	-359.58
0.2850,0.7150	-369.60
0.2289,0.7711	-363.93
0.2281,0.7719	-365.14
0.2073,0.7927	-363.85
0.2910,0.7090	-370.52
0.1798,0.8202	-355.03
0.2787,0.7213	-367.69
0.1976,0.8024	-362.50
0.2077,0.7923	-363.85
0.1921,0.8079	-362.51
0.2976,0.7024	-364.52
0.1905,0.8095	-362.52
0.2487,0.7513	-367.50
0.1933,0.8067	-359.65
0.1987,0.8013	-363.89
0.2011,0.7989	-368.01
0.2962,0.7038	-373.13
0.2376,0.7624	-369.85
0.2983,0.7017	-370.54
0.2159,0.7841	-363.86
0.1895,0.8105	-359.62
0.2117,0.7883	-362.54
0.3441,0.6559	-369.03
0.2412,0.7588	-369.80
0.3037,0.6963	-368.90
0.1980,0.8020	-373.69
0.1793,0.8207	-365.66
0.2281,0.7719	-359.05
0.3262,0.6738	-370.01
0.2433,0.7567	-367.50
0.2829,0.7171	-366.81
0.1816,0.8184	-359.58
0.1875,0.8125	-362.54
0.2362,0.7638	-364.01
0.2704,0.7296	-360.65
0.2324,0.7676	-368.74
0.2487,0.7513	-359.76
0.1818,0.8182	-358.08
0.1855,0.8145	-358.12
0.2452,0.7548	-365.25
0.2715,0.7285	-370.57
0.2284,0.7716	-362.71
0.2264,0.7736	-362.68
0.2224,0.7776	-368.89
0.1778,0.8222	-365.70
0.2688,0.7312	-363.59
0.2817,0.7183	-368.66
0.2421,0.7579	-364.08
0.1938,0.8062	-362.50
0.2298,0.7702	-362.73
0.1402,0.8598	-356.53
0.2320,0.7680	-366.35
0.3059,0.6941	-368.93
0.2185,0.7815	-367.69
0.1860,0.8140	-361.07
0.2337,0.7663	-365.16
0.1471,0.8529	-363.47
0.2476,0.7524	-359.72
0.2546,0.7454	-364.29
0.2511,0.7489	-364.23
0.1714,0.8286	-356.44
0.2010,0.7990	-355.60
0.1698,0.8302	-361.19
0.2291,0.7709	-365.15
0.1992,0.8008	-359.71
0.2733,0.7267	-371.54
0.1560,0.8440	-358.07
0.1625,0.8375	-354.75
0.1658,0.8342	-359.63
0.2427,0.7573	-366.37
0.1340,0.8660	-354.79
0.2791,0.7209	-368.64
0.1690,0.8310	-362.79
0.1719,0.8281	-359.59
0.1859,0.8141	-364.03
0.2382,0.7618	-362.87
0.1315,0.8685	-360.49
0.2655,0.7345	-365.53
0.1661,0.8339	-362.86
0.1932,0.8068	-356.79
0.1794,0.8206	-364.14
0.2046,0.7954	-359.79
0.1422,0.8578	-358.30
0.2991,0.7009	-367.98
0.1339,0.8661	-365.99
0.2386,0.7614	-367.52
0.2104,0.7896	-359.88
0.1679,0.8321	-356.42
0.1379,0.8621	-360.23
0.3009,0.6991	-367.17
0.1473,0.8527	-356.44
0.1937,0.8063	-363.93
0.2307,0.7693	-365.15
0.1876,0.8124	-362.54
0.1666,0.8334	-362.85
0.3391,0.6609	-373.56
0.1490,0.8510	-361.65
0.1887,0.8113	-356.70
0.2367,0.7633	-359.33
0.2244,0.7756	-361.42
0.2022,0.7978	-362.50
0.3378,0.6622	-370.87
0.1781,0.8219	-365.70
0.2007,0.7993	-361.11
0.2422,0.7578	-365.22
0.2215,0.7785	-367.65
0.1889,0.8111	-365.44
0.3465,0.6535	-371.64
0.1789,0.8211	-362.63
0.2093,0.7907	-362.52
0.2306,0.7694	-363.95
0.2082,0.7918	-365.19
0.1997,0.8003	-363.88
0.3248,0.6752	-368.52
0.1551,0.8449	-359.78
0.1999,0.8001	-359.72
0.2921,0.7079	-366.10
0.2118,0.7882	-363.85
0.2065,0.7935	-361.16
0.3320,0.6680	-375.69
0.1804,0.8196	-362.61
0.1938,0.8062	-362.50
0.3328,0.6672	-368.72
0.1946,0.8054	-359.66
0.1903,0.8097	-362.52
0.3249,0.6751	-370.72
0.1620,0.8380	-367.89
0.2124,0.7876	-363.85
0.3361,0.6639	-367.45
0.1826,0.8174	-367.08
0.2348,0.7652	-366.35
0.2760,0.7240	-366.69
0.2011,0.7989	-359.74
0.1838,0.8162	-362.57
0.3328,0.6672	-370.81
0.1587,0.8413	-353.05
0.2201,0.7799	-362.61
0.2784,0.7216	-368.64
0.2307,0.7693	-361.54
0.2266,0.7734	-365.14
0.2317,0.7683	-362.76
0.1536,0.8464	-364.92
0.1919,0.8081	-362.51
0.2545,0.7455	-365.36
0.2310,0.7690	-362.75
0.2008,0.7992	-365.26
0.2024,0.7976	-366.61
0.1658,0.8342	-361.25
0.1654,0.8346	-361.25
0.3011,0.6989	-367.18
0.1798,0.8202	-364.13
0.2424,0.7576	-365.23
0.2036,0.7964	-363.86
0.2132,0.7868	-367.77
0.1885,0.8115	-358.15
0.3226,0.6774	-370.69
0.1851,0.8149	-356.63
0.2129,0.7871	-369.08
0.2131,0.7869	-365.16
0.2212,0.7788	-363.88
0.1388,0.8612	-363.85
0.3164,0.6836	-372.18
0.1563,0.8437	-364.81
0.2070,0.7930	-359.82
0.1816,0.8184	-361.09
0.2804,0.7196	-366.76
0.1140,0.8860	-357.38
0.3592,0.6408	-371.22
0.1488,0.8512	-365.14
0.2066,0.7934	-363.85
0.1751,0.8249	-359.58
0.2488,0.7512	-374.13
0.1177,0.8823	-359.22
0.3945,0.6055	-372.01
0.1663,0.8337	-361.24
0.2276,0.7724	-366.36
0.1487,0.8513	-354.68
0.2452,0.7548	-364.13
0.1249,0.8751	-358.86
0.3842,0.6158	-374.11
0.1501,0.8499	-356.41
0.2433,0.7567	-362.96
0.1480,0.8520	-365.18
0.2205,0.7795	-360.09
0.0993,0.9007	-358.32
0.3561,0.6439	-369.98
0.1434,0.8566	-354.69
0.2376,0.7624	-361.69
0.1485,0.8515	-359.92
0.2316,0.7684	-365.16
0.1013,0.8987	-360.35
0.3527,0.6473	-373.53
0.1714,0.8286	-359.59
0.2177,0.7823	-360.03
0.1655,0.8345	-361.25
0.2001,0.7999	-370.81
0.1181,0.8819	-361.21
0.2910,0.7090	-365.18
0.1598,0.8402	-364.68
0.2231,0.7769	-360.15
0.2006,0.7994	-370.79
0.2016,0.7984	-361.12
0.1296,0.8704	-366.29
0.2693,0.7307	-366.60
0.1448,0.8552	-358.24
0.2220,0.7780	-363.88
0.1853,0.8147	-359.59
0.1554,0.8446	-363.16
0.1597,0.8403	-361.36
0.3043,0.6957	-368.08
0.1670,0.8330	-359.62
0.2115,0.7885	-359.90
0.1974,0.8026	-361.09
0.1570,0.8430	-361.42
0.1792,0.8208	-358.06
0.2743,0.7257	-365.69
0.1955,0.8045	-361.09
0.1839,0.8161	-356.61
0.2308,0.7692	-361.54
0.1428,0.8572	-361.87
0.1631,0.8369	-366.20
0.2730,0.7270	-366.65
0.2187,0.7813	-362.59
0.1840,0.8160	-365.55
0.2246,0.7754	-362.66
0.1408,0.8592	-365.56
0.1804,0.8196	-361.09
0.2871,0.7129	-369.61
0.2284,0.7716	-362.71
0.1647,0.8353	-364.51
0.1922,0.8078	-366.82
0.1656,0.8344	-358.02
0.1717,0.8283	-365.89
0.2463,0.7537	-363.03
0.2453,0.7547	-365.25
0.1887,0.8113	-361.07
0.1995,0.8005	-362.50
0.1980,0.8020	-361.10
0.1788,0.8212	-358.05
0.2068,0.7932	-358.48
0.1943,0.8057	-362.50
0.1931,0.8069	-363.94
0.2068,0.7932	-367.89
0.1831,0.8169	-362.58
0.2148,0.7852	-359.96
0.2027,0.7973	-365.24
0.1937,0.8063	-363.93
0.2216,0.7784	-366.39
0.2200,0.7800	-363.87
0.1715,0.8285	-364.32
0.2246,0.7754	-367.62
0.1641,0.8359	-361.28
0.2400,0.7600	-366.36
0.2422,0.7578	-365.22
0.1895,0.8105	-359.62
0.1931,0.8069	-362.51
0.2170,0.7830	-362.58
0.1878,0.8122	-369.86
0.2269,0.7731	-362.69
0.2781,0.7219	-366.73
0.2297,0.7703	-367.57
0.2544,0.7456	-366.43
0.1974,0.8026	-365.30
0.2144,0.7856	-366.45
0.2431,0.7569	-365.23
0.2573,0.7427	-367.52
0.2088,0.7912	-357.19
0.2731,0.7269	-364.69
0.2288,0.7712	-363.93
0.2387,0.7613	-360.56
0.2495,0.7505	-368.60
0.2227,0.7773	-367.64
0.2371,0.7629	-365.19
0.2469,0.7531	-367.50
0.2042,0.7958	-362.50
0.2248,0.7752	-365.14
0.1918,0.8082	-378.34
0.1918,0.8082	-361.07
0.1965,0.8035	-359.68
0.2099,0.7901	-367.83
0.1823,0.8177	-358.08
0.2594,0.7406	-364.38
0.1775,0.8225	-356.51
0.2218,0.7782	-367.65
0.2091,0.7909	-365.18
0.2057,0.7943	-365.21
0.2154,0.7846	-362.56
0.2060,0.7940	-361.16
0.1783,0.8217	-364.16
0.2255,0.7745	-362.67
0.2114,0.7886	-363.85
0.1830,0.8170	-361.08
0.1755,0.8245	-354.94
0.2253,0.7747	-365.14
0.2006,0.7994	-361.11
0.1802,0.8198	-356.55
0.2100,0.7900	-361.20
0.1575,0.8425	-361.41
0.1737,0.8263	-361.14
0.2211,0.7789	-363.88
0.2263,0.7737	-363.91
0.1895,0.8105	-362.52
0.2038,0.7962	-359.78
0.1442,0.8558	-360.03
0.1795,0.8205	-365.66
0.1910,0.8090	-356.74
0.1879,0.8121	-365.46
0.2008,0.7992	-363.88
0.1619,0.8381	-358.03
0.1601,0.8399	-356.38
0.2046,0.7954	-361.14
0.1958,0.8042	-362.50
0.1945,0.8055	-362.50
0.1948,0.8052	-362.50
0.1942,0.8058	-361.08
0.1696,0.8304	-354.84
0.2017,0.7983	-358.37
0.1976,0.8024	-358.29
0.1872,0.8128	-362.54
0.1991,0.8009	-368.06
0.1559,0.8441	-359.76
0.1745,0.8255	-356.48
0.1761,0.8239	-361.12
0.1725,0.8275	-362.73
0.1978,0.8022	-365.30
0.2206,0.7794	-358.83
0.1370,0.8630	-356.59
0.1770,0.8230	-362.65
0.1840,0.8160	-364.06
0.1987,0.8013	-363.89
0.2240,0.7760	-370.11
0.1906,0.8094	-365.41
0.1549,0.8451	-356.39
0.1937,0.8063	-361.08
0.1824,0.8176	-362.58
0.2334,0.7666	-360.41
0.2604,0.7396	-367.53
0.2008,0.7992	-363.88
0.1518,0.8482	-366.72
0.1672,0.8328	-358.02
0.1873,0.8127	-366.94
0.2142,0.7858	-367.75
0.2653,0.7347	-359.41
0.2418,0.7582	-364.08
0.2019,0.7981	-361.12
0.1885,0.8115	-363.99
0.1983,0.8017	-361.10
0.2590,0.7410	-366.48
0.3321,0.6679	-370.10
0.2122,0.7878	-370.41
0.2364,0.7636	-366.35
0.2267,0.7733	-365.14
0.1933,0.8067	-362.51
0.3168,0.6832	-371.41
0.3737,0.6263	-370.48
0.2393,0.7607	-368.67
0.2316,0.7684	-363.96
0.2495,0.7505	-364.20
0.1960,0.8040	-362.50
0.3754,0.6246	-369.51
0.2756,0.7244	-366.69
0.2759,0.7241	-372.48
0.2353,0.7647	-365.17
0.2908,0.7092	-369.63
0.2013,0.7987	-362.50
0.3476,0.6524	-371.02
0.2917,0.7083	-364.31
0.2766,0.7234	-364.78
0.2398,0.7602	-361.74
0.3607,0.6393	-371.82
0.1976,0.8024	-362.50
0.3667,0.6333	-371.91
0.2985,0.7015	-369.68
0.2721,0.7279	-364.67
0.2041,0.7959	-362.50
0.3147,0.6853	-369.07
0.2165,0.7835	-361.29
0.3572,0.6428	-370.01
0.2698,0.7302	-364.61
0.2686,0.7314	-362.58
0.2107,0.7893	-362.53
0.2920,0.7080	-363.44
0.2093,0.7907	-355.88
0.3817,0.6183	-372.18
0.2779,0.7221	-369.59
0.2361,0.7639	-364.00
0.2235,0.7765	-368.87
0.3301,0.6699	-370.78
0.1844,0.8156	-358.10
0.3173,0.6827	-369.11
0.2366,0.7634	-365.18
0.2667,0.7333	-368.58
0.2324,0.7676	-361.58
0.3362,0.6638	-367.45
0.2055,0.7945	-359.80
0.3382,0.6618	-368.86
0.2172,0.7828	-363.86
0.2417,0.7583	-364.08
0.2135,0.7865	-366.46
0.3235,0.6765	-369.97
0.2294,0.7706	-360.30
0.3040,0.6960	-366.41
0.2305,0.7695	-361.53
0.2713,0.7287	-367.61
0.1979,0.8021	-368.09
0.3454,0.6546	-370.35
0.2420,0.7580	-365.22
0.2748,0.7252	-363.76
0.2476,0.7524	-369.72
0.2942,0.7058	-369.65
0.1860,0.8140	-364.03
0.3437,0.6563	-370.31
0.2235,0.7765	-363.89
0.2757,0.7243	-368.62
0.3019,0.6981	-370.55
0.2562,0.7438	-366.45
0.1680,0.8320	-364.41
0.3259,0.6741	-369.27
0.2144,0.7856	-363.85
0.2386,0.7614	-364.04
0.3476,0.6524	-371.65
0.2449,0.7551	-365.25
0.1788,0.8212	-362.63
0.3423,0.6577	-370.29
0.2076,0.7924	-359.83
0.2895,0.7105	-365.14
0.3169,0.6831	-369.11
0.2907,0.7093	-366.06
0.1806,0.8194	-367.14
0.3297,0.6703	-372.19
0.2224,0.7776	-358.88
0.2585,0.7415	-366.47
0.3411,0.6589	-372.24
0.3446,0.6554	-369.04
0.1377,0.8623	-362.08
0.2750,0.7250	-369.59
0.2338,0.7662	-359.23
0.2299,0.7701	-362.73
0.3186,0.6814	-369.90
0.3306,0.6694	-371.49
0.1765,0.8235	-356.50
0.1909,0.8091	-365.40
0.2480,0.7520	-366.39
0.2550,0.7450	-366.44
0.2863,0.7137	-364.13
0.3912,0.6088	-370.60
0.1738,0.8262	-356.47
0.1846,0.8154	-369.99
0.1982,0.8018	-359.70
0.2698,0.7302	-365.61
0.2641,0.7359	-367.55
0.3887,0.6113	-373.67
0.1778,0.8222	-367.24
0.2254,0.7746	-368.84
0.1803,0.8197	-359.58
0.2796,0.7204	-365.80
0.2656,0.7344	-364.52
0.3241,0.6759	-367.77
0.2025,0.7975	-365.24
0.2071,0.7929	-363.85
0.1724,0.8276	-365.87
0.2524,0.7476	-368.59
0.3215,0.6785	-367.70
0.3631,0.6369	-370.17
0.2196,0.7804	-365.14
0.2310,0.7690	-362.75
0.2007,0.7993	-363.88
0.2301,0.7699	-372.39
0.2897,0.7103	-366.04
0.3527,0.6473	-367.46
0.2283,0.7717	-365.14
0.2787,0.7213	-366.74
0.2486,0.7514	-364.18
0.2058,0.7942	-361.16
0.3133,0.6867	-369.83
0.3517,0.6483	-372.31
0.2197,0.7803	-365.14
0.2807,0.7193	-369.59
0.2003,0.7997	-363.88
0.1795,0.8205	-358.06
0.2529,0.7471	-362.09
0.3502,0.6498	-370.44
0.2247,0.7753	-365.14
0.2854,0.7146	-367.77
0.2077,0.7923	-357.16
0.1611,0.8389	-361.34
0.3132,0.6868	-370.61
0.3392,0.6608	-371.56
0.2065,0.7935	-358.47
0.2808,0.7192	-369.59
0.1842,0.8158	-362.57
0.1561,0.8439	-369.88
0.3349,0.6651	-372.21
0.3003,0.6997	-368.00
0.2028,0.7972	-359.76
0.2524,0.7476	-362.08
0.2032,0.7968	-363.87
0.1531,0.8469	-366.66
0.2927,0.7073	-363.46
0.3310,0.6690	-367.97
0.1858,0.8142	-361.07
0.2602,0.7398	-371.71
0.1760,0.8240	-362.67
0.1575,0.8425	-369.80
0.2991,0.7009	-368.83
0.3022,0.6978	-364.69
0.2177,0.7823	-365.14
0.2653,0.7347	-364.51
0.1460,0.8540	-358.22
0.1465,0.8535	-359.97
0.2622,0.7378	-369.61
0.3155,0.6845	-370.63
0.2353,0.7647	-368.71
0.2487,0.7513	-361.97
0.1490,0.8510	-363.39
0.1447,0.8553	-361.79
0.2536,0.7464	-367.51
0.2943,0.7057	-366.15
0.2756,0.7244	-366.69
0.2206,0.7794	-360.09
0.1415,0.8585	-363.72
0.1158,0.8842	-361.36
0.2321,0.7679	-360.37
0.2731,0.7269	-368.61
0.2716,0.7284	-366.63
0.1934,0.8066	-359.65
0.1540,0.8460	-363.21
0.1318,0.8682	-358.59
0.2777,0.7223	-369.59
0.3142,0.6858	-369.06
0.2555,0.7445	-367.51
0.1686,0.8314	-361.21
0.1631,0.8369	-367.84
0.1385,0.8615	-358.39
0.2743,0.7257	-362.78
0.3208,0.6792	-369.18
0.2566,0.7434	-364.33
0.1678,0.8322	-359.62
0.1572,0.8428	-353.02
0.1617,0.8383	-366.26
0.2858,0.7142	-365.03
0.3167,0.6833	-369.87
0.2629,0.7371	-367.55
0.1775,0.8225	-362.64
0.1539,0.8461	-361.50
0.1441,0.8559	-363.60
0.2883,0.7117	-370.52
0.3336,0.6664	-366.67
0.2644,0.7356	-366.53
0.1996,0.8004	-362.50
0.1810,0.8190	-359.58
0.1520,0.8480	-358.12
0.3112,0.6888	-369.80
0.3335,0.6665	-370.12
0.2942,0.7058	-370.53
0.1814,0.8186	-359.58
0.1760,0.8240	-361.12
0.1602,0.8398	-366.32
0.3093,0.6907	-368.98
0.3538,0.6462	-371.73
0.2609,0.7391	-358.16
0.1628,0.8372	-362.94
0.2214,0.7786	-368.91
0.1286,0.8714	-352.97
0.2739,0.7261	-363.73
0.3059,0.6941	-368.93
0.3065,0.6935	-365.67
0.1933,0.8067	-365.36
0.2432,0.7568	-365.23
0.1320,0.8680	-356.70
0.2382,0.7618	-361.71
0.2909,0.7091	-371.41
0.2694,0.7306	-368.59
0.1766,0.8234	-361.12
0.1909,0.8091	-359.63
0.1569,0.8431	-356.38
0.2205,0.7795	-358.82
0.3406,0.6594	-366.29
0.2607,0.7393	-365.45
0.1940,0.8060	-365.35
0.1909,0.8091	-358.18
0.1525,0.8475	-356.40
0.2457,0.7543	-363.01
0.3179,0.6821	-371.41
0.2443,0.7557	-365.24
0.2211,0.7789	-361.36
0.1931,0.8069	-365.37
0.1906,0.8094	-368.30
0.2630,0.7370	-366.52
0.3331,0.6669	-372.20
0.2359,0.7641	-365.18
0.2159,0.7841	-362.57
0.1938,0.8062	-356.80
0.2162,0.7838	-363.86
0.2382,0.7618	-368.68
0.4328,0.5672	-372.85
0.2538,0.7462	-363.19
0.2107,0.7893	-362.53
0.1954,0.8046	-362.50
0.2555,0.7445	-363.24
0.2462,0.7538	-365.26
0.4218,0.5782	-373.41
0.2236,0.7764	-358.91
0.1772,0.8228	-368.79
0.2153,0.7847	-365.15
0.2634,0.7366	-365.49
0.2614,0.7386	-367.54
0.4213,0.5787	-374.66
0.2364,0.7636	-365.18
0.1630,0.8370	-359.66
0.2105,0.7895	-363.85
0.2847,0.7153	-364.08
0.2825,0.7175	-364.00
0.3892,0.6108	-371.87
0.2302,0.7698	-361.53
0.1790,0.8210	-358.06
0.1941,0.8059	-358.23
0.2834,0.7166	-362.18
0.3031,0.6969	-367.22
0.3735,0.6265	-372.54
0.2410,0.7590	-367.51
0.1939,0.8061	-361.08
0.2446,0.7554	-370.89
0.3186,0.6814	-366.85
0.3385,0.6615	-367.53
0.3502,0.6498	-369.21
0.2477,0.7523	-359.72
0.2076,0.7924	-363.85
0.2184,0.7816	-362.59
0.3018,0.6982	-367.19
0.2719,0.7281	-366.63
0.3577,0.6423	-373.53
0.1996,0.8004	-363.88
0.1814,0.8186	-367.12
0.1971,0.8029	-362.50
0.2528,0.7472	-363.17
0.2386,0.7614	-364.04
0.3734,0.6266	-371.51
0.1994,0.8006	-363.89
0.1787,0.8213	-365.68
0.1932,0.8068	-362.51
0.2459,0.7541	-363.02
0.2341,0.7659	-363.98
0.4129,0.5871	-372.86
0.2139,0.7861	-357.34
0.1910,0.8090	-359.63
0.1625,0.8375	-364.59
0.1895,0.8105	-361.07
0.2986,0.7014	-367.12
0.4181,0.5819	-372.66
0.1988,0.8012	-359.71
0.2081,0.7919	-363.85
0.1282,0.8718	-364.48
0.2550,0.7450	-368.58
0.2739,0.7261	-367.64
0.3921,0.6079	-370.63
0.2267,0.7733	-360.23
0.2507,0.7493	-363.12
0.1349,0.8651	-364.07
0.2307,0.7693	-366.36
0.2544,0.7456	-366.44
0.3800,0.6200	-371.65
0.2028,0.7972	-361.13
0.2816,0.7184	-369.59
0.1238,0.8762	-356.96
0.2353,0.7647	-365.17
0.2539,0.7461	-365.35
0.3606,0.6394	-370.10
0.1948,0.8052	-366.76
0.2407,0.7593	-362.91
0.1245,0.8755	-360.83
0.2554,0.7446	-367.51
0.2594,0.7406	-364.38
0.3256,0.6744	-372.91
0.2016,0.7984	-362.50
0.2751,0.7249	-365.71
0.1041,0.8959	-357.97
0.2199,0.7801	-363.87
0.2335,0.7665	-366.35
0.2974,0.7026	-370.53
0.1947,0.8053	-356.82
0.2955,0.7045	-361.84
0.0970,0.9030	-362.98
0.2074,0.7926	-365.19
0.2321,0.7679	-363.96
0.2723,0.7277	-364.67
0.1744,0.8256	-358.03
0.2754,0.7246	-366.68
0.0956,0.9044	-367.62
0.2012,0.7988	-366.63
0.2482,0.7518	-364.18
0.3069,0.6931	-368.13
0.1662,0.8338	-359.63
0.2717,0.7283	-367.61
0.1072,0.8928	-357.77
0.2368,0.7632	-364.01
0.1826,0.8174	-368.58
0.2276,0.7724	-362.70
0.1592,0.8408	-361.37
0.3069,0.6931	-367.31
0.1292,0.8708	-356.78
0.2767,0.7233	-366.70
0.1889,0.8111	-366.90
0.1861,0.8139	-362.55
0.1656,0.8344	-366.10
0.2839,0.7161	-366.83
0.1451,0.8549	-367.10
0.2876,0.7124	-369.61
0.1919,0.8081	-363.95
0.1583,0.8417	-358.05
0.1706,0.8294	-359.60
0.2991,0.7009	-368.83
0.1328,0.8672	-362.31
0.2462,0.7538	-366.38
0.2585,0.7415	-368.58
0.1890,0.8110	-363.98
0.1726,0.8274	-353.32
0.2607,0.7393	-371.70
0.1296,0.8704	-356.77
0.2562,0.7438	-365.38
0.2604,0.7396	-366.49
0.2026,0.7974	-362.50
0.1509,0.8491	-361.59
0.2209,0.7791	-366.40
0.1405,0.8595	-361.96
0.2116,0.7884	-365.17
0.2823,0.7177	-370.53
0.2168,0.7832	-361.29
0.1513,0.8487	-365.03
0.2332,0.7668	-367.54
0.1540,0.8460	-363.21
0.2323,0.7677	-366.35
0.3237,0.6763	-367.76
0.1808,0.8192	-364.11
0.1325,0.8675	-360.45
0.2902,0.7098	-373.21
0.1784,0.8216	-362.63
0.2382,0.7618	-366.36
0.3423,0.6577	-369.63
0.1708,0.8292	-365.92
0.1356,0.8644	-367.73
0.2815,0.7185	-363.03
0.1857,0.8143	-361.07
0.2253,0.7747	-361.43
0.2924,0.7076	-367.87
0.1864,0.8136	-356.65
0.1406,0.8594	-358.33
0.2675,0.7325	-371.61
0.1688,0.8312	-362.80
0.2130,0.7870	-365.16
0.3018,0.6982	-371.39
0.1908,0.8092	-365.41
0.1279,0.8721	-358.74
0.2448,0.7552	-363.00
0.1467,0.8533	-356.44
0.2476,0.7524	-365.28
0.2441,0.7559	-369.76
0.1975,0.8025	-362.50
0.1344,0.8656	-362.23
0.2725,0.7275	-368.60
0.1741,0.8259	-359.58
0.2284,0.7716	-363.93
0.3035,0.6965	-363.91
0.2502,0.7498	-360.92
0.1308,0.8692	-360.52
0.2459,0.7541	-368.62
0.1883,0.8117	-365.46
0.2087,0.7913	-365.18
0.2469,0.7531	-369.73
0.2454,0.7546	-370.87
0.1314,0.8686	-360.49
0.2420,0.7580	-362.94
0.1990,0.8010	-368.06
0.2173,0.7827	-361.30
0.2934,0.7066	-370.52
0.2351,0.7649	-366.35
0.1173,0.8827	-361.26
0.2924,0.7076	-370.52
0.1932,0.8068	-365.37
0.2448,0.7552	-361.87
0.2673,0.7327	-371.61
0.2332,0.7668	-362.78
0.1034,0.8966	-362.34
0.2626,0.7374	-369.61
0.1976,0.8024	-363.90
0.1811,0.8189	-361.09
0.2597,0.7403	-363.34
0.2585,0.7415	-365.42
