#isoforms=['ENSG00000186575.SE.4.A.up_ENSG00000186575.SE.4.A.SE1_ENSG00000186575.SE.4.A.dn','ENSG00000186575.SE.4.B.up_ENSG00000186575.SE.4.B.dn']	exon_lens=('ENSG00000186575.SE.4.A.up',128),('ENSG00000186575.SE.4.A.SE1',163),('ENSG00000186575.SE.4.A.dn',3847),('ENSG00000186575.SE.4.B.up',128),('ENSG00000186575.SE.4.B.dn',194)	iters=5000	burn_in=500	lag=10	percent_accept=94.01	proposal_type=drift	counts=(0,0):133,(1,0):603,(1,1):58	assigned_counts=0:643,1:18	chrom=chr22	strand=+	mRNA_starts=29678196,29678196	mRNA_ends=29698598,29694945
sampled_psi	log_score
0.7601,0.2399	-5529.75
0.7486,0.2514	-5531.98
0.6782,0.3218	-5534.17
0.7635,0.2365	-5527.40
0.7654,0.2346	-5528.57
0.7742,0.2258	-5524.84
0.7499,0.2501	-5534.18
0.7422,0.2578	-5529.84
0.6802,0.3198	-5535.65
0.7369,0.2631	-5525.78
0.7670,0.2330	-5523.79
0.7677,0.2323	-5533.34
0.7370,0.2630	-5528.87
0.7328,0.2672	-5530.95
0.6511,0.3489	-5532.23
0.7370,0.2630	-5524.74
0.7774,0.2226	-5533.54
0.7581,0.2419	-5524.04
0.7361,0.2639	-5527.85
0.7232,0.2768	-5536.80
0.6240,0.3760	-5537.61
0.7498,0.2502	-5530.89
0.7867,0.2133	-5524.64
0.7738,0.2262	-5527.31
0.7165,0.2835	-5541.32
0.7501,0.2499	-5529.79
0.6298,0.3702	-5534.84
0.7405,0.2595	-5531.96
0.7746,0.2254	-5522.37
0.7737,0.2263	-5528.54
0.7085,0.2915	-5535.69
0.7292,0.2708	-5529.99
0.6767,0.3233	-5538.63
0.7522,0.2478	-5530.89
0.7627,0.2373	-5532.08
0.7678,0.2322	-5526.16
0.6810,0.3190	-5528.82
0.6947,0.3053	-5527.41
0.6923,0.3077	-5532.38
0.7865,0.2135	-5532.47
0.7136,0.2864	-5532.08
0.8259,0.1741	-5522.86
0.6569,0.3431	-5533.28
0.6500,0.3500	-5533.52
0.6473,0.3527	-5539.08
0.7483,0.2517	-5529.80
0.7308,0.2692	-5532.97
0.8024,0.1976	-5525.88
0.6572,0.3428	-5531.32
0.6713,0.3287	-5533.57
0.6509,0.3491	-5533.49
0.7477,0.2523	-5526.54
0.7613,0.2387	-5527.43
0.7675,0.2325	-5527.36
0.6579,0.3421	-5535.87
0.5964,0.4036	-5538.73
0.6684,0.3316	-5532.94
0.7690,0.2310	-5526.15
0.7636,0.2364	-5528.58
0.7843,0.2157	-5533.71
0.6959,0.3041	-5534.80
0.6334,0.3666	-5537.98
0.6660,0.3340	-5537.15
0.7501,0.2499	-5531.99
0.7718,0.2282	-5523.67
0.7920,0.2080	-5528.59
0.7836,0.2164	-5523.40
0.6180,0.3820	-5537.73
0.6636,0.3364	-5534.43
0.7541,0.2459	-5530.89
0.7799,0.2201	-5536.13
0.8294,0.1706	-5532.34
0.8233,0.1767	-5524.41
0.6205,0.3795	-5538.17
0.6632,0.3368	-5535.80
0.7660,0.2340	-5525.01
0.7862,0.2138	-5523.35
0.7964,0.2036	-5527.26
0.7985,0.2015	-5527.26
0.6769,0.3231	-5539.37
0.6716,0.3284	-5537.86
0.7845,0.2155	-5519.51
0.8050,0.1950	-5527.29
0.8446,0.1554	-5527.94
0.8026,0.1974	-5525.88
0.7711,0.2289	-5528.55
0.6214,0.3786	-5539.64
0.7743,0.2257	-5526.07
0.7873,0.2127	-5523.33
0.8286,0.1714	-5526.00
0.7952,0.2048	-5524.54
0.7716,0.2284	-5522.46
0.5594,0.4406	-5541.78
0.7479,0.2521	-5527.63
0.7514,0.2486	-5527.57
0.8083,0.1917	-5527.32
0.7606,0.2394	-5530.91
0.7556,0.2444	-5526.38
0.5771,0.4229	-5539.37
0.7301,0.2699	-5525.00
0.7413,0.2587	-5528.80
0.8374,0.1626	-5521.20
0.7634,0.2366	-5527.41
0.7220,0.2780	-5530.10
0.6155,0.3845	-5536.38
0.7569,0.2431	-5528.62
0.7163,0.2837	-5532.05
0.8279,0.1721	-5521.28
0.7610,0.2390	-5522.80
0.7488,0.2512	-5531.98
0.6025,0.3975	-5538.14
0.7603,0.2397	-5528.60
0.7457,0.2543	-5526.59
0.8548,0.1452	-5519.39
0.7821,0.2179	-5534.93
0.7734,0.2266	-5531.00
0.6219,0.3781	-5539.14
0.7802,0.2198	-5523.47
0.7372,0.2628	-5525.77
0.8666,0.1334	-5523.09
0.7789,0.2211	-5524.76
0.7601,0.2399	-5528.60
0.6683,0.3317	-5531.54
0.7617,0.2383	-5529.75
0.7852,0.2148	-5528.55
0.8491,0.1509	-5521.16
0.7578,0.2422	-5532.04
0.7592,0.2408	-5525.16
0.6047,0.3953	-5540.63
0.7737,0.2263	-5533.46
0.7527,0.2473	-5535.34
0.8460,0.1540	-5519.46
0.7892,0.2108	-5525.93
0.7348,0.2652	-5527.88
0.6337,0.3663	-5536.33
0.8175,0.1825	-5531.91
0.7382,0.2618	-5541.29
0.8502,0.1498	-5526.37
0.7815,0.2185	-5522.17
0.7802,0.2198	-5527.27
0.6557,0.3443	-5535.90
0.8322,0.1678	-5524.44
0.7474,0.2526	-5529.80
0.8297,0.1703	-5524.43
0.8097,0.1903	-5527.33
0.7843,0.2157	-5525.97
0.6393,0.3607	-5538.49
0.8263,0.1737	-5532.21
0.7434,0.2566	-5524.51
0.8445,0.1555	-5522.86
0.7970,0.2030	-5527.26
0.7721,0.2279	-5527.32
0.6921,0.3079	-5532.39
0.7906,0.2094	-5524.59
0.7091,0.2909	-5530.35
0.8196,0.1804	-5519.87
0.8081,0.1919	-5524.44
0.8249,0.1751	-5521.31
0.6845,0.3155	-5528.67
0.7460,0.2540	-5526.58
0.7330,0.2670	-5534.99
0.8009,0.1991	-5520.31
0.8253,0.1747	-5530.62
0.8490,0.1510	-5524.61
0.6843,0.3157	-5532.54
0.7591,0.2409	-5532.05
0.7508,0.2492	-5530.89
0.7955,0.2045	-5528.61
0.8077,0.1923	-5528.75
0.8373,0.1627	-5519.56
0.7217,0.2783	-5533.92
0.7556,0.2444	-5528.63
0.7171,0.2829	-5532.05
0.8179,0.1821	-5530.42
0.8231,0.1769	-5529.02
0.8406,0.1594	-5527.83
0.7062,0.2938	-5538.30
0.7734,0.2266	-5528.54
0.6902,0.3098	-5531.62
0.7883,0.2117	-5524.62
0.8218,0.1782	-5518.30
0.8705,0.1295	-5528.88
0.7025,0.2975	-5530.50
0.7791,0.2209	-5526.02
0.6986,0.3014	-5533.12
0.7751,0.2249	-5531.01
0.8457,0.1543	-5526.27
0.8937,0.1063	-5519.55
0.7309,0.2691	-5535.96
0.7068,0.2932	-5533.04
0.6736,0.3264	-5537.87
0.7873,0.2127	-5529.87
0.8372,0.1628	-5519.56
0.8663,0.1337	-5517.48
0.6885,0.3115	-5529.28
0.6794,0.3206	-5537.91
0.6952,0.3048	-5533.98
0.7929,0.2071	-5533.96
0.8660,0.1340	-5515.62
0.8665,0.1335	-5517.48
0.7201,0.2799	-5532.97
0.6801,0.3199	-5531.88
0.6919,0.3081	-5535.63
0.7720,0.2280	-5527.32
0.8617,0.1383	-5517.53
0.8559,0.1441	-5519.38
0.7229,0.2771	-5532.00
0.6513,0.3487	-5532.22
0.6635,0.3365	-5535.79
0.7773,0.2227	-5532.29
0.8533,0.1467	-5521.16
0.8846,0.1154	-5519.43
0.7379,0.2621	-5532.99
0.7071,0.2929	-5531.27
0.6483,0.3517	-5539.08
0.7559,0.2441	-5538.81
0.8687,0.1313	-5515.57
0.8896,0.1104	-5517.41
0.7907,0.2093	-5520.60
0.6284,0.3716	-5538.05
0.6725,0.3275	-5536.42
0.7341,0.2659	-5533.99
0.8509,0.1491	-5524.64
0.8963,0.1037	-5510.97
0.8008,0.1992	-5524.49
0.6425,0.3575	-5538.48
0.6954,0.3046	-5529.03
0.7020,0.2980	-5527.08
0.8600,0.1400	-5521.18
0.8925,0.1075	-5517.42
0.7849,0.2151	-5524.67
0.6312,0.3688	-5537.47
0.6901,0.3099	-5538.83
0.7175,0.2825	-5532.04
0.8510,0.1490	-5519.42
0.8883,0.1117	-5519.48
0.8284,0.1716	-5526.00
0.6498,0.3502	-5536.61
0.6723,0.3277	-5535.71
0.6753,0.3247	-5538.61
0.8599,0.1401	-5522.99
0.8835,0.1165	-5521.45
0.8307,0.1693	-5518.07
0.6752,0.3248	-5531.29
0.6963,0.3037	-5533.97
0.6650,0.3350	-5537.83
0.8675,0.1325	-5517.47
0.9063,0.0937	-5515.28
0.8351,0.1649	-5526.08
0.7382,0.2618	-5529.88
0.7439,0.2561	-5527.70
0.6374,0.3626	-5537.38
0.8573,0.1427	-5530.13
0.9110,0.0890	-5524.61
0.8203,0.1797	-5533.52
0.7820,0.2180	-5528.54
0.7854,0.2146	-5522.07
0.6109,0.3891	-5535.20
0.8372,0.1628	-5529.39
0.9058,0.0942	-5517.54
0.8108,0.1892	-5521.52
0.7227,0.2773	-5536.79
0.7997,0.2003	-5527.27
0.5922,0.4078	-5540.71
0.8759,0.1241	-5519.37
0.9177,0.0823	-5517.77
0.7891,0.2109	-5533.85
0.7293,0.2707	-5532.96
0.8086,0.1914	-5537.41
0.5716,0.4284	-5540.73
0.8812,0.1188	-5519.40
0.9250,0.0750	-5512.96
0.8242,0.1758	-5525.96
0.7123,0.2877	-5533.00
0.8187,0.1813	-5518.38
0.5720,0.4280	-5540.43
0.9075,0.0925	-5522.14
0.9161,0.0839	-5508.17
0.8348,0.1652	-5521.22
0.7530,0.2470	-5532.00
0.8094,0.1906	-5525.88
0.5276,0.4724	-5542.75
0.9075,0.0925	-5510.72
0.9246,0.0754	-5507.94
0.8134,0.1866	-5515.58
0.7556,0.2444	-5533.15
0.8134,0.1866	-5524.42
0.5332,0.4668	-5541.92
0.8884,0.1116	-5517.40
0.9385,0.0615	-5521.27
0.8125,0.1875	-5521.49
0.7316,0.2684	-5535.98
0.7858,0.2142	-5527.25
0.5463,0.4537	-5540.58
0.8821,0.1179	-5527.46
0.9299,0.0701	-5507.82
0.8069,0.1931	-5534.46
0.7462,0.2538	-5528.73
0.7918,0.2082	-5537.94
0.5441,0.4559	-5541.42
0.8786,0.1214	-5521.36
0.9207,0.0793	-5522.75
0.8066,0.1934	-5533.02
0.7191,0.2809	-5534.85
0.8203,0.1797	-5527.44
0.6249,0.3751	-5540.14
0.8855,0.1145	-5523.53
0.9172,0.0828	-5515.36
0.8137,0.1863	-5527.36
0.7111,0.2889	-5531.21
0.8518,0.1482	-5522.91
0.5760,0.4240	-5537.87
0.8863,0.1137	-5517.40
0.8932,0.1068	-5519.54
0.8063,0.1937	-5530.15
0.7117,0.2883	-5528.49
0.8219,0.1781	-5524.41
0.5777,0.4223	-5539.03
0.8861,0.1139	-5529.71
0.8954,0.1046	-5513.14
0.8155,0.1845	-5524.41
0.7039,0.2961	-5530.46
0.8332,0.1668	-5526.06
0.5926,0.4074	-5536.96
0.8986,0.1014	-5515.28
0.8590,0.1410	-5515.75
0.8207,0.1793	-5525.93
0.7533,0.2467	-5534.24
0.8308,0.1692	-5530.80
0.6251,0.3749	-5537.58
0.8870,0.1130	-5523.58
0.8667,0.1333	-5509.99
0.8365,0.1635	-5529.37
0.7640,0.2360	-5528.57
0.8142,0.1858	-5528.85
0.6371,0.3629	-5536.82
0.8872,0.1128	-5515.34
0.8700,0.1300	-5521.25
0.8481,0.1519	-5524.60
0.7061,0.2939	-5526.91
0.8416,0.1584	-5524.52
0.6204,0.3796	-5537.68
0.8845,0.1155	-5521.47
0.8692,0.1308	-5513.67
0.8562,0.1438	-5535.44
0.6921,0.3079	-5532.39
0.8461,0.1539	-5522.87
0.6560,0.3440	-5535.25
0.8637,0.1363	-5523.05
0.8144,0.1856	-5521.46
0.8499,0.1501	-5519.42
0.6248,0.3752	-5538.61
0.8602,0.1398	-5512.10
0.6218,0.3782	-5539.14
0.8374,0.1626	-5514.64
0.8245,0.1755	-5525.96
0.8773,0.1227	-5527.25
0.7036,0.2964	-5539.12
0.8339,0.1661	-5526.07
0.6339,0.3661	-5540.72
0.8559,0.1441	-5512.26
0.7813,0.2187	-5526.00
0.8402,0.1598	-5532.80
0.7229,0.2771	-5529.13
0.8424,0.1576	-5529.56
0.6570,0.3430	-5534.58
0.8326,0.1674	-5522.84
0.7670,0.2330	-5529.75
0.8448,0.1552	-5524.56
0.7291,0.2709	-5535.93
0.8710,0.1290	-5528.90
0.6806,0.3194	-5535.65
0.8445,0.1555	-5522.86
0.8023,0.1977	-5530.08
0.8501,0.1499	-5522.89
0.7427,0.2573	-5535.14
0.8708,0.1292	-5523.17
0.6850,0.3150	-5533.31
0.8468,0.1532	-5517.74
0.7982,0.2018	-5523.13
0.7801,0.2199	-5533.61
0.7502,0.2498	-5529.79
0.8965,0.1035	-5513.12
0.6721,0.3279	-5535.71
0.8268,0.1732	-5521.29
0.8221,0.1779	-5519.82
0.7656,0.2344	-5532.12
0.7327,0.2673	-5525.91
0.8957,0.1043	-5513.14
0.6699,0.3301	-5535.73
0.8282,0.1718	-5529.14
0.8272,0.1728	-5527.55
0.7751,0.2249	-5531.01
0.6816,0.3184	-5537.17
0.9016,0.0984	-5526.35
0.6515,0.3485	-5535.34
0.8539,0.1461	-5521.16
0.8261,0.1739	-5527.53
0.7632,0.2368	-5530.92
0.7205,0.2795	-5528.23
0.9048,0.0952	-5513.03
0.6501,0.3499	-5539.71
0.8570,0.1430	-5524.75
0.8215,0.1785	-5522.88
0.7431,0.2569	-5530.90
0.7347,0.2653	-5536.03
0.9152,0.0848	-5512.96
0.6515,0.3485	-5536.59
0.8526,0.1474	-5522.91
0.8314,0.1686	-5522.84
0.7678,0.2322	-5530.95
0.7416,0.2584	-5527.74
0.9106,0.0894	-5524.59
0.6491,0.3509	-5531.09
0.8528,0.1472	-5514.13
0.8702,0.1298	-5513.64
0.7849,0.2151	-5528.55
0.7625,0.2375	-5522.75
0.9137,0.0863	-5512.96
0.6493,0.3507	-5538.47
0.8639,0.1361	-5517.50
0.8874,0.1126	-5517.40
0.7831,0.2169	-5529.83
0.7637,0.2363	-5523.88
0.9120,0.0880	-5524.66
0.7132,0.2868	-5536.64
0.8904,0.1096	-5523.69
0.8866,0.1134	-5521.51
0.8219,0.1781	-5530.53
0.7716,0.2284	-5528.54
0.9300,0.0700	-5515.58
0.6830,0.3170	-5534.11
0.8872,0.1128	-5513.28
0.8971,0.1029	-5526.11
0.8576,0.1424	-5517.58
0.7882,0.2118	-5524.62
0.9093,0.0907	-5517.60
0.7055,0.2945	-5531.30
0.9017,0.0983	-5519.71
0.8971,0.1029	-5510.95
0.8717,0.1283	-5519.36
0.7479,0.2521	-5535.24
0.9074,0.0926	-5519.85
0.6739,0.3261	-5539.32
0.8992,0.1008	-5515.28
0.9142,0.0858	-5517.69
0.8630,0.1370	-5528.56
0.7251,0.2749	-5529.08
0.9259,0.0741	-5515.49
0.6558,0.3442	-5538.48
0.8825,0.1175	-5529.49
0.9050,0.0950	-5531.06
0.9150,0.0850	-5512.96
0.7424,0.2576	-5536.19
0.9188,0.0812	-5527.50
0.6815,0.3185	-5531.84
0.8680,0.1320	-5511.82
0.9003,0.0997	-5519.68
0.9282,0.0718	-5518.10
0.7096,0.2904	-5532.12
0.9188,0.0812	-5508.10
0.6229,0.3771	-5541.14
0.8765,0.1235	-5513.49
0.8816,0.1184	-5519.41
0.9192,0.0808	-5503.22
0.7365,0.2635	-5530.93
0.9185,0.0815	-5517.79
0.6343,0.3657	-5535.22
0.8683,0.1317	-5515.58
0.8802,0.1198	-5515.41
0.9348,0.0652	-5502.39
0.7352,0.2648	-5526.85
0.9051,0.0949	-5510.77
0.6491,0.3509	-5542.77
0.8692,0.1308	-5523.14
0.8576,0.1424	-5524.76
0.9307,0.0693	-5507.80
0.7442,0.2558	-5531.96
0.8920,0.1080	-5515.30
0.6608,0.3392	-5538.49
0.8692,0.1308	-5523.14
0.8248,0.1752	-5525.96
0.9285,0.0715	-5515.54
0.7316,0.2684	-5534.97
0.9032,0.0968	-5517.51
0.6823,0.3177	-5534.12
0.8849,0.1151	-5519.44
0.8302,0.1698	-5527.61
0.9287,0.0713	-5518.11
0.6996,0.3004	-5539.02
0.8878,0.1122	-5507.06
0.6893,0.3107	-5530.85
0.8645,0.1355	-5523.06
0.8190,0.1810	-5524.41
0.9277,0.0723	-5505.32
0.7176,0.2824	-5531.11
0.9041,0.0959	-5517.52
0.6684,0.3316	-5535.74
0.8580,0.1420	-5522.97
0.8039,0.1961	-5527.29
0.9447,0.0553	-5510.39
0.7367,0.2633	-5531.96
0.9005,0.0995	-5513.07
0.6525,0.3475	-5540.99
0.8558,0.1442	-5524.73
0.7918,0.2082	-5533.93
0.9492,0.0508	-5507.50
0.7875,0.2125	-5522.01
0.8709,0.1291	-5517.44
0.6871,0.3129	-5535.63
0.8588,0.1412	-5522.98
0.8208,0.1792	-5524.41
0.9579,0.0421	-5513.70
0.7550,0.2450	-5536.52
0.8374,0.1626	-5527.76
0.6703,0.3297	-5534.30
0.8418,0.1582	-5522.85
0.8117,0.1883	-5525.88
0.9555,0.0445	-5504.39
0.7463,0.2537	-5526.57
0.8310,0.1690	-5526.03
0.6491,0.3509	-5534.16
0.8801,0.1199	-5523.38
0.8346,0.1654	-5530.93
0.9592,0.0408	-5513.77
0.7383,0.2617	-5534.03
0.8089,0.1911	-5520.11
0.6665,0.3335	-5536.45
0.8686,0.1314	-5517.46
0.8472,0.1528	-5524.59
0.9604,0.0396	-5510.64
0.7231,0.2769	-5533.92
0.7846,0.2154	-5537.60
0.6996,0.3004	-5536.49
0.8809,0.1191	-5519.40
0.8423,0.1577	-5519.50
0.9589,0.0411	-5507.45
0.7303,0.2697	-5531.97
0.8025,0.1975	-5530.08
0.7564,0.2436	-5532.03
0.8709,0.1291	-5526.99
0.8250,0.1750	-5525.96
0.9504,0.0496	-5516.35
0.7711,0.2289	-5529.76
0.7920,0.2080	-5521.90
0.7639,0.2361	-5529.75
0.8775,0.1225	-5521.35
0.8415,0.1585	-5526.19
0.9394,0.0606	-5510.37
0.7871,0.2129	-5522.02
0.7885,0.2115	-5525.93
0.7598,0.2402	-5528.60
0.8800,0.1200	-5511.43
0.8424,0.1576	-5519.50
0.9408,0.0592	-5513.14
0.7482,0.2518	-5533.07
0.8029,0.1971	-5530.09
0.7483,0.2517	-5527.62
0.8772,0.1228	-5519.38
0.8370,0.1630	-5521.20
0.9289,0.0711	-5515.55
0.7292,0.2708	-5533.95
0.8480,0.1520	-5522.88
0.7815,0.2185	-5529.82
0.8841,0.1159	-5525.52
0.8490,0.1510	-5524.61
0.9296,0.0704	-5510.41
0.7543,0.2457	-5524.16
0.8555,0.1445	-5521.16
0.7961,0.2039	-5529.98
0.8771,0.1229	-5525.27
0.8826,0.1174	-5521.43
0.9353,0.0647	-5510.38
0.7850,0.2150	-5522.08
0.8565,0.1435	-5522.95
0.7867,0.2133	-5524.64
0.8666,0.1334	-5519.35
0.8938,0.1062	-5521.68
0.9437,0.0563	-5516.02
0.8306,0.1694	-5526.02
0.8618,0.1382	-5521.19
0.7311,0.2689	-5527.97
0.8503,0.1497	-5528.11
0.8875,0.1125	-5521.53
0.9271,0.0729	-5502.80
0.8344,0.1656	-5522.84
0.8755,0.1245	-5519.37
0.7272,0.2728	-5523.15
0.8292,0.1708	-5524.43
0.8968,0.1032	-5519.61
0.9235,0.0765	-5520.43
0.8088,0.1912	-5525.88
0.8704,0.1296	-5526.97
0.7028,0.2972	-5533.07
0.8105,0.1895	-5522.97
0.9048,0.0952	-5524.29
0.9358,0.0642	-5513.05
0.7948,0.2052	-5528.61
0.8467,0.1533	-5531.42
0.7472,0.2528	-5528.72
0.8191,0.1809	-5524.41
0.8937,0.1063	-5517.42
0.9333,0.0667	-5507.74
0.7889,0.2111	-5521.98
0.8521,0.1479	-5519.41
0.7814,0.2186	-5529.82
0.8246,0.1754	-5529.06
0.9143,0.0857	-5512.96
0.9314,0.0686	-5502.57
0.7365,0.2635	-5536.07
0.8325,0.1675	-5521.24
0.7601,0.2399	-5526.29
0.8056,0.1944	-5523.03
0.9215,0.0785	-5515.41
0.9386,0.0614	-5504.92
0.7299,0.2701	-5530.98
0.8442,0.1558	-5512.72
0.7518,0.2482	-5529.78
0.7875,0.2125	-5525.94
0.9043,0.0957	-5517.52
0.9350,0.0650	-5507.71
0.6980,0.3020	-5528.10
0.8138,0.1862	-5524.42
0.7495,0.2505	-5526.50
0.7857,0.2143	-5520.76
0.9033,0.0967	-5521.98
0.9424,0.0576	-5504.79
0.7512,0.2488	-5529.78
0.8321,0.1679	-5527.64
0.7618,0.2382	-5528.59
0.7677,0.2323	-5534.53
0.9084,0.0916	-5515.29
0.9505,0.0495	-5504.53
0.7076,0.2924	-5532.15
0.8307,0.1693	-5524.43
0.7399,0.2601	-5526.73
0.7363,0.2637	-5527.85
0.8884,0.1116	-5513.25
0.9503,0.0497	-5525.19
0.6671,0.3329	-5537.84
0.8060,0.1940	-5523.03
0.7642,0.2358	-5526.22
0.7628,0.2372	-5532.09
0.9058,0.0942	-5506.23
0.9500,0.0500	-5504.55
0.6712,0.3288	-5534.29
0.7856,0.2144	-5527.25
0.7491,0.2509	-5526.51
0.7172,0.2828	-5530.19
0.9106,0.0894	-5517.62
0.9510,0.0490	-5522.31
0.6668,0.3332	-5532.29
0.7965,0.2035	-5523.16
0.6999,0.3001	-5528.87
0.7042,0.2958	-5530.46
0.9172,0.0828	-5508.14
0.9621,0.0379	-5504.23
0.6734,0.3266	-5535.70
0.7915,0.2085	-5527.25
0.7193,0.2807	-5532.97
0.6503,0.3497	-5531.02
0.9068,0.0932	-5519.83
0.9590,0.0410	-5501.14
0.6952,0.3048	-5535.63
0.7951,0.2049	-5529.97
0.6322,0.3678	-5535.29
0.6531,0.3469	-5534.04
0.8923,0.1077	-5521.65
0.9642,0.0358	-5504.18
0.6394,0.3606	-5537.35
0.8153,0.1847	-5530.35
0.6319,0.3681	-5541.24
0.6252,0.3748	-5536.05
0.8732,0.1268	-5519.36
0.9582,0.0418	-5516.85
0.6454,0.3546	-5534.88
0.8291,0.1709	-5526.01
0.6065,0.3935	-5538.89
0.6263,0.3737	-5537.56
0.8865,0.1135	-5515.34
0.9477,0.0523	-5507.51
0.6577,0.3423	-5537.18
0.8709,0.1291	-5515.54
0.6435,0.3565	-5536.12
0.6572,0.3428	-5533.92
0.8777,0.1223	-5529.24
0.9451,0.0549	-5510.39
0.6767,0.3233	-5543.06
0.8805,0.1195	-5507.42
0.6407,0.3593	-5536.17
0.6720,0.3280	-5532.12
0.8791,0.1209	-5521.37
0.9342,0.0658	-5510.38
0.7008,0.2992	-5530.54
0.8735,0.1265	-5527.09
0.6573,0.3427	-5535.87
0.6721,0.3279	-5537.14
0.8558,0.1442	-5522.94
0.9290,0.0710	-5507.84
0.7323,0.2677	-5536.99
0.8722,0.1278	-5515.52
0.6418,0.3582	-5534.98
0.6496,0.3504	-5538.47
0.8452,0.1548	-5524.56
0.9267,0.0733	-5510.43
0.7189,0.2811	-5533.91
0.8894,0.1106	-5515.32
0.6320,0.3680	-5540.16
0.6508,0.3492	-5539.09
0.8395,0.1605	-5524.50
0.9242,0.0758	-5512.96
0.7176,0.2824	-5535.77
0.8818,0.1182	-5519.41
0.6361,0.3639	-5535.16
0.6340,0.3660	-5535.78
0.7998,0.2002	-5535.58
0.9021,0.0979	-5515.27
0.6789,0.3211	-5536.41
0.8521,0.1479	-5526.41
0.6638,0.3362	-5535.11
0.5887,0.4113	-5539.68
0.7953,0.2047	-5528.61
0.9054,0.0946	-5517.54
0.7057,0.2943	-5528.67
0.8692,0.1308	-5519.35
0.6949,0.3051	-5536.45
0.6294,0.3706	-5538.03
0.7671,0.2329	-5524.98
0.9087,0.0913	-5510.70
0.7203,0.2797	-5531.08
0.8708,0.1292	-5521.26
0.7323,0.2677	-5531.96
0.6227,0.3773	-5538.63
0.7203,0.2797	-5533.91
0.9155,0.0845	-5512.96
0.7573,0.2427	-5528.62
0.8692,0.1308	-5521.25
0.7370,0.2630	-5527.83
0.6383,0.3617	-5539.07
0.7227,0.2773	-5529.13
0.9189,0.0811	-5510.52
0.7417,0.2583	-5530.90
0.8825,0.1175	-5523.45
0.7484,0.2516	-5529.80
0.6868,0.3132	-5537.20
0.7285,0.2715	-5528.03
0.9073,0.0927	-5508.44
0.7614,0.2386	-5527.43
0.8915,0.1085	-5511.09
0.7364,0.2636	-5529.90
0.6778,0.3222	-5533.44
0.7206,0.2794	-5532.02
0.9060,0.0940	-5510.75
0.7312,0.2688	-5533.97
0.9062,0.0938	-5522.09
0.7514,0.2486	-5527.57
0.7003,0.2997	-5534.79
0.7547,0.2453	-5533.14
0.8772,0.1228	-5513.48
0.7375,0.2625	-5534.02
0.8961,0.1039	-5515.28
0.7414,0.2586	-5528.80
0.7302,0.2698	-5527.99
0.7752,0.2248	-5519.87
0.8501,0.1499	-5526.36
0.7141,0.2859	-5536.65
0.9211,0.0789	-5505.58
0.7638,0.2362	-5533.27
0.7371,0.2629	-5532.99
0.7420,0.2580	-5529.85
0.8629,0.1371	-5517.52
0.7296,0.2704	-5530.98
0.9226,0.0774	-5510.47
0.7746,0.2254	-5526.07
0.7599,0.2401	-5525.14
0.7638,0.2362	-5527.40
0.8582,0.1418	-5524.77
0.7492,0.2508	-5529.79
0.9187,0.0813	-5512.95
0.8046,0.1954	-5528.71
0.8134,0.1866	-5525.89
0.8010,0.1990	-5527.27
0.8525,0.1475	-5521.16
0.7352,0.2648	-5531.96
0.9269,0.0731	-5515.51
0.7817,0.2183	-5531.09
0.8245,0.1755	-5525.96
0.7841,0.2159	-5528.55
0.8619,0.1381	-5513.86
0.7195,0.2805	-5530.14
0.9240,0.0760	-5510.46
0.7517,0.2483	-5533.10
0.8124,0.1876	-5527.35
0.8045,0.1955	-5530.12
0.8430,0.1570	-5529.58
0.7137,0.2863	-5523.86
0.9259,0.0741	-5525.59
0.7585,0.2415	-5535.48
0.8382,0.1618	-5524.49
0.8207,0.1793	-5527.45
0.8522,0.1478	-5521.16
0.7079,0.2921	-5534.80
0.9403,0.0597	-5521.40
0.7365,0.2635	-5527.84
0.8231,0.1769	-5522.87
0.8203,0.1797	-5521.37
0.8502,0.1498	-5521.16
0.7118,0.2882	-5531.20
0.9519,0.0481	-5510.46
0.7097,0.2903	-5531.23
0.8154,0.1846	-5527.38
0.7959,0.2041	-5534.06
0.8349,0.1651	-5519.60
0.7437,0.2563	-5530.90
0.9372,0.0628	-5518.48
0.7148,0.2852	-5532.07
0.8416,0.1584	-5524.52
0.7916,0.2084	-5523.24
0.8222,0.1778	-5529.00
0.7569,0.2431	-5534.30
0.9279,0.0721	-5507.86
0.7023,0.2977	-5533.08
0.8248,0.1752	-5522.86
0.7950,0.2050	-5532.67
0.8510,0.1490	-5521.16
0.7132,0.2868	-5529.35
0.9089,0.0911	-5512.99
0.6799,0.3201	-5534.15
0.8447,0.1553	-5519.47
0.8164,0.1836	-5525.90
0.8440,0.1560	-5527.92
0.7357,0.2643	-5530.93
0.9144,0.0856	-5510.59
0.6873,0.3127	-5532.48
0.8521,0.1479	-5526.41
0.8490,0.1510	-5517.71
0.8556,0.1444	-5515.83
0.7195,0.2805	-5531.09
0.9085,0.0915	-5512.99
0.7040,0.2960	-5533.93
0.8192,0.1808	-5525.92
0.8174,0.1826	-5522.91
0.8646,0.1354	-5524.91
0.6919,0.3081	-5537.24
0.9019,0.0981	-5515.27
0.7158,0.2842	-5533.91
0.8625,0.1375	-5521.19
0.8128,0.1872	-5536.16
0.8628,0.1372	-5524.87
0.7274,0.2726	-5531.00
0.8975,0.1025	-5515.28
0.7380,0.2620	-5535.06
0.8372,0.1628	-5519.57
0.7996,0.2004	-5525.88
0.8490,0.1510	-5526.34
0.7468,0.2532	-5534.13
0.8990,0.1010	-5517.46
0.7644,0.2356	-5529.75
0.8676,0.1324	-5519.35
0.7865,0.2135	-5528.56
0.8196,0.1804	-5522.89
0.7682,0.2318	-5527.36
0.8721,0.1279	-5509.76
0.7493,0.2507	-5530.89
0.8661,0.1339	-5515.62
0.8036,0.1964	-5521.65
0.8487,0.1513	-5524.61
0.7318,0.2682	-5529.96
0.8152,0.1848	-5527.38
0.7252,0.2748	-5535.87
0.8741,0.1259	-5509.67
0.7998,0.2002	-5528.65
0.8247,0.1753	-5524.41
0.6911,0.3089	-5527.57
0.8207,0.1793	-5533.53
0.7508,0.2492	-5527.58
0.8909,0.1091	-5511.11
0.7635,0.2365	-5525.06
0.8471,0.1529	-5528.01
0.7138,0.2862	-5534.82
0.7998,0.2002	-5520.34
0.8018,0.1982	-5520.29
0.9095,0.0905	-5519.91
0.7511,0.2489	-5537.51
0.8557,0.1443	-5519.38
0.7443,0.2557	-5529.83
0.8004,0.1996	-5532.82
0.8023,0.1977	-5527.28
0.9188,0.0812	-5512.95
0.7763,0.2237	-5526.05
0.8087,0.1913	-5521.55
0.7702,0.2298	-5520.08
0.8110,0.1890	-5531.71
0.7699,0.2301	-5530.96
0.9239,0.0761	-5510.46
0.7685,0.2315	-5539.35
0.7966,0.2034	-5519.06
0.7521,0.2479	-5528.67
0.7773,0.2227	-5533.54
0.7901,0.2099	-5528.57
0.9202,0.0798	-5520.28
0.7607,0.2393	-5532.06
0.8365,0.1635	-5526.10
0.8029,0.1971	-5525.88
0.7385,0.2615	-5526.77
0.7467,0.2533	-5534.13
0.9295,0.0705	-5510.41
0.7618,0.2382	-5529.75
0.8265,0.1735	-5530.66
0.7676,0.2324	-5533.34
0.7922,0.2078	-5532.60
0.7774,0.2226	-5532.29
0.9343,0.0657	-5510.38
0.7810,0.2190	-5527.27
0.8540,0.1460	-5519.39
0.7150,0.2850	-5533.91
0.7926,0.2074	-5525.91
0.8048,0.1952	-5527.29
0.9472,0.0528	-5501.74
0.7830,0.2170	-5523.41
0.8536,0.1464	-5522.92
0.7296,0.2704	-5530.98
0.8190,0.1810	-5530.45
0.8187,0.1813	-5525.92
0.9395,0.0605	-5510.37
0.7690,0.2310	-5527.35
0.8438,0.1562	-5527.92
0.6907,0.3093	-5534.02
0.8163,0.1837	-5524.41
0.8237,0.1763	-5519.79
0.9228,0.0772	-5515.43
0.7173,0.2827	-5533.91
0.8575,0.1425	-5524.76
0.7223,0.2777	-5531.05
0.7704,0.2296	-5529.76
0.8195,0.1805	-5521.38
0.9314,0.0686	-5513.00
0.7457,0.2543	-5527.66
0.8287,0.1713	-5514.97
0.7692,0.2308	-5528.55
0.7689,0.2311	-5536.97
0.8147,0.1853	-5519.97
0.9185,0.0815	-5512.95
0.7396,0.2604	-5531.96
0.7991,0.2009	-5521.74
0.8121,0.1879	-5518.57
0.7381,0.2619	-5527.81
0.8066,0.1934	-5525.88
0.9099,0.0901	-5508.36
0.6886,0.3114	-5538.01
0.7462,0.2538	-5525.50
0.8231,0.1769	-5533.64
0.6777,0.3223	-5530.46
0.8056,0.1944	-5535.82
0.9318,0.0682	-5515.62
0.6540,0.3460	-5537.20
0.7714,0.2286	-5533.41
0.8388,0.1612	-5524.49
0.6869,0.3131	-5533.27
0.8116,0.1884	-5525.88
0.9084,0.0916	-5519.88
0.6857,0.3143	-5530.95
0.7911,0.2089	-5524.59
0.7937,0.2063	-5531.29
0.7458,0.2542	-5538.43
0.8340,0.1660	-5526.07
0.9310,0.0690	-5510.40
0.7445,0.2555	-5528.76
0.7529,0.2471	-5529.77
0.7782,0.2218	-5527.28
0.7104,0.2896	-5538.39
0.8203,0.1797	-5516.82
0.9393,0.0607	-5518.59
0.7388,0.2612	-5535.07
0.7875,0.2125	-5528.56
0.7821,0.2179	-5532.38
0.7077,0.2923	-5527.72
0.8538,0.1462	-5521.16
0.9498,0.0502	-5513.37
0.7244,0.2756	-5531.03
0.8016,0.1984	-5521.69
0.8062,0.1938	-5524.45
0.6438,0.3562	-5538.48
0.8620,0.1380	-5519.36
0.9631,0.0369	-5510.73
0.7577,0.2423	-5522.92
0.7492,0.2508	-5534.17
0.8231,0.1769	-5522.87
0.6550,0.3450	-5535.91
0.8657,0.1343	-5526.81
0.9595,0.0405	-5510.62
0.7761,0.2239	-5528.54
0.7239,0.2761	-5531.03
0.8486,0.1514	-5524.61
0.6264,0.3736	-5536.01
0.8599,0.1401	-5521.18
0.9650,0.0350	-5507.48
0.7951,0.2049	-5529.96
0.6795,0.3205	-5538.66
0.8231,0.1769	-5522.87
0.5932,0.4068	-5537.31
0.8320,0.1680	-5524.44
0.9640,0.0360	-5500.90
0.8047,0.1953	-5525.87
0.7175,0.2825	-5533.91
0.8180,0.1820	-5522.91
0.6333,0.3667	-5536.89
0.8144,0.1856	-5525.89
0.9678,0.0322	-5507.52
0.7840,0.2160	-5531.13
0.7142,0.2858	-5535.74
0.8475,0.1525	-5522.88
0.6887,0.3113	-5531.66
0.8032,0.1968	-5535.72
0.9682,0.0318	-5510.94
0.7983,0.2017	-5524.51
0.7537,0.2463	-5530.89
0.8653,0.1347	-5515.63
0.7170,0.2830	-5531.12
0.7889,0.2111	-5527.25
0.9586,0.0414	-5507.45
0.8434,0.1566	-5522.86
0.7908,0.2092	-5531.24
0.8778,0.1222	-5523.32
0.7403,0.2597	-5534.05
0.8148,0.1852	-5521.45
0.9620,0.0380	-5507.46
0.8689,0.1311	-5521.24
0.8124,0.1876	-5527.35
0.8766,0.1234	-5523.29
0.7521,0.2479	-5533.11
0.8381,0.1619	-5524.49
0.9618,0.0382	-5513.91
0.8370,0.1630	-5524.48
0.8070,0.1930	-5533.03
0.8999,0.1001	-5513.08
0.7241,0.2759	-5531.03
0.8051,0.1949	-5531.55
0.9587,0.0413	-5510.59
0.8496,0.1504	-5515.97
0.7856,0.2144	-5515.57
0.8838,0.1162	-5515.37
0.6819,0.3181	-5538.70
0.7908,0.2092	-5525.92
0.9615,0.0385	-5510.67
0.8641,0.1359	-5528.60
0.8238,0.1762	-5522.87
0.8555,0.1445	-5517.61
0.6741,0.3259	-5534.24
0.7612,0.2388	-5534.39
0.9650,0.0350	-5514.11
0.8659,0.1341	-5521.22
0.8318,0.1682	-5522.84
0.8626,0.1374	-5528.54
0.7365,0.2635	-5532.98
0.7827,0.2173	-5531.11
0.9543,0.0457	-5504.42
0.8497,0.1503	-5524.62
0.8433,0.1567	-5517.81
0.8611,0.1389	-5512.06
0.7604,0.2396	-5525.13
0.7979,0.2021	-5528.63
0.9635,0.0365	-5510.74
0.8498,0.1502	-5521.16
0.8449,0.1551	-5517.78
0.8367,0.1633	-5524.47
0.7588,0.2412	-5528.61
0.8313,0.1687	-5524.44
0.9742,0.0258	-5507.66
0.8518,0.1482	-5517.66
0.8311,0.1689	-5527.62
0.8311,0.1689	-5532.40
0.7062,0.2938	-5531.29
0.8520,0.1480	-5529.91
0.9719,0.0281	-5504.05
0.8438,0.1562	-5527.92
0.8319,0.1681	-5526.04
0.8566,0.1434	-5528.31
0.7188,0.2812	-5531.09
0.8593,0.1407	-5524.79
0.9711,0.0289	-5504.06
0.8046,0.1954	-5521.63
0.8508,0.1492	-5526.38
0.8843,0.1157	-5537.74
0.7061,0.2939	-5533.92
0.8703,0.1297	-5519.35
0.9697,0.0303	-5514.48
0.7913,0.2087	-5524.58
0.8095,0.1905	-5525.88
0.8755,0.1245	-5517.42
0.7065,0.2935	-5529.53
0.8924,0.1076	-5517.42
0.9700,0.0300	-5504.08
0.7943,0.2057	-5524.55
0.8494,0.1506	-5521.16
0.9031,0.0969	-5519.74
0.7483,0.2517	-5528.71
0.8856,0.1144	-5519.44
0.9589,0.0411	-5510.60
0.7848,0.2152	-5523.38
0.8248,0.1752	-5519.77
0.8913,0.1087	-5515.31
0.7587,0.2413	-5528.61
0.9067,0.0933	-5522.10
0.9600,0.0400	-5507.45
0.7564,0.2436	-5526.36
0.8409,0.1591	-5521.18
0.8938,0.1062	-5517.42
0.7284,0.2716	-5533.95
0.9046,0.0954	-5508.53
0.9568,0.0432	-5510.55
0.7511,0.2489	-5529.78
0.8374,0.1626	-5521.20
0.8777,0.1223	-5521.35
0.7510,0.2490	-5531.99
0.8858,0.1142	-5525.59
0.9493,0.0507	-5504.57
0.7254,0.2746	-5531.02
0.8241,0.1759	-5530.59
0.8592,0.1408	-5522.98
0.7648,0.2352	-5530.93
0.8889,0.1111	-5523.64
0.9399,0.0601	-5507.62
0.7183,0.2817	-5533.91
0.7961,0.2039	-5529.98
0.8852,0.1148	-5517.40
0.7576,0.2424	-5535.45
0.8717,0.1283	-5513.61
0.9373,0.0627	-5510.37
0.7486,0.2514	-5530.89
0.7837,0.2163	-5527.26
0.8881,0.1119	-5517.40
0.7799,0.2201	-5529.80
0.8689,0.1311	-5517.46
0.9445,0.0555	-5510.39
0.7164,0.2836	-5535.76
0.7541,0.2459	-5528.65
0.8906,0.1094	-5509.02
0.7729,0.2271	-5522.42
0.8547,0.1453	-5515.85
0.9503,0.0497	-5516.34
0.7630,0.2370	-5525.07
0.7612,0.2388	-5534.39
0.8747,0.1253	-5521.31
0.7709,0.2291	-5524.91
0.8827,0.1173	-5517.40
0.9472,0.0528	-5504.63
0.7800,0.2200	-5523.48
0.7903,0.2097	-5527.25
0.8937,0.1063	-5511.04
0.7805,0.2195	-5529.81
0.8755,0.1245	-5517.42
0.9494,0.0506	-5519.22
0.7767,0.2233	-5523.55
0.7638,0.2362	-5534.44
0.8903,0.1097	-5509.03
0.7773,0.2227	-5528.54
0.8679,0.1321	-5519.35
0.9540,0.0460	-5504.43
0.7685,0.2315	-5529.75
0.7895,0.2105	-5527.25
0.9081,0.0919	-5517.58
0.7687,0.2313	-5521.35
0.8613,0.1387	-5515.71
0.9493,0.0507	-5510.43
0.7692,0.2308	-5521.33
0.7727,0.2273	-5534.66
0.9105,0.0895	-5515.30
0.7772,0.2228	-5523.54
0.8529,0.1471	-5515.89
0.9467,0.0533	-5510.40
0.7626,0.2374	-5529.75
0.8261,0.1739	-5529.09
0.9144,0.0856	-5517.70
0.7847,0.2153	-5531.14
0.8508,0.1492	-5529.86
0.9402,0.0598	-5513.13
0.7980,0.2020	-5532.76
0.8019,0.1981	-5525.88
0.9286,0.0714	-5523.24
0.7659,0.2341	-5526.19
0.8782,0.1218	-5527.29
0.9399,0.0601	-5510.37
0.7810,0.2190	-5531.08
0.8114,0.1886	-5527.34
0.9235,0.0765	-5510.46
0.7901,0.2099	-5523.27
0.8661,0.1339	-5515.62
0.9285,0.0715	-5512.98
0.8089,0.1911	-5520.11
0.7615,0.2385	-5532.07
0.9239,0.0761	-5512.96
0.7989,0.2011	-5527.26
0.8777,0.1223	-5515.44
0.9054,0.0946	-5528.83
0.8482,0.1518	-5529.76
0.7584,0.2416	-5529.75
0.9151,0.0849	-5512.96
0.7351,0.2649	-5532.98
0.8903,0.1097	-5521.60
0.9013,0.0987	-5521.91
0.8248,0.1752	-5524.41
0.7534,0.2466	-5526.42
0.9313,0.0687	-5510.39
0.7003,0.2997	-5532.25
0.8845,0.1155	-5515.36
0.8970,0.1030	-5513.12
0.8511,0.1489	-5535.10
0.7337,0.2663	-5528.92
0.9353,0.0647	-5510.38
0.6626,0.3374	-5537.83
0.8924,0.1076	-5519.53
0.8830,0.1170	-5509.31
0.8657,0.1343	-5524.94
0.7202,0.2798	-5537.69
0.9468,0.0532	-5510.40
0.6006,0.3994	-5539.02
0.9006,0.0994	-5524.09
0.8870,0.1130	-5513.28
0.8479,0.1521	-5526.32
0.7266,0.2734	-5531.01
0.9401,0.0599	-5518.63
0.5866,0.4134	-5539.03
0.8942,0.1058	-5513.16
0.8728,0.1272	-5521.28
0.8444,0.1556	-5529.63
0.6568,0.3432	-5532.64
0.9365,0.0635	-5507.68
0.5934,0.4066	-5538.81
0.9008,0.0992	-5519.69
0.8658,0.1342	-5521.22
0.8613,0.1387	-5517.53
0.6317,0.3683	-5541.24
0.9411,0.0589	-5502.06
0.6261,0.3739	-5537.05
0.9142,0.0858	-5522.43
0.8754,0.1246	-5511.57
0.8676,0.1324	-5519.35
0.6921,0.3079	-5536.44
0.9511,0.0489	-5501.54
0.6173,0.3827	-5539.18
0.9059,0.0941	-5519.81
0.8498,0.1502	-5522.89
0.8516,0.1484	-5521.16
0.6743,0.3257	-5536.42
0.9549,0.0451	-5510.51
0.6712,0.3288	-5534.29
0.9157,0.0843	-5520.11
0.8223,0.1777	-5522.88
0.8358,0.1642	-5524.47
0.6707,0.3293	-5532.87
0.9471,0.0529	-5507.52
0.7205,0.2795	-5529.18
0.9262,0.0738	-5512.96
0.7835,0.2165	-5527.26
0.8657,0.1343	-5526.80
0.6665,0.3335	-5534.37
0.9533,0.0467	-5507.47
0.6614,0.3386	-5530.46
0.9369,0.0631	-5521.16
0.8163,0.1837	-5527.39
0.8722,0.1278	-5515.52
0.6405,0.3595	-5539.07
0.9551,0.0449	-5510.52
0.6920,0.3080	-5533.20
0.9485,0.0515	-5501.68
0.7906,0.2094	-5535.22
0.8676,0.1324	-5517.47
0.6383,0.3617	-5537.93
0.9617,0.0383	-5501.01
0.7189,0.2811	-5532.03
0.9427,0.0573	-5507.58
0.7739,0.2261	-5523.62
0.8549,0.1451	-5522.94
0.6302,0.3698	-5538.55
0.9632,0.0368	-5510.73
0.7265,0.2735	-5524.17
0.9465,0.0535	-5510.40
0.7703,0.2297	-5523.71
0.8618,0.1382	-5510.20
0.6371,0.3629	-5539.63
0.9593,0.0407	-5504.29
0.7617,0.2383	-5525.10
0.9522,0.0478	-5507.47
0.7835,0.2165	-5529.83
0.8372,0.1628	-5519.57
0.7119,0.2881	-5539.34
0.9514,0.0486	-5513.43
0.7622,0.2378	-5526.25
0.9590,0.0410	-5504.30
0.8029,0.1971	-5525.88
0.8473,0.1527	-5526.30
0.6687,0.3313	-5537.84
0.9386,0.0614	-5504.92
0.7517,0.2483	-5534.21
0.9456,0.0544	-5510.39
0.7668,0.2332	-5529.75
0.8393,0.1607	-5519.54
0.6886,0.3114	-5532.46
0.9269,0.0731	-5515.51
0.7850,0.2150	-5523.37
0.9423,0.0577	-5513.17
0.7458,0.2542	-5528.74
0.7822,0.2178	-5527.27
0.6960,0.3040	-5537.29
0.9279,0.0721	-5512.97
0.7726,0.2274	-5524.87
0.9324,0.0676	-5520.88
0.8001,0.1999	-5523.11
0.8051,0.1949	-5528.71
0.6809,0.3191	-5534.13
0.9184,0.0816	-5517.79
0.7892,0.2108	-5525.93
0.9331,0.0669	-5502.48
0.8248,0.1752	-5530.61
0.7968,0.2032	-5527.26
0.6749,0.3251	-5537.88
0.9164,0.0836	-5515.35
0.8216,0.1784	-5525.94
0.9346,0.0654	-5513.04
0.8259,0.1741	-5515.07
0.7981,0.2019	-5525.89
0.6274,0.3726	-5534.93
0.9205,0.0795	-5512.95
0.8689,0.1311	-5521.24
0.9394,0.0606	-5515.85
0.8585,0.1415	-5526.58
0.8194,0.1806	-5521.38
0.6386,0.3614	-5533.38
0.9149,0.0851	-5515.33
0.8589,0.1411	-5519.37
0.9371,0.0629	-5518.48
0.8549,0.1451	-5522.94
0.8121,0.1879	-5522.96
0.6493,0.3507	-5535.39
0.9119,0.0881	-5512.97
0.8599,0.1401	-5522.99
0.9238,0.0762	-5505.47
0.8432,0.1568	-5527.90
0.8475,0.1525	-5522.88
0.6017,0.3983	-5536.93
0.8886,0.1114	-5519.48
0.8395,0.1605	-5527.81
0.9200,0.0800	-5515.39
0.8244,0.1756	-5529.05
0.8522,0.1478	-5528.17
0.6048,0.3952	-5541.05
0.8828,0.1172	-5517.40
0.8556,0.1444	-5522.94
0.8846,0.1154	-5523.51
0.8322,0.1678	-5524.44
0.8574,0.1426	-5524.76
0.6252,0.3748	-5537.07
0.8997,0.1003	-5524.05
0.8619,0.1381	-5519.36
0.8773,0.1227	-5527.24
0.8741,0.1259	-5515.49
0.8477,0.1523	-5529.74
0.6410,0.3590	-5538.49
0.9181,0.0819	-5515.37
0.8117,0.1883	-5522.96
0.8657,0.1343	-5517.49
0.8948,0.1052	-5519.57
0.8630,0.1370	-5530.40
0.6593,0.3407	-5534.53
0.9299,0.0701	-5512.99
0.7744,0.2256	-5528.54
0.8732,0.1268	-5513.57
0.8918,0.1082	-5517.41
0.8606,0.1394	-5515.72
0.6785,0.3215	-5532.68
0.9241,0.0759	-5515.46
0.7184,0.2816	-5527.35
0.8954,0.1046	-5521.73
0.9111,0.0889	-5522.28
0.8690,0.1310	-5532.59
0.6870,0.3130	-5533.27
0.9279,0.0721	-5525.75
0.7353,0.2647	-5527.87
0.8941,0.1059	-5511.02
0.9107,0.0893	-5512.98
0.8574,0.1426	-5521.17
0.7275,0.2725	-5529.03
0.9283,0.0717	-5512.98
0.7470,0.2530	-5531.97
0.9033,0.0967	-5513.04
0.9164,0.0836	-5510.56
0.8570,0.1430	-5522.96
0.7236,0.2764	-5527.19
0.9263,0.0737	-5520.56
0.7079,0.2921	-5533.91
0.9102,0.0898	-5515.30
0.9206,0.0794	-5522.75
0.8738,0.1262	-5525.17
0.6822,0.3178	-5534.12
0.9223,0.0777	-5510.48
0.6689,0.3311	-5535.03
0.9019,0.0981	-5526.37
0.9147,0.0853	-5515.33
0.8942,0.1058	-5515.29
0.6422,0.3578	-5536.73
0.9169,0.0831	-5508.15
0.6882,0.3118	-5538.00
0.8877,0.1123	-5519.47
0.9061,0.0939	-5517.55
0.9091,0.0909	-5522.20
0.6713,0.3287	-5537.14
0.9177,0.0823	-5510.54
0.6844,0.3156	-5529.45
0.8965,0.1035	-5513.12
0.9115,0.0885	-5512.97
0.8928,0.1072	-5508.94
0.6489,0.3511	-5537.24
0.9043,0.0957	-5515.28
0.6716,0.3284	-5535.00
0.8847,0.1153	-5521.47
0.9194,0.0806	-5520.25
0.8946,0.1054	-5515.29
0.6618,0.3382	-5538.50
0.8901,0.1099	-5523.68
0.6382,0.3618	-5535.66
0.9005,0.0995	-5517.48
0.9129,0.0871	-5510.62
0.8925,0.1075	-5519.53
0.6913,0.3087	-5530.79
0.8986,0.1014	-5519.64
0.6052,0.3948	-5537.21
0.8766,0.1234	-5529.17
0.9192,0.0808	-5515.38
0.8922,0.1078	-5515.30
0.6483,0.3517	-5539.69
0.8640,0.1360	-5519.35
0.6261,0.3739	-5543.75
0.8541,0.1459	-5521.16
0.9186,0.0814	-5517.80
0.9038,0.0962	-5515.28
0.6740,0.3260	-5529.15
0.8698,0.1302	-5521.25
0.6517,0.3483	-5535.96
0.8645,0.1355	-5521.20
0.8927,0.1073	-5511.06
0.9000,0.1000	-5519.67
0.6918,0.3082	-5534.82
0.9066,0.0934	-5522.10
0.6436,0.3564	-5539.07
0.8834,0.1166	-5529.55
0.8942,0.1058	-5521.70
0.8955,0.1045	-5517.43
0.7582,0.2418	-5529.75
0.9150,0.0850	-5512.96
0.6536,0.3464	-5539.74
0.8828,0.1172	-5515.38
0.8647,0.1353	-5524.92
0.8898,0.1102	-5515.32
0.7787,0.2213	-5523.51
0.8842,0.1158	-5525.53
0.6183,0.3817	-5537.25
0.9036,0.0964	-5513.04
0.8586,0.1414	-5513.96
0.8773,0.1227	-5523.31
0.7106,0.2894	-5532.11
0.8696,0.1304	-5526.94
0.5817,0.4183	-5538.87
0.8923,0.1077	-5525.88
0.8391,0.1609	-5516.24
0.8958,0.1042	-5519.59
0.6955,0.3045	-5538.93
0.8409,0.1591	-5519.52
0.6018,0.3982	-5541.06
0.8809,0.1191	-5515.40
0.8602,0.1398	-5517.55
0.8773,0.1227	-5511.51
0.7240,0.2760	-5529.10
0.8476,0.1524	-5519.44
0.6158,0.3842	-5538.73
0.8754,0.1246	-5521.32
0.8382,0.1618	-5521.20
0.8752,0.1248	-5515.47
0.7438,0.2562	-5535.16
0.8339,0.1661	-5522.84
0.6023,0.3977	-5539.39
0.9023,0.0977	-5528.62
0.8351,0.1649	-5522.84
0.8695,0.1305	-5530.73
0.7064,0.2936	-5533.92
0.8833,0.1167	-5519.42
0.5975,0.4025	-5540.27
0.9142,0.0858	-5508.23
0.8084,0.1916	-5530.19
0.8780,0.1220	-5521.35
0.6548,0.3452	-5535.91
0.8687,0.1313	-5517.46
0.6084,0.3916	-5536.65
0.9209,0.0791	-5512.95
0.7563,0.2437	-5532.02
0.8798,0.1202	-5519.39
0.6483,0.3517	-5535.41
0.8736,0.1264	-5523.23
0.6264,0.3736	-5540.66
0.9149,0.0851	-5517.71
0.7719,0.2281	-5527.32
0.8792,0.1208	-5509.46
0.6717,0.3283	-5533.56
0.8709,0.1291	-5517.44
0.6800,0.3200	-5532.64
0.9123,0.0877	-5527.02
0.7612,0.2388	-5525.11
0.8452,0.1548	-5521.17
0.6689,0.3311	-5531.52
0.8579,0.1421	-5524.77
0.6410,0.3590	-5533.85
0.9278,0.0722	-5520.64
0.7975,0.2025	-5523.15
0.8428,0.1572	-5529.57
0.6158,0.3842	-5538.26
0.8450,0.1550	-5521.17
0.6509,0.3491	-5539.09
0.9249,0.0751	-5510.45
0.7729,0.2271	-5524.87
0.8476,0.1524	-5521.16
0.6535,0.3465	-5535.93
0.8332,0.1668	-5516.41
0.6447,0.3553	-5537.88
0.9077,0.0923	-5513.00
0.7915,0.2085	-5528.58
0.8290,0.1710	-5524.43
0.7221,0.2779	-5529.14
0.8415,0.1585	-5526.19
0.6592,0.3408	-5536.51
0.8972,0.1028	-5513.11
0.7803,0.2197	-5529.81
0.8450,0.1550	-5517.78
0.6895,0.3105	-5533.23
0.8424,0.1576	-5532.91
0.6807,0.3193	-5536.41
0.8852,0.1148	-5515.35
0.7473,0.2527	-5527.64
0.8668,0.1332	-5519.35
0.7626,0.2374	-5532.08
0.8403,0.1597	-5517.86
0.6753,0.3247	-5530.56
0.8805,0.1195	-5517.40
0.7568,0.2432	-5532.03
0.8830,0.1170	-5525.48
0.7238,0.2762	-5534.89
0.8410,0.1590	-5522.85
0.7270,0.2730	-5532.96
0.8831,0.1169	-5531.55
0.7540,0.2460	-5533.13
0.8810,0.1190	-5523.40
0.7311,0.2689	-5534.97
0.8326,0.1674	-5522.84
0.6621,0.3379	-5535.81
0.8660,0.1340	-5517.48
0.7533,0.2467	-5532.00
0.8554,0.1446	-5517.61
0.7333,0.2667	-5535.00
0.8320,0.1680	-5516.44
0.6653,0.3347	-5536.46
0.8551,0.1449	-5521.16
0.7718,0.2282	-5524.89
0.8372,0.1628	-5522.84
0.7354,0.2646	-5524.80
0.8463,0.1537	-5526.28
0.6260,0.3740	-5534.48
0.8468,0.1532	-5517.74
0.7789,0.2211	-5526.02
0.7996,0.2004	-5523.11
0.7007,0.2993	-5535.65
0.8507,0.1493	-5528.12
0.6213,0.3787	-5535.68
0.8473,0.1527	-5524.59
0.8143,0.1857	-5525.89
0.8152,0.1848	-5521.45
0.7384,0.2616	-5537.14
0.8460,0.1540	-5529.68
0.6089,0.3911	-5541.06
0.8730,0.1270	-5511.65
0.7926,0.2074	-5539.31
0.7907,0.2093	-5525.92
0.7671,0.2329	-5532.14
0.7937,0.2063	-5520.51
0.6076,0.3924	-5538.00
0.8700,0.1300	-5519.35
0.7990,0.2010	-5528.64
0.7322,0.2678	-5528.95
0.7754,0.2246	-5528.54
0.8086,0.1914	-5540.29
0.6402,0.3598	-5533.30
0.8470,0.1530	-5528.01
0.8085,0.1915	-5541.72
0.7409,0.2591	-5527.75
0.7826,0.2174	-5528.54
0.7872,0.2128	-5531.18
0.5915,0.4085	-5539.61
0.8643,0.1357	-5524.91
0.8360,0.1640	-5530.99
0.7590,0.2410	-5532.05
0.7678,0.2322	-5528.56
0.7925,0.2075	-5520.55
0.5520,0.4480	-5540.68
0.8788,0.1212	-5517.41
0.8317,0.1683	-5524.44
0.7835,0.2165	-5532.40
0.7186,0.2814	-5529.22
0.7785,0.2215	-5526.02
0.5992,0.4008	-5537.84
0.8696,0.1304	-5509.86
0.8234,0.1766	-5530.57
0.8082,0.1918	-5517.25
0.7233,0.2767	-5531.04
0.8013,0.1987	-5521.70
0.6087,0.3913	-5538.41
0.8421,0.1579	-5516.15
0.8302,0.1698	-5527.61
0.8041,0.1959	-5527.29
0.6859,0.3141	-5533.29
0.7997,0.2003	-5523.11
0.5807,0.4193	-5539.56
0.7877,0.2123	-5535.12
0.8205,0.1795	-5519.85
0.8177,0.1823	-5530.41
0.7174,0.2826	-5533.91
0.8083,0.1917	-5524.44
0.5902,0.4098	-5539.28
0.8162,0.1838	-5519.94
0.7936,0.2064	-5525.90
0.7854,0.2146	-5525.96
0.6886,0.3114	-5535.63
0.8169,0.1831	-5522.91
0.5874,0.4126	-5539.00
0.7706,0.2294	-5524.91
0.7991,0.2009	-5531.41
0.7346,0.2654	-5529.92
0.7392,0.2608	-5533.00
0.8350,0.1650	-5522.84
0.6235,0.3765	-5537.62
0.7452,0.2548	-5522.31
0.7993,0.2007	-5530.03
0.7764,0.2236	-5528.54
0.7614,0.2386	-5525.11
0.8083,0.1917	-5515.80
0.6307,0.3693	-5536.94
0.7193,0.2807	-5534.85
0.8016,0.1984	-5523.08
0.7677,0.2323	-5526.17
0.7808,0.2192	-5526.00
0.8053,0.1947	-5534.39
0.6470,0.3530	-5534.83
0.6930,0.3070	-5531.56
0.8036,0.1964	-5524.47
0.7655,0.2345	-5528.57
0.7565,0.2435	-5526.36
0.8516,0.1484	-5526.40
0.6228,0.3772	-5536.13
0.7192,0.2808	-5530.15
0.8276,0.1724	-5522.85
0.7436,0.2564	-5528.77
0.7576,0.2424	-5530.90
0.8503,0.1497	-5524.63
0.6357,0.3643	-5535.17
0.6875,0.3125	-5534.84
0.8310,0.1690	-5529.22
0.7522,0.2478	-5534.22
0.7823,0.2177	-5524.71
0.8619,0.1381	-5519.36
0.6046,0.3954	-5540.21
0.7218,0.2782	-5532.01
0.8289,0.1711	-5519.69
0.7514,0.2486	-5530.89
0.7701,0.2299	-5534.59
0.8405,0.1595	-5526.17
0.6050,0.3950	-5538.50
0.7425,0.2575	-5528.78
0.8377,0.1623	-5531.05
0.7351,0.2649	-5534.00
0.7848,0.2152	-5525.96
0.8383,0.1617	-5524.49
0.6069,0.3931	-5538.45
0.7439,0.2561	-5526.63
0.8348,0.1652	-5529.32
0.7440,0.2560	-5526.63
0.7651,0.2349	-5530.93
0.8251,0.1749	-5521.31
0.6283,0.3717	-5535.95
0.7536,0.2464	-5534.24
0.8279,0.1721	-5527.56
0.7673,0.2327	-5529.75
0.7205,0.2795	-5532.97
0.7979,0.2021	-5523.14
0.5981,0.4019	-5537.48
0.7759,0.2241	-5528.54
0.8054,0.1946	-5527.30
0.7629,0.2371	-5527.41
0.7085,0.2915	-5541.90
0.8089,0.1911	-5525.88
0.5798,0.4202	-5540.23
0.8054,0.1946	-5521.61
0.8029,0.1971	-5528.68
0.7743,0.2257	-5535.94
0.7280,0.2720	-5532.96
0.7847,0.2153	-5531.14
0.5580,0.4420	-5542.51
0.8315,0.1685	-5516.46
0.7825,0.2175	-5528.54
0.7837,0.2163	-5524.69
0.7208,0.2792	-5532.97
0.7670,0.2330	-5529.75
0.5973,0.4027	-5540.67
0.8469,0.1531	-5526.29
0.7813,0.2187	-5529.82
0.8040,0.1960	-5525.87
0.7184,0.2816	-5529.23
0.7926,0.2074	-5521.89
0.6636,0.3364	-5534.43
0.8372,0.1628	-5522.84
0.7929,0.2071	-5528.59
0.8084,0.1916	-5520.12
0.7379,0.2621	-5535.06
0.8459,0.1541	-5519.46
0.6398,0.3602	-5539.64
0.8147,0.1853	-5527.38
0.7802,0.2198	-5528.54
0.7897,0.2103	-5529.90
0.7132,0.2868	-5534.82
0.8726,0.1274	-5523.21
0.6221,0.3779	-5536.65
0.8150,0.1850	-5524.41
0.8077,0.1923	-5527.31
0.7886,0.2114	-5529.88
0.6639,0.3361	-5537.15
0.8611,0.1389	-5515.71
0.6427,0.3573	-5537.89
0.8195,0.1805	-5524.41
0.8043,0.1957	-5527.29
0.7995,0.2005	-5520.35
0.6273,0.3727	-5538.06
0.8663,0.1337	-5523.09
0.7327,0.2673	-5530.95
0.8066,0.1934	-5528.73
0.8091,0.1909	-5527.32
0.7915,0.2085	-5528.58
0.6054,0.3946	-5536.35
0.8412,0.1588	-5522.85
0.7672,0.2328	-5532.14
0.8071,0.1929	-5531.60
0.8473,0.1527	-5519.45
0.7900,0.2100	-5525.92
0.5879,0.4121	-5539.69
0.7852,0.2148	-5524.66
0.7911,0.2089	-5533.91
0.8245,0.1755	-5521.32
0.8625,0.1375	-5523.03
0.7895,0.2105	-5529.89
0.5789,0.4211	-5538.98
0.7909,0.2091	-5527.25
0.7495,0.2505	-5533.08
0.8331,0.1669	-5527.66
0.8725,0.1275	-5517.43
0.7684,0.2316	-5528.55
0.6125,0.3875	-5536.95
0.7848,0.2152	-5525.96
0.7791,0.2209	-5529.80
0.8227,0.1773	-5535.15
0.8837,0.1163	-5519.42
0.7167,0.2833	-5540.40
0.5761,0.4239	-5540.02
0.7549,0.2451	-5530.89
0.8259,0.1741	-5522.86
0.8477,0.1523	-5521.16
0.8748,0.1252	-5525.20
0.7287,0.2713	-5530.99
0.6074,0.3926	-5539.31
0.8051,0.1949	-5525.87
0.8493,0.1507	-5526.35
0.8438,0.1562	-5521.17
0.8717,0.1283	-5523.19
0.7104,0.2896	-5532.11
0.6007,0.3993	-5537.79
0.8111,0.1889	-5527.34
0.8615,0.1385	-5515.70
0.8400,0.1600	-5519.53
0.8367,0.1633	-5519.57
0.7317,0.2683	-5528.95
0.5790,0.4210	-5536.43
0.8095,0.1905	-5524.43
0.8371,0.1629	-5526.11
0.8378,0.1622	-5519.56
0.8282,0.1718	-5527.57
0.7110,0.2890	-5530.31
0.6190,0.3810	-5537.71
0.7919,0.2081	-5531.26
0.8487,0.1513	-5526.33
0.7887,0.2113	-5524.62
0.8142,0.1858	-5531.80
0.6965,0.3035	-5537.29
0.6087,0.3913	-5537.53
0.8034,0.1966	-5527.28
0.8448,0.1552	-5526.25
0.8060,0.1940	-5527.30
0.7933,0.2067	-5528.60
0.6826,0.3174	-5532.58
0.6464,0.3536	-5537.87
0.7299,0.2701	-5528.99
0.8467,0.1533	-5531.42
0.7907,0.2093	-5527.25
0.7911,0.2089	-5525.92
0.6835,0.3165	-5534.87
0.7342,0.2658	-5529.93
0.7496,0.2504	-5534.18
0.8755,0.1245	-5519.37
0.8057,0.1943	-5527.30
0.8051,0.1949	-5528.71
0.6286,0.3714	-5536.46
0.7833,0.2167	-5525.98
0.7473,0.2527	-5527.64
0.8783,0.1217	-5515.43
0.7677,0.2323	-5533.34
0.7914,0.2086	-5528.58
0.6205,0.3795	-5539.15
0.7800,0.2200	-5534.87
0.7233,0.2767	-5531.04
0.8734,0.1266	-5525.15
0.7905,0.2095	-5528.58
0.7597,0.2403	-5528.60
0.6298,0.3702	-5536.43
0.7676,0.2324	-5532.14
0.7604,0.2396	-5529.75
0.8902,0.1098	-5513.22
0.7964,0.2036	-5531.35
0.7236,0.2764	-5534.89
0.6312,0.3688	-5539.08
0.7058,0.2942	-5533.92
0.7914,0.2086	-5527.25
0.8734,0.1266	-5519.36
0.8061,0.1939	-5524.45
0.6655,0.3345	-5537.83
0.6948,0.3052	-5538.10
0.7073,0.2927	-5536.56
0.7589,0.2411	-5533.19
0.8888,0.1112	-5509.09
0.7929,0.2071	-5527.25
0.6575,0.3425	-5533.26
0.7212,0.2788	-5526.31
0.6580,0.3420	-5534.56
0.7489,0.2511	-5528.70
0.8730,0.1270	-5521.29
0.7666,0.2334	-5522.62
0.6891,0.3109	-5534.04
0.7131,0.2869	-5533.91
0.6810,0.3190	-5533.37
0.7629,0.2371	-5520.40
0.8505,0.1495	-5528.11
0.7931,0.2069	-5525.91
0.6959,0.3041	-5533.98
0.7235,0.2765	-5531.04
0.6935,0.3065	-5532.36
0.7890,0.2110	-5527.25
0.8349,0.1651	-5526.08
0.7829,0.2171	-5528.55
0.6660,0.3340	-5539.22
0.7508,0.2492	-5526.47
0.7128,0.2872	-5527.54
0.8015,0.1985	-5531.46
0.8210,0.1790	-5521.36
0.7860,0.2140	-5528.56
0.6449,0.3551	-5532.51
0.7019,0.2981	-5538.22
0.7088,0.2912	-5530.35
0.7896,0.2104	-5525.93
0.8578,0.1422	-5521.17
0.7791,0.2209	-5526.02
0.6264,0.3736	-5536.01
0.6973,0.3027	-5536.47
0.6790,0.3210	-5536.41
0.7758,0.2242	-5529.78
0.8541,0.1459	-5519.39
0.8293,0.1707	-5529.17
0.6461,0.3539	-5538.47
0.6700,0.3300	-5532.18
0.6756,0.3244	-5533.48
0.7379,0.2621	-5526.78
0.8292,0.1708	-5519.69
0.8666,0.1334	-5521.22
0.6374,0.3626	-5537.94
0.6982,0.3018	-5531.44
0.6255,0.3745	-5532.45
0.7009,0.2991	-5532.24
0.8095,0.1905	-5525.88
0.8542,0.1458	-5526.46
0.6267,0.3733	-5533.41
0.6813,0.3187	-5538.69
0.6366,0.3634	-5534.58
0.7077,0.2923	-5532.15
0.7648,0.2352	-5525.03
0.8350,0.1650	-5519.60
0.5968,0.4032	-5540.28
0.6315,0.3685	-5538.00
0.6559,0.3441	-5535.90
0.7753,0.2247	-5524.82
0.7609,0.2391	-5530.91
0.8475,0.1525	-5517.73
0.6289,0.3711	-5537.51
0.6361,0.3639	-5539.07
0.6534,0.3466	-5537.20
0.7588,0.2412	-5524.02
0.7959,0.2041	-5525.89
0.8426,0.1574	-5516.14
0.6208,0.3792	-5538.17
0.6902,0.3098	-5533.22
0.6994,0.3006	-5533.11
0.7244,0.2756	-5531.03
0.8180,0.1820	-5527.41
0.8447,0.1553	-5526.25
0.6463,0.3537	-5534.85
0.7608,0.2392	-5532.07
0.7233,0.2767	-5535.84
0.7321,0.2679	-5534.98
0.7766,0.2234	-5522.31
0.8282,0.1718	-5522.85
0.6481,0.3519	-5542.13
0.7835,0.2165	-5525.97
0.6930,0.3070	-5533.19
0.7305,0.2695	-5530.97
0.8059,0.1941	-5527.30
0.8242,0.1758	-5532.14
0.6416,0.3584	-5536.74
0.7941,0.2059	-5524.55
0.6917,0.3083	-5531.59
0.7222,0.2778	-5533.92
0.7983,0.2017	-5531.39
0.8177,0.1823	-5536.42
0.6785,0.3215	-5534.17
0.8104,0.1896	-5528.79
0.6705,0.3295	-5534.30
0.7279,0.2721	-5531.98
0.8036,0.1964	-5521.65
0.8098,0.1902	-5527.33
0.6157,0.3843	-5541.09
0.8041,0.1959	-5525.87
0.6222,0.3778	-5538.14
0.7540,0.2460	-5523.05
0.8203,0.1797	-5521.37
0.8169,0.1831	-5525.91
0.5750,0.4250	-5538.84
0.7902,0.2098	-5529.90
0.6563,0.3437	-5531.36
0.7076,0.2924	-5530.38
0.8319,0.1681	-5524.44
0.7709,0.2291	-5523.69
0.6389,0.3611	-5537.35
0.8063,0.1937	-5531.58
0.6486,0.3514	-5534.79
0.6745,0.3255	-5537.15
0.8597,0.1403	-5513.92
0.7881,0.2119	-5532.51
0.5927,0.4073	-5539.96
0.7622,0.2378	-5534.41
0.6604,0.3396	-5537.83
0.6521,0.3479	-5538.47
0.8505,0.1495	-5519.42
0.8114,0.1886	-5525.88
0.5690,0.4310	-5540.24
0.7559,0.2441	-5534.28
0.6287,0.3713	-5535.94
0.6444,0.3556	-5537.88
0.8204,0.1796	-5521.37
0.8128,0.1872	-5527.36
0.6116,0.3884	-5536.98
0.7956,0.2044	-5520.46
0.6477,0.3523	-5535.42
0.6346,0.3654	-5536.86
0.8267,0.1733	-5524.42
0.7983,0.2017	-5531.39
0.6736,0.3264	-5539.32
0.8177,0.1823	-5531.91
0.6357,0.3643	-5536.29
0.6151,0.3849	-5536.87
0.8078,0.1922	-5524.44
0.8312,0.1688	-5526.03
0.6672,0.3328	-5536.45
0.8286,0.1714	-5526.00
0.6420,0.3580	-5536.15
0.6203,0.3797	-5537.68
0.8156,0.1844	-5531.85
0.8227,0.1773	-5524.41
0.6683,0.3317	-5536.44
0.8400,0.1600	-5522.84
0.6366,0.3634	-5536.27
0.5473,0.4527	-5542.04
0.8079,0.1921	-5524.44
0.8401,0.1599	-5526.16
0.6661,0.3339	-5537.15
0.8231,0.1769	-5519.80
0.6040,0.3960	-5541.48
0.5426,0.4574	-5541.14
0.7860,0.2140	-5532.46
0.8366,0.1634	-5519.57
0.6848,0.3152	-5535.64
0.8052,0.1948	-5524.46
0.6234,0.3766	-5536.10
0.5379,0.4621	-5541.85
0.7631,0.2369	-5534.43
0.8398,0.1602	-5524.50
0.6408,0.3592	-5529.80
0.8016,0.1984	-5525.88
0.5924,0.4076	-5538.84
0.5761,0.4239	-5540.94
0.7855,0.2145	-5522.06
0.8199,0.1801	-5527.44
0.6171,0.3829	-5538.23
0.8180,0.1820	-5515.39
0.5452,0.4548	-5541.19
0.5825,0.4175	-5540.83
0.7538,0.2462	-5525.29
0.7853,0.2147	-5533.74
0.6475,0.3525	-5539.69
0.7767,0.2233	-5532.28
0.5526,0.4474	-5540.02
0.6101,0.3899	-5538.82
0.7090,0.2910	-5532.13
0.7820,0.2180	-5525.99
0.6337,0.3663	-5539.62
0.7505,0.2495	-5523.18
0.6080,0.3920	-5539.30
0.6374,0.3626	-5539.07
0.7398,0.2602	-5531.96
0.7671,0.2329	-5539.29
0.6754,0.3246	-5535.68
0.7497,0.2503	-5534.18
0.5592,0.4408	-5538.69
0.6538,0.3462	-5531.48
0.7383,0.2617	-5535.07
0.7377,0.2623	-5532.99
0.6875,0.3125	-5528.53
0.7727,0.2273	-5532.21
0.5148,0.4852	-5542.91
0.6612,0.3388	-5533.82
0.7536,0.2464	-5530.89
0.6836,0.3164	-5536.41
0.6643,0.3357	-5539.20
0.7546,0.2454	-5532.01
0.5380,0.4620	-5541.69
0.6884,0.3116	-5534.04
0.8222,0.1778	-5519.82
0.6170,0.3830	-5536.80
0.7200,0.2800	-5533.91
0.7397,0.2603	-5531.96
0.5716,0.4284	-5542.75
0.6736,0.3264	-5536.42
0.8207,0.1793	-5518.32
0.6770,0.3230	-5532.71
0.7430,0.2570	-5536.21
0.7391,0.2609	-5529.87
0.5919,0.4081	-5538.86
0.7150,0.2850	-5530.23
0.7823,0.2177	-5528.54
0.6715,0.3285	-5535.71
0.7295,0.2705	-5526.02
0.6775,0.3225	-5531.96
0.5792,0.4208	-5541.20
0.7453,0.2547	-5533.04
0.7756,0.2244	-5529.78
0.6362,0.3638	-5537.95
0.7266,0.2734	-5534.92
0.6626,0.3374	-5535.80
0.6188,0.3812	-5540.62
0.7280,0.2720	-5531.98
0.7061,0.2939	-5528.66
0.6991,0.3009	-5531.42
0.7333,0.2667	-5530.95
0.7015,0.2985	-5533.94
0.6459,0.3541	-5536.07
0.7227,0.2773	-5533.92
0.7370,0.2630	-5529.90
0.6781,0.3219	-5529.70
0.7531,0.2469	-5530.89
0.7068,0.2932	-5534.80
0.6911,0.3089	-5535.63
0.7496,0.2504	-5533.08
0.7605,0.2395	-5530.91
0.5942,0.4058	-5539.93
0.7579,0.2421	-5528.61
0.6977,0.3023	-5531.45
0.7026,0.2974	-5533.07
0.7495,0.2505	-5530.89
0.8027,0.1973	-5530.08
0.5504,0.4496	-5540.75
0.7788,0.2212	-5533.57
0.6701,0.3299	-5537.14
0.7115,0.2885	-5532.10
0.6970,0.3030	-5533.97
0.7992,0.2008	-5525.88
0.6085,0.3915	-5539.74
0.8013,0.1987	-5525.88
0.6769,0.3231	-5534.19
0.6955,0.3045	-5536.46
0.6424,0.3576	-5537.31
0.7704,0.2296	-5527.34
0.6689,0.3311	-5536.44
0.8076,0.1924	-5520.14
0.7132,0.2868	-5527.53
0.7082,0.2918	-5532.14
0.6446,0.3554	-5542.64
0.8007,0.1993	-5527.27
0.6632,0.3368	-5538.51
0.8224,0.1776	-5525.94
0.7550,0.2450	-5530.89
0.7306,0.2694	-5530.97
0.6711,0.3289	-5532.15
0.8121,0.1879	-5521.49
0.6321,0.3679	-5537.46
0.8201,0.1799	-5513.79
0.7560,0.2440	-5534.28
0.7389,0.2611	-5533.00
0.6512,0.3488	-5533.48
0.7954,0.2046	-5528.61
0.6418,0.3582	-5535.57
0.8416,0.1584	-5527.86
0.7580,0.2420	-5521.76
0.7412,0.2588	-5528.80
0.6387,0.3613	-5535.08
0.8335,0.1665	-5524.45
0.6620,0.3380	-5541.19
0.8491,0.1509	-5529.80
0.7361,0.2639	-5527.85
0.7307,0.2693	-5532.97
0.6324,0.3676	-5534.74
0.8279,0.1721	-5524.42
0.6645,0.3355	-5531.68
0.8621,0.1379	-5526.69
0.6759,0.3241	-5534.21
0.7842,0.2158	-5525.97
0.6672,0.3328	-5534.36
0.8530,0.1470	-5519.40
0.6457,0.3543	-5534.87
0.8824,0.1176	-5519.41
0.6732,0.3268	-5537.87
0.7264,0.2736	-5528.08
0.6835,0.3165	-5534.10
0.8227,0.1773	-5524.41
0.6754,0.3246	-5536.41
0.8802,0.1198	-5515.41
0.7072,0.2928	-5534.80
0.6995,0.3005	-5533.11
0.7060,0.2940	-5537.42
0.8387,0.1613	-5524.49
0.6630,0.3370	-5535.80
0.8990,0.1010	-5521.83
0.6854,0.3146	-5534.86
0.6710,0.3290	-5531.44
0.7106,0.2894	-5534.81
0.8608,0.1392	-5521.18
0.6370,0.3630	-5536.82
0.8927,0.1073	-5513.18
0.6424,0.3576	-5543.75
0.6915,0.3085	-5529.98
0.7156,0.2844	-5530.22
0.8458,0.1542	-5517.76
0.6407,0.3593	-5541.38
0.8990,0.1010	-5513.09
0.6389,0.3611	-5536.78
0.7235,0.2765	-5527.19
0.7487,0.2513	-5530.89
0.8583,0.1417	-5519.37
0.5880,0.4120	-5539.69
0.9055,0.0945	-5513.02
0.7006,0.2994	-5534.79
0.7859,0.2141	-5540.26
0.6968,0.3032	-5538.13
0.8823,0.1177	-5517.40
0.5701,0.4299	-5538.51
0.8800,0.1200	-5521.39
0.7557,0.2443	-5533.15
0.8005,0.1995	-5528.66
0.6950,0.3050	-5533.98
0.8775,0.1225	-5519.38
0.6291,0.3709	-5539.09
0.8837,0.1163	-5521.45
0.8039,0.1961	-5534.34
0.8007,0.1993	-5528.66
0.6490,0.3510	-5535.39
0.8655,0.1345	-5521.21
0.6271,0.3729	-5539.10
0.9118,0.0882	-5524.65
0.7873,0.2127	-5523.33
0.7523,0.2477	-5534.22
0.6361,0.3639	-5538.51
0.8629,0.1371	-5530.39
0.6390,0.3610	-5537.92
0.8892,0.1108	-5511.16
0.7974,0.2026	-5525.89
0.7378,0.2622	-5527.82
0.5944,0.4056	-5539.16
0.8605,0.1395	-5526.64
0.6510,0.3490	-5534.73
0.8780,0.1220	-5519.38
0.7706,0.2294	-5532.18
0.7444,0.2556	-5528.76
0.6143,0.3857	-5537.36
0.8879,0.1121	-5527.75
0.5960,0.4040	-5541.07
0.8931,0.1069	-5515.30
0.7540,0.2460	-5529.77
0.7170,0.2830	-5532.98
0.6950,0.3050	-5537.28
0.8710,0.1290	-5515.53
0.6319,0.3681	-5535.84
0.8977,0.1023	-5510.93
0.7446,0.2554	-5527.68
0.7157,0.2843	-5532.06
0.6971,0.3029	-5533.97
0.8617,0.1383	-5521.19
0.6351,0.3649	-5540.18
0.9090,0.0910	-5512.99
0.7650,0.2350	-5525.03
0.6942,0.3058	-5530.71
0.6830,0.3170	-5533.34
0.8703,0.1297	-5517.45
0.5982,0.4018	-5536.68
0.9129,0.0871	-5520.02
0.7509,0.2491	-5533.09
0.7058,0.2942	-5530.42
0.6497,0.3503	-5533.53
0.8770,0.1230	-5517.41
0.5960,0.4040	-5538.74
0.9047,0.0953	-5510.78
0.7416,0.2584	-5534.07
0.7313,0.2687	-5526.96
0.6486,0.3514	-5538.47
0.8830,0.1170	-5513.36
0.5821,0.4179	-5540.51
0.8927,0.1073	-5521.65
0.7264,0.2736	-5532.96
0.7339,0.2661	-5526.89
0.6664,0.3336	-5533.68
0.9021,0.0979	-5517.50
0.5565,0.4435	-5540.70
0.8853,0.1147	-5517.40
0.7259,0.2741	-5531.01
0.7144,0.2856	-5531.15
0.6927,0.3073	-5534.00
0.9055,0.0945	-5515.28
0.5518,0.4482	-5540.69
0.8824,0.1176	-5521.43
0.6930,0.3070	-5532.37
0.7202,0.2798	-5530.13
0.6763,0.3237	-5529.04
0.9294,0.0706	-5520.72
0.5731,0.4269	-5538.05
0.8867,0.1133	-5511.23
0.6849,0.3151	-5535.64
0.7036,0.2964	-5535.66
0.6685,0.3315	-5535.74
0.9105,0.0895	-5515.30
0.5701,0.4299	-5541.62
0.8882,0.1118	-5517.40
0.7340,0.2660	-5529.93
0.6951,0.3049	-5536.45
0.7108,0.2892	-5534.81
0.9186,0.0814	-5508.10
0.5847,0.4153	-5538.06
0.8844,0.1156	-5513.33
0.7349,0.2651	-5529.92
0.7241,0.2759	-5532.00
0.7103,0.2897	-5531.22
0.9142,0.0858	-5517.69
0.5882,0.4118	-5538.26
0.8795,0.1205	-5523.37
0.7461,0.2539	-5531.97
0.6564,0.3436	-5539.13
0.7330,0.2670	-5534.99
0.9196,0.0804	-5512.95
0.6522,0.3478	-5534.70
0.8746,0.1254	-5517.42
0.7814,0.2186	-5523.45
0.7151,0.2849	-5531.15
0.6783,0.3217	-5530.44
0.9283,0.0717	-5510.42
0.6357,0.3643	-5539.07
0.8721,0.1279	-5519.36
0.8106,0.1894	-5521.52
0.7336,0.2664	-5532.97
0.6524,0.3476	-5536.58
0.9402,0.0598	-5507.62
0.6104,0.3896	-5538.82
0.8955,0.1045	-5513.14
0.8211,0.1789	-5525.93
0.7126,0.2874	-5535.72
0.6100,0.3900	-5537.49
0.9484,0.0516	-5507.51
0.6973,0.3027	-5537.30
0.8867,0.1133	-5517.40
0.7817,0.2183	-5531.09
0.7242,0.2758	-5531.03
0.5720,0.4280	-5540.43
0.9284,0.0716	-5507.85
0.7185,0.2815	-5533.91
0.8612,0.1388	-5521.18
0.7732,0.2268	-5526.09
0.6985,0.3015	-5532.28
0.5878,0.4122	-5536.50
0.9306,0.0694	-5510.40
0.7007,0.2993	-5529.69
0.8531,0.1469	-5512.37
0.8040,0.1960	-5521.64
0.6874,0.3126	-5533.27
0.6516,0.3484	-5536.59
0.9303,0.0697	-5512.99
0.7564,0.2436	-5534.29
0.8159,0.1841	-5530.37
0.8064,0.1936	-5520.17
0.6333,0.3667	-5535.25
0.6760,0.3240	-5534.94
0.9436,0.0564	-5507.56
0.7291,0.2709	-5529.99
0.8466,0.1534	-5524.58
0.7508,0.2492	-5530.89
0.6667,0.3333	-5535.06
0.6987,0.3013	-5536.48
0.9366,0.0634	-5510.37
0.7396,0.2604	-5533.00
0.8490,0.1510	-5515.98
0.7089,0.2911	-5536.58
0.7086,0.2914	-5536.58
0.7122,0.2878	-5533.00
0.9441,0.0559	-5507.56
0.7610,0.2390	-5526.28
0.8195,0.1805	-5524.41
0.6804,0.3196	-5537.16
0.7127,0.2873	-5531.18
0.6847,0.3153	-5537.19
0.9351,0.0649	-5518.38
0.7856,0.2144	-5522.06
0.8541,0.1459	-5521.16
0.7293,0.2707	-5537.92
0.7239,0.2761	-5532.00
0.7232,0.2768	-5534.88
0.9466,0.0534	-5519.03
0.7721,0.2279	-5534.65
0.8431,0.1569	-5531.26
0.7247,0.2753	-5531.99
0.7143,0.2857	-5529.32
0.7552,0.2448	-5528.64
0.9471,0.0529	-5516.18
0.7876,0.2124	-5520.70
0.8349,0.1651	-5524.46
0.7456,0.2544	-5525.52
0.7531,0.2469	-5530.89
0.7367,0.2633	-5530.93
0.9452,0.0548	-5513.24
0.7775,0.2225	-5531.04
0.8415,0.1585	-5516.17
0.7496,0.2504	-5522.12
0.7287,0.2713	-5530.00
0.7385,0.2615	-5530.92
0.9258,0.0742	-5510.44
0.7917,0.2083	-5528.58
0.8192,0.1808	-5531.96
0.7794,0.2206	-5527.28
0.7205,0.2795	-5530.13
0.7384,0.2616	-5534.03
0.9275,0.0725	-5510.42
0.8239,0.1761	-5530.58
0.8123,0.1877	-5525.89
0.7686,0.2314	-5524.95
0.6993,0.3007	-5533.95
0.7491,0.2509	-5526.51
0.9176,0.0824	-5505.72
0.8211,0.1789	-5525.93
0.8564,0.1436	-5524.74
0.7731,0.2269	-5529.77
0.6910,0.3090	-5535.63
0.7570,0.2430	-5532.03
0.9020,0.0980	-5515.27
0.7867,0.2133	-5527.25
0.8434,0.1566	-5527.91
0.7584,0.2416	-5526.32
0.6983,0.3017	-5534.80
0.7825,0.2175	-5531.10
0.8887,0.1113	-5515.32
0.7840,0.2160	-5522.10
0.8531,0.1469	-5519.40
0.7518,0.2482	-5528.67
0.7116,0.2884	-5531.20
0.7711,0.2289	-5528.55
0.8943,0.1057	-5523.83
0.7689,0.2311	-5534.56
0.8243,0.1757	-5519.77
0.7350,0.2650	-5531.96
0.6863,0.3137	-5530.15
0.7667,0.2333	-5524.99
0.8849,0.1151	-5517.40
0.8014,0.1986	-5527.27
0.8275,0.1725	-5525.99
0.7357,0.2643	-5538.10
0.6853,0.3147	-5532.52
0.7385,0.2615	-5526.77
0.8753,0.1247	-5521.32
0.7861,0.2139	-5528.56
0.8230,0.1770	-5529.02
0.7218,0.2782	-5531.06
0.6900,0.3100	-5530.83
0.7468,0.2532	-5531.97
0.8758,0.1242	-5527.18
0.7917,0.2083	-5527.25
0.8153,0.1847	-5522.93
0.7137,0.2863	-5531.17
0.7147,0.2853	-5532.07
0.7189,0.2811	-5534.85
0.8678,0.1322	-5517.47
0.7393,0.2607	-5531.96
0.8146,0.1854	-5528.85
0.7223,0.2777	-5534.88
0.7061,0.2939	-5534.80
0.6798,0.3202	-5535.66
0.8643,0.1357	-5519.35
0.6928,0.3072	-5535.63
0.8321,0.1679	-5530.84
0.7050,0.2950	-5533.92
0.7006,0.2994	-5529.69
0.6978,0.3022	-5533.12
0.8793,0.1207	-5525.35
0.6839,0.3161	-5534.10
0.8262,0.1738	-5519.74
0.6967,0.3033	-5530.64
0.6824,0.3176	-5530.29
0.7159,0.2841	-5529.29
0.8696,0.1304	-5526.94
0.7042,0.2958	-5536.53
0.8404,0.1596	-5517.86
0.7525,0.2475	-5528.66
0.7030,0.2970	-5532.21
0.7429,0.2571	-5529.84
0.9084,0.0916	-5515.29
0.7237,0.2763	-5537.78
0.8782,0.1218	-5521.36
0.7376,0.2624	-5531.96
0.6941,0.3059	-5530.71
0.7628,0.2372	-5527.41
0.8979,0.1021	-5508.76
0.6855,0.3145	-5535.63
0.8780,0.1220	-5513.46
0.7644,0.2356	-5536.81
0.6635,0.3365	-5529.00
0.7809,0.2191	-5523.46
0.8891,0.1109	-5513.24
0.6681,0.3319	-5532.95
0.8995,0.1005	-5513.08
0.7552,0.2448	-5529.76
0.6364,0.3636	-5536.27
0.7827,0.2173	-5529.83
0.8712,0.1288	-5513.62
0.5849,0.4151	-5539.43
0.8937,0.1063	-5523.81
0.7890,0.2110	-5525.93
0.6870,0.3130	-5534.85
0.7616,0.2384	-5528.59
0.8631,0.1369	-5519.35
0.6219,0.3781	-5540.63
0.8794,0.1206	-5519.39
0.7679,0.2321	-5524.97
0.6962,0.3038	-5533.97
0.7571,0.2429	-5528.62
0.8631,0.1369	-5524.88
0.6620,0.3380	-5537.83
0.8997,0.1003	-5515.28
0.7222,0.2778	-5534.87
0.6917,0.3083	-5529.16
0.7750,0.2250	-5527.30
0.8658,0.1342	-5517.49
0.6609,0.3391	-5531.82
0.9102,0.0898	-5519.93
0.7415,0.2585	-5529.85
0.6981,0.3019	-5534.80
0.7648,0.2352	-5528.57
0.8797,0.1203	-5519.39
0.6763,0.3237	-5535.68
0.8993,0.1007	-5510.90
0.8060,0.1940	-5521.60
0.6880,0.3120	-5534.84
0.7764,0.2236	-5531.03
0.8331,0.1669	-5521.23
0.6681,0.3319	-5537.84
0.8878,0.1122	-5515.33
0.7998,0.2002	-5527.27
0.6805,0.3195	-5537.92
0.7628,0.2372	-5530.92
0.8297,0.1703	-5519.68
0.6642,0.3358	-5533.06
0.8885,0.1115	-5519.48
0.8157,0.1843	-5528.87
0.7063,0.2937	-5528.65
0.7267,0.2733	-5532.96
0.7682,0.2318	-5532.15
0.6168,0.3832	-5540.62
0.8489,0.1511	-5521.16
0.7928,0.2072	-5528.59
0.6910,0.3090	-5534.82
0.7124,0.2876	-5529.37
0.7809,0.2191	-5529.81
0.5992,0.4008	-5537.04
0.8313,0.1687	-5524.44
0.7873,0.2127	-5524.63
0.6704,0.3296	-5533.59
0.7160,0.2840	-5531.13
0.7156,0.2844	-5532.98
0.6486,0.3514	-5536.02
0.8259,0.1741	-5521.30
0.7900,0.2100	-5529.90
0.6833,0.3167	-5535.64
0.7164,0.2836	-5538.54
0.7665,0.2335	-5526.18
0.6239,0.3761	-5538.62
0.8406,0.1594	-5526.17
0.7998,0.2002	-5527.27
0.6623,0.3377	-5533.11
0.6889,0.3111	-5532.45
0.8121,0.1879	-5518.57
0.5560,0.4440	-5540.50
0.8345,0.1655	-5526.07
0.7797,0.2203	-5526.01
0.6682,0.3318	-5536.44
0.6995,0.3005	-5528.88
0.7862,0.2138	-5528.56
0.6319,0.3681	-5535.84
0.8435,0.1565	-5521.17
0.8009,0.1991	-5525.88
0.6964,0.3036	-5538.12
0.6943,0.3057	-5533.17
0.7643,0.2357	-5539.16
0.6152,0.3848	-5538.27
0.8608,0.1392	-5517.54
0.8275,0.1725	-5522.85
0.6927,0.3073	-5534.81
0.7181,0.2819	-5539.52
0.7666,0.2334	-5529.75
0.5893,0.4107	-5539.30
0.8494,0.1506	-5517.70
0.8045,0.1955	-5521.63
0.6852,0.3148	-5531.75
0.7410,0.2590	-5530.91
0.7869,0.2131	-5527.25
0.5840,0.4160	-5540.81
0.8453,0.1547	-5526.26
0.7903,0.2097	-5528.58
0.6799,0.3201	-5537.92
0.7851,0.2149	-5529.85
0.8019,0.1981	-5521.68
0.6321,0.3679	-5538.00
0.8706,0.1294	-5515.54
0.7950,0.2050	-5519.12
0.7075,0.2925	-5536.57
0.7972,0.2028	-5527.26
0.8051,0.1949	-5521.62
0.6162,0.3838	-5539.67
0.8504,0.1496	-5519.42
0.7995,0.2005	-5524.50
0.7480,0.2520	-5528.71
0.7713,0.2287	-5535.84
0.8342,0.1658	-5529.30
0.6638,0.3362	-5536.47
0.8533,0.1467	-5524.68
0.7694,0.2306	-5530.96
0.7622,0.2378	-5534.41
0.8127,0.1873	-5522.95
0.8554,0.1446	-5519.39
0.6782,0.3218	-5531.19
0.8656,0.1344	-5530.52
0.7731,0.2269	-5529.77
0.7868,0.2132	-5525.95
0.7744,0.2256	-5529.77
0.8299,0.1701	-5516.51
0.6583,0.3417	-5533.24
0.8643,0.1357	-5515.65
0.7369,0.2631	-5526.81
0.7998,0.2002	-5523.11
0.7191,0.2809	-5530.15
0.8529,0.1471	-5531.71
0.6813,0.3187	-5535.65
0.8551,0.1449	-5524.71
0.6811,0.3189	-5534.89
0.7768,0.2232	-5531.03
0.7461,0.2539	-5542.75
0.8195,0.1805	-5519.87
0.6548,0.3452	-5533.35
0.8786,0.1214	-5525.32
0.7344,0.2656	-5537.04
0.8116,0.1884	-5525.88
0.6865,0.3135	-5535.63
0.8113,0.1887	-5525.88
0.6734,0.3266	-5537.14
0.8862,0.1138	-5521.50
0.7409,0.2591	-5531.96
0.7570,0.2430	-5525.21
0.6823,0.3177	-5533.35
0.8073,0.1927	-5521.58
0.6647,0.3353	-5536.46
0.8739,0.1261	-5511.62
0.7260,0.2740	-5527.11
0.7376,0.2624	-5531.96
0.6431,0.3569	-5539.07
0.8306,0.1694	-5526.02
0.6601,0.3399	-5535.17
0.8545,0.1455	-5521.16
0.7093,0.2907	-5535.69
0.7140,0.2860	-5535.74
0.6464,0.3536	-5535.45
0.8438,0.1562	-5524.54
0.6712,0.3288	-5540.00
0.8753,0.1247	-5527.16
0.6846,0.3154	-5532.54
0.7342,0.2658	-5526.88
0.6793,0.3207	-5530.40
0.8740,0.1260	-5527.11
0.6906,0.3094	-5532.42
0.8846,0.1154	-5519.43
0.6961,0.3039	-5531.49
0.7496,0.2504	-5527.60
0.7112,0.2888	-5528.50
0.8652,0.1348	-5515.63
0.6746,0.3254	-5535.69
0.8779,0.1221	-5517.41
0.7003,0.2997	-5534.79
0.7458,0.2542	-5528.74
0.7338,0.2662	-5537.03
0.8471,0.1529	-5519.45
0.7190,0.2810	-5529.21
0.8778,0.1222	-5517.41
0.7402,0.2598	-5534.05
0.7130,0.2870	-5536.64
0.7236,0.2764	-5530.07
0.8659,0.1341	-5526.81
0.7376,0.2624	-5538.16
0.8652,0.1348	-5532.37
0.7872,0.2128	-5528.56
0.7406,0.2594	-5531.96
0.7448,0.2552	-5535.18
0.8539,0.1461	-5517.63
0.7492,0.2508	-5529.79
0.8550,0.1450	-5512.29
0.8186,0.1814	-5530.43
0.7786,0.2214	-5526.02
0.7261,0.2739	-5530.04
0.8474,0.1526	-5522.88
0.7722,0.2278	-5533.43
0.8590,0.1410	-5517.56
0.8303,0.1697	-5522.84
0.7414,0.2586	-5526.69
0.6985,0.3015	-5529.76
0.8601,0.1399	-5524.81
0.7564,0.2436	-5528.63
0.8156,0.1844	-5524.41
0.8109,0.1891	-5522.97
0.7097,0.2903	-5533.91
0.7038,0.2962	-5533.06
0.8638,0.1362	-5523.05
0.7778,0.2222	-5528.54
0.7923,0.2077	-5528.59
0.7702,0.2298	-5527.34
0.6937,0.3063	-5531.54
0.7200,0.2800	-5527.30
0.8524,0.1476	-5517.65
0.8180,0.1820	-5522.91
0.7749,0.2251	-5527.30
0.7224,0.2776	-5531.05
0.6684,0.3316	-5537.14
0.7216,0.2784	-5536.77
0.8171,0.1829	-5530.40
0.7919,0.2081	-5527.25
0.7816,0.2184	-5527.27
0.6690,0.3310	-5537.85
0.6477,0.3523	-5534.21
0.7258,0.2742	-5531.01
0.7853,0.2147	-5523.37
0.7871,0.2129	-5536.40
0.7799,0.2201	-5526.01
0.6355,0.3645	-5539.63
0.7044,0.2956	-5530.45
0.7586,0.2414	-5530.90
0.7673,0.2327	-5532.14
0.7751,0.2249	-5523.59
0.7674,0.2326	-5534.53
0.6026,0.3974	-5540.22
0.7052,0.2948	-5531.31
0.7923,0.2077	-5524.57
0.7892,0.2108	-5527.25
0.8123,0.1877	-5522.96
0.7341,0.2659	-5527.90
0.6767,0.3233	-5535.67
0.7089,0.2911	-5534.80
0.8202,0.1798	-5521.37
0.7955,0.2045	-5527.25
0.8369,0.1631	-5531.02
0.7209,0.2791	-5531.07
0.7161,0.2839	-5532.06
0.6975,0.3025	-5535.63
0.8124,0.1876	-5524.42
0.7738,0.2262	-5531.00
0.8409,0.1591	-5526.18
