#isoforms=['ENSG00000101294.SE.1.A.up_ENSG00000101294.SE.1.A.SE1_ENSG00000101294.SE.1.A.dn','ENSG00000101294.SE.1.B.up_ENSG00000101294.SE.1.B.dn']	exon_lens=('ENSG00000101294.SE.1.A.up',99),('ENSG00000101294.SE.1.A.SE1',376),('ENSG00000101294.SE.1.A.dn',89),('ENSG00000101294.SE.1.B.up',99),('ENSG00000101294.SE.1.B.dn',89)	iters=5000	burn_in=500	lag=10	percent_accept=82.00	proposal_type=drift	counts=(0,0):514,(1,0):234,(1,1):328	assigned_counts=0:319,1:243	chrom=chr20	strand=+	mRNA_starts=31527484,31527484	mRNA_ends=31545035,31545035
sampled_psi	log_score
0.2635,0.7365	-3612.62
0.2599,0.7401	-3600.33
0.3172,0.6828	-3623.81
0.2617,0.7383	-3606.53
0.2854,0.7146	-3604.66
0.2926,0.7074	-3615.68
0.2592,0.7408	-3603.50
0.2412,0.7588	-3605.99
0.3042,0.6958	-3623.49
0.2983,0.7017	-3603.83
0.2710,0.7290	-3606.28
0.2932,0.7068	-3604.25
0.2566,0.7434	-3603.61
0.3005,0.6995	-3623.49
0.2957,0.7043	-3620.95
0.3114,0.6886	-3621.23
0.2766,0.7234	-3610.12
0.3333,0.6667	-3626.24
0.2512,0.7488	-3599.56
0.3017,0.6983	-3613.42
0.3218,0.6782	-3623.30
0.2863,0.7137	-3612.92
0.2829,0.7171	-3625.01
0.2805,0.7195	-3615.76
0.2983,0.7017	-3605.55
0.2853,0.7147	-3629.45
0.3469,0.6531	-3637.00
0.2620,0.7380	-3590.98
0.2960,0.7040	-3614.01
0.2634,0.7366	-3602.34
0.2913,0.7087	-3623.67
0.2627,0.7373	-3608.55
0.2851,0.7149	-3621.19
0.3119,0.6881	-3623.62
0.2707,0.7293	-3617.18
0.2734,0.7266	-3610.17
0.3211,0.6789	-3630.74
0.2722,0.7278	-3606.27
0.3419,0.6581	-3636.82
0.3143,0.6857	-3618.24
0.2753,0.7247	-3625.62
0.2684,0.7316	-3630.38
0.3548,0.6452	-3639.21
0.3166,0.6834	-3631.48
0.2772,0.7228	-3616.83
0.2936,0.7064	-3631.50
0.3151,0.6849	-3626.06
0.2789,0.7211	-3621.51
0.3329,0.6671	-3626.21
0.3014,0.6986	-3617.60
0.2773,0.7227	-3620.65
0.2892,0.7108	-3612.96
0.3204,0.6796	-3626.97
0.2671,0.7329	-3608.36
0.3380,0.6620	-3633.35
0.2965,0.7035	-3627.86
0.2815,0.7185	-3614.80
0.2957,0.7043	-3626.15
0.3137,0.6863	-3615.85
0.2934,0.7066	-3620.09
0.3332,0.6668	-3647.04
0.2599,0.7401	-3601.38
0.2665,0.7335	-3598.26
0.2619,0.7381	-3613.77
0.3159,0.6841	-3626.08
0.2959,0.7041	-3629.62
0.3198,0.6802	-3619.41
0.2647,0.7353	-3615.60
0.2867,0.7133	-3609.28
0.2750,0.7250	-3604.33
0.3055,0.6945	-3612.83
0.2501,0.7499	-3601.81
0.2783,0.7217	-3612.02
0.2890,0.7110	-3619.26
0.3039,0.6961	-3627.63
0.3163,0.6837	-3626.09
0.2823,0.7177	-3618.52
0.2944,0.7056	-3621.83
0.3291,0.6709	-3628.79
0.3020,0.6980	-3621.81
0.2704,0.7296	-3618.19
0.3035,0.6965	-3614.35
0.2866,0.7134	-3616.57
0.2940,0.7060	-3610.45
0.3152,0.6848	-3633.04
0.2894,0.7106	-3611.17
0.3038,0.6962	-3613.54
0.2609,0.7391	-3620.09
0.2748,0.7252	-3619.85
0.3290,0.6710	-3626.65
0.3527,0.6473	-3635.48
0.2936,0.7064	-3613.07
0.3001,0.6999	-3614.18
0.2810,0.7190	-3615.75
0.2676,0.7324	-3620.42
0.3296,0.6704	-3631.66
0.3599,0.6401	-3634.32
0.3371,0.6629	-3631.28
0.3227,0.6773	-3620.39
0.2851,0.7149	-3621.19
0.2792,0.7208	-3611.06
0.3198,0.6802	-3623.18
0.3229,0.6771	-3640.39
0.2860,0.7140	-3615.67
0.3187,0.6813	-3626.92
0.2919,0.7081	-3619.22
0.2919,0.7081	-3613.02
0.3119,0.6881	-3625.21
0.3020,0.6980	-3615.95
0.2754,0.7246	-3611.11
0.2794,0.7206	-3632.84
0.2596,0.7404	-3622.35
0.3313,0.6687	-3635.22
0.3063,0.6937	-3621.88
0.3195,0.6805	-3627.70
0.2994,0.7006	-3627.75
0.2912,0.7088	-3614.78
0.2909,0.7091	-3614.78
0.3025,0.6975	-3622.65
0.2956,0.7044	-3617.47
0.3338,0.6662	-3638.03
0.2819,0.7181	-3626.01
0.3068,0.6932	-3622.70
0.2823,0.7177	-3618.52
0.2893,0.7107	-3612.96
0.2722,0.7278	-3609.22
0.3298,0.6702	-3625.28
0.2883,0.7117	-3611.14
0.3420,0.6580	-3635.51
0.2929,0.7071	-3612.16
0.2705,0.7295	-3621.16
0.3103,0.6897	-3630.77
0.3258,0.6742	-3614.10
0.2640,0.7360	-3610.54
0.3267,0.6733	-3620.73
0.2799,0.7201	-3616.72
0.2766,0.7234	-3607.24
0.2877,0.7123	-3608.40
0.3264,0.6736	-3626.50
0.2963,0.7037	-3607.97
0.3244,0.6756	-3628.60
0.2899,0.7101	-3626.41
0.2534,0.7466	-3596.22
0.2895,0.7105	-3627.33
0.3051,0.6949	-3613.62
0.3093,0.6907	-3620.35
0.2836,0.7164	-3623.11
0.3241,0.6759	-3630.05
0.2701,0.7299	-3616.23
0.3269,0.6731	-3630.86
0.3290,0.6710	-3633.78
0.3111,0.6889	-3624.40
0.2800,0.7200	-3610.11
0.3167,0.6833	-3633.02
0.2830,0.7170	-3619.43
0.2978,0.7022	-3621.80
0.3369,0.6631	-3633.98
0.2783,0.7217	-3612.02
0.3103,0.6897	-3628.37
0.2958,0.7042	-3628.75
0.3131,0.6869	-3623.66
0.3020,0.6980	-3614.27
0.3463,0.6537	-3634.44
0.3209,0.6791	-3629.24
0.2826,0.7174	-3609.19
0.3377,0.6623	-3618.52
0.3235,0.6765	-3633.73
0.2549,0.7451	-3618.71
0.3416,0.6584	-3630.24
0.3125,0.6875	-3623.64
0.3067,0.6933	-3625.15
0.2991,0.7009	-3607.32
0.2774,0.7226	-3611.07
0.2707,0.7293	-3614.21
0.3098,0.6902	-3619.57
0.3085,0.6915	-3630.81
0.2971,0.7029	-3628.69
0.2841,0.7159	-3623.08
0.3025,0.6975	-3625.99
0.2854,0.7146	-3616.59
0.2927,0.7073	-3623.63
0.3149,0.6851	-3636.16
0.2881,0.7119	-3610.23
0.3047,0.6953	-3631.74
0.3174,0.6826	-3629.18
0.2889,0.7111	-3626.46
0.2841,0.7159	-3611.99
0.2781,0.7219	-3614.88
0.2898,0.7102	-3609.39
0.3414,0.6586	-3632.20
0.3276,0.6724	-3624.41
0.2934,0.7066	-3615.70
0.2630,0.7370	-3620.90
0.2982,0.7018	-3612.38
0.2972,0.7028	-3631.27
0.3399,0.6601	-3632.11
0.2657,0.7343	-3623.66
0.2874,0.7126	-3603.85
0.2767,0.7233	-3599.55
0.2925,0.7075	-3614.80
0.3183,0.6817	-3609.39
0.3200,0.6800	-3621.68
0.3072,0.6928	-3610.51
0.2783,0.7217	-3606.30
0.3082,0.6918	-3618.69
0.3074,0.6926	-3617.02
0.3173,0.6827	-3627.65
0.3191,0.6809	-3629.21
0.2883,0.7117	-3628.31
0.2734,0.7266	-3611.15
0.3269,0.6731	-3625.81
0.2974,0.7026	-3598.60
0.3026,0.6974	-3618.48
0.2992,0.7008	-3632.86
0.2601,0.7399	-3613.92
0.2696,0.7304	-3606.29
0.3195,0.6805	-3623.92
0.3003,0.6997	-3610.80
0.3362,0.6638	-3629.20
0.3136,0.6864	-3622.89
0.2501,0.7499	-3588.64
0.2747,0.7253	-3617.92
0.3141,0.6859	-3618.23
0.3337,0.6663	-3624.20
0.3572,0.6428	-3627.00
0.2953,0.7047	-3612.25
0.2570,0.7430	-3611.02
0.2613,0.7387	-3609.66
0.3180,0.6820	-3620.04
0.3137,0.6863	-3626.81
0.3209,0.6791	-3633.74
0.2938,0.7062	-3608.69
0.2369,0.7631	-3621.75
0.2439,0.7561	-3614.74
0.3103,0.6897	-3625.18
0.2688,0.7312	-3613.31
0.2599,0.7401	-3614.98
0.2935,0.7065	-3620.09
0.2737,0.7263	-3621.88
0.2893,0.7107	-3620.15
0.2674,0.7326	-3622.46
0.2660,0.7340	-3607.39
0.2860,0.7140	-3619.33
0.3188,0.6812	-3621.61
0.2962,0.7038	-3608.83
0.3319,0.6681	-3628.94
0.3192,0.6808	-3620.88
0.2776,0.7224	-3618.72
0.2756,0.7244	-3614.97
0.3236,0.6764	-3621.20
0.3099,0.6901	-3623.57
0.3226,0.6774	-3629.28
0.3006,0.6994	-3626.87
0.2918,0.7082	-3612.13
0.2757,0.7243	-3611.10
0.3388,0.6612	-3632.72
0.3624,0.6376	-3644.74
0.2597,0.7403	-3599.29
0.3021,0.6979	-3628.51
0.2810,0.7190	-3611.99
0.2738,0.7262	-3614.07
0.3194,0.6806	-3631.48
0.3317,0.6683	-3624.72
0.2969,0.7031	-3626.98
0.3455,0.6545	-3634.39
0.2850,0.7150	-3627.63
0.2980,0.7020	-3616.66
0.2794,0.7206	-3597.79
0.2728,0.7272	-3619.99
0.3042,0.6958	-3608.60
0.3247,0.6753	-3623.48
0.3028,0.6972	-3636.00
0.3107,0.6893	-3611.63
0.3050,0.6950	-3616.08
0.2796,0.7204	-3621.47
0.2671,0.7329	-3592.21
0.2965,0.7035	-3617.49
0.2676,0.7324	-3616.40
0.3221,0.6779	-3623.31
0.2771,0.7229	-3610.12
0.2552,0.7448	-3600.47
0.2645,0.7355	-3610.51
0.3003,0.6997	-3607.42
0.2949,0.7051	-3614.85
0.3047,0.6953	-3632.57
0.2792,0.7208	-3600.62
0.2826,0.7174	-3602.67
0.2417,0.7583	-3611.65
0.2746,0.7254	-3616.95
0.2982,0.7018	-3610.67
0.3567,0.6433	-3632.83
0.2731,0.7269	-3614.10
0.2771,0.7229	-3624.51
0.2575,0.7425	-3600.39
0.3162,0.6838	-3627.63
0.2964,0.7036	-3616.62
0.3212,0.6788	-3631.49
0.2523,0.7477	-3594.08
0.2922,0.7078	-3618.33
0.2924,0.7076	-3596.24
0.3047,0.6953	-3625.97
0.3205,0.6795	-3639.00
0.2953,0.7047	-3603.55
0.2576,0.7424	-3616.27
0.2710,0.7290	-3607.27
0.3053,0.6947	-3626.79
0.3364,0.6636	-3632.61
0.3222,0.6778	-3616.63
0.2810,0.7190	-3608.23
0.3017,0.6983	-3615.93
0.2716,0.7284	-3615.15
0.2801,0.7199	-3608.22
0.2972,0.7028	-3631.27
0.3020,0.6980	-3622.65
0.2792,0.7208	-3611.06
0.2670,0.7330	-3607.36
0.3021,0.6979	-3622.65
0.2949,0.7051	-3615.72
0.2839,0.7161	-3614.77
0.2843,0.7157	-3620.30
0.2623,0.7377	-3600.30
0.2525,0.7475	-3599.50
0.2666,0.7334	-3612.42
0.2886,0.7114	-3613.85
0.2781,0.7219	-3612.97
0.2838,0.7162	-3611.99
0.2758,0.7242	-3611.10
0.2973,0.7027	-3612.34
0.2781,0.7219	-3619.65
0.2809,0.7191	-3616.69
0.2923,0.7077	-3615.68
0.2743,0.7257	-3614.05
0.2706,0.7294	-3592.40
0.2943,0.7057	-3620.08
0.3067,0.6933	-3605.57
0.2803,0.7197	-3626.14
0.3055,0.6945	-3609.54
0.3047,0.6953	-3611.94
0.2551,0.7449	-3599.40
0.2922,0.7078	-3618.33
0.2973,0.7027	-3618.36
0.2973,0.7027	-3615.78
0.2679,0.7321	-3620.39
0.2901,0.7099	-3604.92
0.2840,0.7160	-3615.69
0.2800,0.7200	-3609.16
0.3100,0.6900	-3629.18
0.2731,0.7269	-3611.16
0.2519,0.7481	-3623.48
0.2994,0.7006	-3630.30
0.2972,0.7028	-3596.84
0.2878,0.7122	-3617.47
0.3318,0.6682	-3626.13
0.2791,0.7209	-3612.01
0.2648,0.7352	-3603.34
0.2801,0.7199	-3604.44
0.2848,0.7152	-3600.03
0.3406,0.6594	-3630.83
0.3252,0.6748	-3624.98
0.2669,0.7331	-3606.35
0.2720,0.7280	-3606.27
0.3117,0.6883	-3629.16
0.2672,0.7328	-3592.21
0.2957,0.7043	-3624.42
0.3195,0.6805	-3623.17
0.3020,0.6980	-3614.27
0.2961,0.7039	-3624.41
0.2681,0.7319	-3615.36
0.2996,0.7004	-3616.70
0.3270,0.6730	-3623.64
0.3256,0.6744	-3623.54
0.3110,0.6890	-3617.24
0.3087,0.6913	-3609.84
0.2505,0.7495	-3622.60
0.3171,0.6829	-3619.98
0.3440,0.6560	-3644.63
0.3447,0.6553	-3633.06
0.2956,0.7044	-3627.03
0.3282,0.6718	-3621.59
0.2224,0.7776	-3599.06
0.2801,0.7199	-3609.17
0.3082,0.6918	-3616.26
0.3212,0.6788	-3630.74
0.2950,0.7050	-3616.60
0.2849,0.7151	-3600.03
0.2598,0.7402	-3603.47
0.2741,0.7259	-3606.26
0.2783,0.7217	-3611.06
0.2939,0.7061	-3624.47
0.2935,0.7065	-3614.82
0.2800,0.7200	-3612.00
0.2696,0.7304	-3609.28
0.3170,0.6830	-3615.36
0.2776,0.7224	-3600.55
0.2941,0.7059	-3636.72
0.2949,0.7051	-3596.54
0.3234,0.6766	-3635.21
0.2966,0.7034	-3620.94
0.2925,0.7075	-3614.80
0.2825,0.7175	-3615.72
0.2983,0.7017	-3610.68
0.2935,0.7065	-3611.30
0.2761,0.7239	-3608.20
0.3052,0.6948	-3617.74
0.2938,0.7062	-3613.07
0.2893,0.7107	-3624.64
0.2774,0.7226	-3611.07
0.3156,0.6844	-3616.78
0.2533,0.7467	-3585.41
0.2704,0.7296	-3609.26
0.2881,0.7119	-3599.37
0.3168,0.6832	-3629.94
0.3016,0.6984	-3626.00
0.3307,0.6693	-3633.10
0.2831,0.7169	-3601.76
0.2786,0.7214	-3610.11
0.2882,0.7118	-3609.33
0.3124,0.6876	-3619.69
0.3026,0.6974	-3631.84
0.3065,0.6935	-3623.51
0.2984,0.7016	-3627.78
0.2695,0.7305	-3601.31
0.2716,0.7284	-3615.15
0.3017,0.6983	-3623.49
0.2974,0.7026	-3619.22
0.2950,0.7050	-3629.66
0.2589,0.7411	-3600.35
0.2851,0.7149	-3610.16
0.2841,0.7159	-3603.67
0.2869,0.7131	-3616.57
0.2752,0.7248	-3610.14
0.3070,0.6930	-3629.22
0.2737,0.7263	-3615.05
0.2995,0.7005	-3623.50
0.2889,0.7111	-3618.36
0.2729,0.7271	-3600.39
0.2970,0.7030	-3615.77
0.2848,0.7152	-3616.60
0.2757,0.7243	-3602.41
0.2592,0.7408	-3608.75
0.2795,0.7205	-3616.74
0.2906,0.7094	-3621.02
0.3075,0.6925	-3617.03
0.2895,0.7105	-3610.27
0.3070,0.6930	-3630.85
0.2810,0.7190	-3610.11
0.3202,0.6798	-3633.74
0.3172,0.6828	-3627.65
0.3171,0.6829	-3616.91
0.2864,0.7136	-3616.58
0.2919,0.7081	-3630.74
0.3272,0.6728	-3629.43
0.2850,0.7150	-3621.20
0.3273,0.6727	-3622.95
0.3183,0.6817	-3628.43
0.3495,0.6505	-3630.91
0.2950,0.7050	-3615.72
0.3301,0.6699	-3624.60
0.2654,0.7346	-3626.75
0.3053,0.6947	-3626.79
0.2899,0.7101	-3614.77
0.3535,0.6465	-3642.17
0.2944,0.7056	-3617.46
0.2918,0.7082	-3620.11
0.3325,0.6675	-3627.57
0.3225,0.6775	-3626.31
0.2702,0.7298	-3592.38
0.3309,0.6691	-3626.06
0.3115,0.6885	-3633.13
0.3127,0.6873	-3618.13
0.3787,0.6213	-3630.64
0.2632,0.7368	-3616.76
0.2992,0.7008	-3623.50
0.3191,0.6809	-3625.42
0.3120,0.6880	-3618.88
0.2848,0.7152	-3620.28
0.3483,0.6517	-3642.70
0.2752,0.7248	-3613.05
0.3008,0.6992	-3617.58
0.2949,0.7051	-3615.72
0.2984,0.7016	-3620.94
0.2841,0.7159	-3622.16
0.3609,0.6391	-3636.70
0.2893,0.7107	-3629.14
0.3144,0.6856	-3619.80
0.3135,0.6865	-3623.67
0.2762,0.7238	-3618.80
0.3098,0.6902	-3618.77
0.3291,0.6709	-3632.35
0.3161,0.6839	-3620.68
0.3084,0.6916	-3621.93
0.2857,0.7143	-3615.67
0.2737,0.7263	-3613.09
0.3504,0.6496	-3637.17
0.2959,0.7041	-3611.41
0.3457,0.6543	-3627.39
0.3322,0.6678	-3633.14
0.2843,0.7157	-3629.53
0.2766,0.7234	-3620.70
0.3202,0.6798	-3632.24
0.2737,0.7263	-3614.07
0.3146,0.6854	-3624.49
0.2928,0.7072	-3620.10
0.3000,0.7000	-3630.27
0.2606,0.7394	-3605.53
0.3000,0.7000	-3638.74
0.2866,0.7134	-3615.66
0.2634,0.7366	-3607.48
0.2736,0.7264	-3604.31
0.3364,0.6636	-3629.89
0.2832,0.7168	-3620.35
0.2848,0.7152	-3617.52
0.3005,0.6995	-3631.10
0.3223,0.6777	-3620.36
0.2569,0.7431	-3602.53
0.3118,0.6882	-3625.20
0.3111,0.6889	-3617.24
0.2777,0.7223	-3610.11
0.2559,0.7441	-3608.98
0.3287,0.6713	-3635.91
0.2700,0.7300	-3604.30
0.2900,0.7100	-3621.93
0.2994,0.7006	-3615.00
0.2995,0.7005	-3620.95
0.2836,0.7164	-3616.62
0.3170,0.6830	-3632.25
0.2785,0.7215	-3621.53
0.3071,0.6929	-3621.89
0.2854,0.7146	-3623.02
0.3131,0.6869	-3625.23
0.2725,0.7275	-3612.16
0.3059,0.6941	-3634.16
0.2549,0.7451	-3600.48
0.2995,0.7005	-3628.59
0.2970,0.7030	-3625.25
0.3238,0.6762	-3619.74
0.2867,0.7133	-3619.31
0.2901,0.7099	-3619.24
0.2978,0.7022	-3635.53
0.2846,0.7154	-3613.84
0.3103,0.6897	-3621.18
0.2733,0.7267	-3607.24
0.2926,0.7074	-3621.86
0.2702,0.7298	-3626.15
0.3190,0.6810	-3620.10
0.2876,0.7124	-3619.29
0.3149,0.6851	-3618.28
0.2630,0.7370	-3612.66
0.3197,0.6803	-3625.44
0.3000,0.7000	-3620.10
0.2877,0.7123	-3611.13
0.2940,0.7060	-3614.83
0.3316,0.6684	-3637.33
0.3141,0.6859	-3613.54
0.2887,0.7113	-3594.02
0.3000,0.7000	-3611.63
0.2829,0.7171	-3624.08
0.2790,0.7210	-3612.01
0.3336,0.6664	-3622.11
0.3525,0.6475	-3631.81
0.3008,0.6992	-3614.21
0.3194,0.6806	-3625.43
0.3100,0.6900	-3623.57
0.3150,0.6850	-3611.29
0.2934,0.7066	-3616.58
0.3176,0.6824	-3623.07
0.2865,0.7135	-3618.40
0.3124,0.6876	-3629.16
0.3313,0.6687	-3623.99
0.2963,0.7037	-3615.75
0.3296,0.6704	-3633.79
0.3341,0.6659	-3629.75
0.2808,0.7192	-3614.81
0.2990,0.7010	-3612.42
0.3320,0.6680	-3628.24
0.2853,0.7147	-3615.67
0.3057,0.6943	-3627.60
0.3008,0.6992	-3611.68
0.3016,0.6984	-3620.97
0.3133,0.6867	-3626.80
0.3248,0.6752	-3627.15
0.3373,0.6627	-3629.95
0.2991,0.7009	-3626.06
0.3340,0.6660	-3622.16
0.3232,0.6768	-3630.77
0.2873,0.7127	-3605.67
0.2950,0.7050	-3619.21
0.3494,0.6506	-3636.50
0.2791,0.7209	-3603.47
0.3258,0.6742	-3631.56
0.3224,0.6776	-3627.79
0.3275,0.6725	-3633.04
0.2651,0.7349	-3618.63
0.3128,0.6872	-3634.67
0.2809,0.7191	-3633.61
0.3235,0.6765	-3622.66
0.3261,0.6739	-3631.56
0.3337,0.6663	-3635.26
0.2909,0.7091	-3617.45
0.2694,0.7306	-3609.29
0.2716,0.7284	-3612.19
0.3103,0.6897	-3609.21
0.3105,0.6895	-3628.37
0.3192,0.6808	-3641.32
0.2745,0.7255	-3611.12
0.2673,0.7327	-3604.32
0.3002,0.6998	-3618.41
0.2886,0.7114	-3617.46
0.3162,0.6838	-3629.17
0.3185,0.6815	-3617.79
0.2875,0.7125	-3616.57
0.2666,0.7334	-3607.37
0.3305,0.6695	-3626.04
0.2862,0.7138	-3607.44
0.3403,0.6597	-3624.85
0.3241,0.6759	-3621.97
0.3028,0.6972	-3623.49
0.2973,0.7027	-3621.80
0.2704,0.7296	-3625.15
0.3030,0.6970	-3618.49
0.3450,0.6550	-3627.31
0.3027,0.6973	-3626.82
0.3117,0.6883	-3613.32
0.2439,0.7561	-3600.03
0.2749,0.7251	-3624.69
0.3216,0.6784	-3624.03
0.3272,0.6728	-3630.87
0.3011,0.6989	-3620.96
0.2685,0.7315	-3609.32
0.2542,0.7458	-3609.12
0.2605,0.7395	-3602.41
0.2949,0.7051	-3620.95
0.2960,0.7040	-3624.41
0.2978,0.7022	-3616.65
0.2508,0.7492	-3589.73
0.2698,0.7302	-3619.23
0.2839,0.7161	-3624.02
0.2763,0.7237	-3618.79
0.2821,0.7179	-3614.79
0.3007,0.6993	-3620.96
0.2677,0.7323	-3620.41
0.3016,0.6984	-3627.68
0.2908,0.7092	-3605.86
0.2835,0.7165	-3632.38
0.2691,0.7309	-3604.30
0.2847,0.7153	-3611.07
0.2825,0.7175	-3624.10
0.2859,0.7141	-3608.34
0.2893,0.7107	-3616.56
0.2779,0.7221	-3630.17
0.3183,0.6817	-3629.19
0.2810,0.7190	-3612.93
0.2715,0.7285	-3612.19
0.2460,0.7540	-3609.95
0.3006,0.6994	-3620.96
0.3230,0.6770	-3627.07
0.3010,0.6990	-3626.86
0.3095,0.6905	-3622.76
0.2923,0.7077	-3620.99
0.2708,0.7292	-3614.20
0.3121,0.6879	-3625.21
0.3057,0.6943	-3617.76
0.3069,0.6931	-3623.52
0.2954,0.7046	-3615.73
0.2937,0.7063	-3622.72
0.2868,0.7132	-3618.39
0.3203,0.6797	-3629.23
0.2838,0.7162	-3630.51
0.3054,0.6946	-3630.89
0.3030,0.6970	-3620.15
0.2841,0.7159	-3619.39
0.3167,0.6833	-3618.41
0.3125,0.6875	-3627.58
0.3111,0.6889	-3624.40
0.2898,0.7102	-3616.56
0.2951,0.7049	-3625.31
0.2624,0.7376	-3600.29
0.3221,0.6779	-3628.52
0.2838,0.7162	-3613.84
0.3215,0.6785	-3628.50
0.2733,0.7267	-3593.55
0.2543,0.7457	-3618.80
0.2989,0.7011	-3618.39
0.3220,0.6780	-3627.03
0.2481,0.7519	-3618.58
0.3370,0.6630	-3636.02
0.3014,0.6986	-3622.65
0.2917,0.7083	-3617.45
0.2795,0.7205	-3616.74
0.3263,0.6737	-3625.04
0.2653,0.7347	-3608.43
0.3029,0.6971	-3615.15
0.3089,0.6911	-3630.80
0.3164,0.6836	-3621.47
0.2825,0.7175	-3603.60
0.3308,0.6692	-3635.92
0.2825,0.7175	-3614.78
0.3217,0.6783	-3615.83
0.2985,0.7015	-3612.40
0.3056,0.6944	-3625.14
0.2758,0.7242	-3596.62
0.3276,0.6724	-3625.85
0.2953,0.7047	-3614.86
0.2808,0.7192	-3624.22
0.3388,0.6612	-3620.02
0.2540,0.7460	-3604.83
0.2950,0.7050	-3619.21
0.3350,0.6650	-3629.80
0.2854,0.7146	-3611.08
0.2698,0.7302	-3621.23
0.3566,0.6434	-3640.49
0.3022,0.6978	-3625.16
0.3157,0.6843	-3624.53
0.3171,0.6829	-3628.41
0.2713,0.7287	-3629.00
0.2787,0.7213	-3605.35
0.3080,0.6920	-3620.30
0.2971,0.7029	-3620.08
0.3061,0.6939	-3624.33
0.3046,0.6954	-3620.19
0.2897,0.7103	-3604.00
0.2507,0.7493	-3607.25
0.2916,0.7084	-3624.55
0.3179,0.6821	-3616.97
0.3046,0.6954	-3623.49
0.3266,0.6734	-3628.68
0.3006,0.6994	-3613.36
0.2738,0.7262	-3612.12
0.2765,0.7235	-3611.09
0.3014,0.6986	-3626.01
0.2767,0.7233	-3611.08
0.3093,0.6907	-3619.54
0.2775,0.7225	-3617.77
0.2699,0.7301	-3623.21
0.2585,0.7415	-3610.90
0.3165,0.6835	-3632.25
0.2829,0.7171	-3617.57
0.2919,0.7081	-3623.65
0.2872,0.7128	-3618.39
0.2837,0.7163	-3610.14
0.2473,0.7527	-3607.57
0.3014,0.6986	-3625.17
0.2595,0.7405	-3618.16
0.3108,0.6892	-3617.22
0.2779,0.7221	-3618.71
0.2844,0.7156	-3610.15
0.2494,0.7506	-3602.96
0.2998,0.7002	-3615.86
0.2571,0.7429	-3602.53
0.2962,0.7038	-3641.71
0.2725,0.7275	-3620.02
0.2570,0.7430	-3599.35
0.2593,0.7407	-3604.54
0.3024,0.6976	-3620.98
0.2670,0.7330	-3614.42
0.2565,0.7435	-3611.06
0.2827,0.7173	-3614.78
0.2717,0.7283	-3614.16
0.2727,0.7273	-3591.55
0.2921,0.7079	-3620.99
0.2567,0.7433	-3599.35
0.2670,0.7330	-3607.36
0.2761,0.7239	-3608.20
0.2996,0.7004	-3613.30
0.3027,0.6973	-3613.47
0.3410,0.6590	-3630.86
0.2569,0.7431	-3608.90
0.2691,0.7309	-3611.30
0.2768,0.7232	-3611.08
0.2921,0.7079	-3619.22
0.2841,0.7159	-3626.78
0.3212,0.6788	-3630.74
0.2804,0.7196	-3607.28
0.2688,0.7312	-3600.30
0.2944,0.7056	-3618.34
0.2923,0.7077	-3615.68
0.2841,0.7159	-3619.39
0.3143,0.6857	-3626.82
0.3077,0.6923	-3622.72
0.2648,0.7352	-3614.57
0.2631,0.7369	-3607.50
0.3252,0.6748	-3624.97
0.2798,0.7202	-3603.49
0.3202,0.6798	-3624.71
0.3093,0.6907	-3605.88
0.2675,0.7325	-3600.29
0.2949,0.7051	-3618.34
0.2891,0.7109	-3626.46
0.2612,0.7388	-3604.47
0.2908,0.7092	-3612.99
0.3111,0.6889	-3611.68
0.2811,0.7189	-3612.93
0.2899,0.7101	-3621.04
0.3106,0.6894	-3631.56
0.2552,0.7448	-3612.25
0.2937,0.7063	-3613.07
0.2837,0.7163	-3611.99
0.2896,0.7104	-3595.92
0.2953,0.7047	-3607.90
0.3333,0.6667	-3631.10
0.2633,0.7367	-3616.75
0.2574,0.7426	-3610.99
0.3150,0.6850	-3620.62
0.2940,0.7060	-3604.32
0.3120,0.6880	-3622.05
0.3264,0.6736	-3627.22
0.2813,0.7187	-3607.30
0.2259,0.7741	-3594.81
0.2895,0.7105	-3615.66
0.2572,0.7428	-3594.04
0.3588,0.6412	-3641.17
0.2814,0.7186	-3611.99
0.3022,0.6978	-3626.83
0.2730,0.7270	-3616.06
0.3123,0.6877	-3633.90
0.2565,0.7435	-3615.32
0.3549,0.6451	-3627.86
0.2710,0.7290	-3611.23
0.3139,0.6861	-3617.43
0.3160,0.6840	-3616.81
0.3066,0.6934	-3630.04
0.2964,0.7036	-3608.84
0.3107,0.6893	-3631.56
0.2979,0.7021	-3613.23
0.3443,0.6557	-3631.75
0.3104,0.6896	-3631.57
0.3079,0.6921	-3624.34
0.3007,0.6993	-3619.27
0.2759,0.7241	-3634.26
0.3170,0.6830	-3621.50
0.3288,0.6712	-3635.20
0.3110,0.6890	-3614.06
0.2879,0.7121	-3615.66
0.3112,0.6888	-3618.84
0.2608,0.7392	-3616.98
0.2859,0.7141	-3617.50
0.2976,0.7024	-3609.78
0.2964,0.7036	-3610.57
0.2929,0.7071	-3620.98
0.2886,0.7114	-3608.44
0.2799,0.7201	-3618.61
0.2673,0.7327	-3600.29
0.3199,0.6801	-3620.17
0.3390,0.6610	-3636.07
0.2943,0.7057	-3623.58
0.2931,0.7069	-3615.69
0.3076,0.6924	-3623.53
0.3198,0.6802	-3626.95
0.3181,0.6819	-3634.53
0.2824,0.7176	-3611.05
0.2771,0.7229	-3614.91
0.2528,0.7472	-3591.90
0.3154,0.6846	-3624.51
0.3158,0.6842	-3629.17
0.3214,0.6786	-3638.96
0.2754,0.7246	-3618.84
0.3027,0.6973	-3618.48
0.2863,0.7137	-3622.06
0.3189,0.6811	-3622.37
0.3406,0.6594	-3633.47
0.3559,0.6441	-3643.42
0.2533,0.7467	-3607.04
0.2945,0.7055	-3617.46
0.2873,0.7127	-3603.85
0.2996,0.7004	-3623.50
0.3328,0.6672	-3633.16
0.2930,0.7070	-3611.29
0.2630,0.7370	-3615.74
0.3411,0.6589	-3627.58
0.2698,0.7302	-3610.27
0.3092,0.6908	-3628.38
0.3412,0.6588	-3625.61
0.2853,0.7147	-3618.43
0.2930,0.7070	-3629.78
0.3153,0.6847	-3622.96
0.2754,0.7246	-3621.74
0.3232,0.6768	-3625.60
0.3146,0.6854	-3625.27
0.2920,0.7080	-3620.99
0.2790,0.7210	-3603.46
0.3220,0.6780	-3628.52
0.2671,0.7329	-3613.41
0.3041,0.6959	-3614.38
0.2780,0.7220	-3629.20
0.2799,0.7201	-3611.05
0.3095,0.6905	-3622.76
0.3369,0.6631	-3632.63
0.2972,0.7028	-3608.03
0.3115,0.6885	-3633.13
0.3212,0.6788	-3639.72
0.2716,0.7284	-3603.31
0.3135,0.6865	-3632.30
0.3032,0.6968	-3618.50
0.3005,0.6995	-3623.49
0.2904,0.7096	-3617.45
0.3489,0.6511	-3633.98
0.2849,0.7151	-3609.24
0.3235,0.6765	-3622.67
0.3026,0.6974	-3633.50
0.2838,0.7162	-3614.77
0.2657,0.7343	-3599.26
0.3461,0.6539	-3647.78
0.2939,0.7061	-3620.96
0.3440,0.6560	-3640.76
0.3002,0.6998	-3622.65
0.2905,0.7095	-3608.52
0.2801,0.7199	-3605.39
0.3487,0.6513	-3640.21
0.3213,0.6787	-3633.73
0.3085,0.6915	-3617.89
0.2715,0.7285	-3602.33
0.2818,0.7182	-3614.79
0.2673,0.7327	-3617.43
0.3237,0.6763	-3630.05
0.3402,0.6598	-3634.78
0.3075,0.6925	-3616.22
0.2846,0.7154	-3612.92
0.3020,0.6980	-3620.97
0.2568,0.7432	-3603.60
0.3133,0.6867	-3624.45
0.3136,0.6864	-3628.38
0.2728,0.7272	-3605.29
0.3054,0.6946	-3625.14
0.2862,0.7138	-3612.01
0.2816,0.7184	-3611.05
0.3665,0.6335	-3637.22
0.3079,0.6921	-3606.52
0.3247,0.6753	-3615.42
0.3136,0.6864	-3623.68
0.2537,0.7463	-3601.61
0.2498,0.7502	-3598.53
0.3054,0.6946	-3611.17
0.2819,0.7181	-3626.95
0.3157,0.6843	-3619.89
0.3129,0.6871	-3610.28
0.2660,0.7340	-3615.50
0.2488,0.7512	-3600.80
0.3202,0.6798	-3621.70
0.2808,0.7192	-3621.39
0.3238,0.6762	-3627.84
0.2433,0.7567	-3606.88
0.2717,0.7283	-3606.27
0.3230,0.6770	-3635.95
0.3302,0.6698	-3622.48
0.3103,0.6897	-3614.80
0.2833,0.7167	-3604.56
0.2663,0.7337	-3611.43
0.3095,0.6905	-3622.76
0.3092,0.6908	-3624.36
0.3052,0.6948	-3616.09
0.3141,0.6859	-3622.91
0.2572,0.7428	-3603.58
0.2682,0.7318	-3615.35
0.2940,0.7060	-3615.71
0.2780,0.7220	-3602.48
0.2955,0.7045	-3600.10
0.3234,0.6766	-3632.99
0.2789,0.7211	-3613.91
0.2613,0.7387	-3610.70
0.2962,0.7038	-3613.16
0.2836,0.7164	-3607.36
0.2743,0.7257	-3605.29
0.3056,0.6944	-3611.19
0.3148,0.6852	-3626.05
0.2909,0.7091	-3631.71
0.3145,0.6855	-3618.25
0.2811,0.7189	-3621.38
0.2780,0.7220	-3620.61
0.2920,0.7080	-3618.33
0.2655,0.7345	-3619.61
0.2942,0.7058	-3621.84
0.2798,0.7202	-3619.56
0.3061,0.6939	-3616.96
0.2708,0.7292	-3619.16
0.3024,0.6976	-3601.75
0.2521,0.7479	-3611.48
0.2915,0.7085	-3619.22
0.2690,0.7310	-3622.30
0.3084,0.6916	-3621.93
0.2453,0.7547	-3611.16
0.3270,0.6730	-3621.48
0.2820,0.7180	-3602.64
0.2957,0.7043	-3603.59
0.3041,0.6959	-3608.59
0.2515,0.7485	-3596.27
0.2759,0.7241	-3608.20
0.2884,0.7116	-3612.04
0.2965,0.7035	-3613.17
0.2795,0.7205	-3597.80
0.3020,0.6980	-3626.00
0.2915,0.7085	-3624.55
0.3038,0.6962	-3616.02
0.2930,0.7070	-3617.45
0.2741,0.7259	-3604.32
0.2995,0.7005	-3625.20
0.2883,0.7117	-3617.46
0.3026,0.6974	-3634.34
0.3308,0.6692	-3624.65
0.3153,0.6847	-3618.31
0.2608,0.7392	-3593.02
0.2966,0.7034	-3620.94
0.2880,0.7120	-3621.09
0.3272,0.6728	-3624.38
0.3217,0.6783	-3624.03
0.3460,0.6540	-3633.78
0.2788,0.7212	-3612.96
0.2513,0.7487	-3605.01
0.2947,0.7053	-3611.36
0.2933,0.7067	-3615.69
0.3175,0.6825	-3626.89
0.3686,0.6314	-3635.81
0.3295,0.6705	-3630.23
0.2678,0.7322	-3617.39
0.2806,0.7194	-3606.34
0.2793,0.7207	-3625.28
0.3450,0.6550	-3636.28
0.3424,0.6576	-3621.17
0.3329,0.6671	-3632.47
0.2896,0.7104	-3612.97
0.2761,0.7239	-3598.56
0.2869,0.7131	-3616.57
0.2899,0.7101	-3636.26
0.3130,0.6870	-3622.87
0.3123,0.6877	-3637.84
0.2648,0.7352	-3603.34
0.2642,0.7358	-3605.40
0.2719,0.7281	-3612.18
0.2996,0.7004	-3627.74
0.3103,0.6897	-3625.98
0.3120,0.6880	-3634.70
0.2810,0.7190	-3614.81
0.2722,0.7278	-3606.27
0.2393,0.7607	-3610.85
0.2900,0.7100	-3621.03
0.2927,0.7073	-3614.80
0.2959,0.7041	-3620.95
0.2776,0.7224	-3622.55
0.2689,0.7311	-3597.30
0.2609,0.7391	-3597.19
0.3096,0.6904	-3620.36
0.3131,0.6869	-3611.87
0.2872,0.7128	-3620.21
0.2676,0.7324	-3613.38
0.2444,0.7556	-3613.53
0.2342,0.7658	-3605.75
0.3251,0.6749	-3639.58
0.3271,0.6729	-3618.60
0.2877,0.7123	-3604.78
0.2974,0.7026	-3626.96
0.2537,0.7463	-3612.39
0.2461,0.7539	-3614.41
0.3271,0.6729	-3627.26
0.3368,0.6632	-3635.34
0.3070,0.6930	-3623.52
0.2602,0.7398	-3613.91
0.2447,0.7553	-3598.84
0.2922,0.7078	-3614.79
0.3270,0.6730	-3624.37
0.3318,0.6682	-3629.63
0.2917,0.7083	-3613.90
0.2739,0.7261	-3607.24
0.2354,0.7646	-3599.69
0.2631,0.7369	-3619.86
0.3092,0.6908	-3627.58
0.3067,0.6933	-3620.25
0.2647,0.7353	-3607.43
0.2943,0.7057	-3620.96
0.2563,0.7437	-3615.35
0.2783,0.7217	-3615.83
0.3021,0.6979	-3623.49
0.2959,0.7041	-3607.94
0.3239,0.6761	-3627.84
0.3218,0.6782	-3636.71
0.2382,0.7618	-3587.77
0.2965,0.7035	-3630.45
0.3207,0.6793	-3623.98
0.3010,0.6990	-3618.43
0.3115,0.6885	-3604.58
0.2798,0.7202	-3609.16
0.3027,0.6973	-3620.98
0.2894,0.7106	-3616.56
0.3197,0.6803	-3623.17
0.2868,0.7132	-3617.48
0.2851,0.7149	-3614.76
0.2776,0.7224	-3608.20
0.3102,0.6898	-3626.78
0.2876,0.7124	-3617.47
0.2975,0.7025	-3621.80
0.2845,0.7155	-3613.84
0.3038,0.6962	-3623.49
0.3138,0.6862	-3623.68
0.2668,0.7332	-3615.45
0.3209,0.6791	-3629.99
0.2892,0.7108	-3611.16
0.3130,0.6870	-3621.30
0.3028,0.6972	-3623.49
0.3086,0.6914	-3616.29
0.2790,0.7210	-3622.45
0.2811,0.7189	-3605.42
0.2939,0.7061	-3623.59
0.2838,0.7162	-3621.25
0.2776,0.7224	-3612.98
0.3108,0.6892	-3616.43
0.3018,0.6982	-3634.39
0.2972,0.7028	-3618.36
0.3207,0.6793	-3632.24
0.2964,0.7036	-3629.59
0.2705,0.7295	-3618.19
0.3213,0.6787	-3629.25
0.2813,0.7187	-3611.05
0.3075,0.6925	-3628.40
0.3094,0.6906	-3623.56
0.3048,0.6952	-3622.67
0.2824,0.7176	-3602.66
0.3057,0.6943	-3610.38
0.2613,0.7387	-3606.54
0.2819,0.7181	-3594.22
0.3029,0.6971	-3625.99
0.2861,0.7139	-3599.21
0.2964,0.7036	-3602.79
0.2748,0.7252	-3615.97
0.2585,0.7415	-3601.42
0.3371,0.6629	-3638.72
0.2870,0.7130	-3613.84
0.3145,0.6855	-3624.49
0.3429,0.6571	-3627.74
0.3073,0.6927	-3621.90
0.2445,0.7555	-3602.24
0.3107,0.6893	-3620.41
0.3011,0.6989	-3633.59
0.2705,0.7295	-3601.32
0.3276,0.6724	-3623.69
0.3033,0.6967	-3628.48
0.2636,0.7364	-3611.59
0.2862,0.7138	-3618.41
0.3160,0.6840	-3616.82
0.3118,0.6882	-3621.25
0.3170,0.6830	-3636.09
0.2846,0.7154	-3622.13
0.2663,0.7337	-3610.42
0.2908,0.7092	-3627.26
0.3083,0.6917	-3613.84
0.2892,0.7108	-3618.36
0.2857,0.7143	-3612.00
0.3393,0.6607	-3622.08
0.2761,0.7239	-3611.09
0.2652,0.7348	-3604.36
0.3122,0.6878	-3631.53
0.3427,0.6573	-3621.86
0.2703,0.7297	-3609.27
0.3019,0.6981	-3625.16
0.3074,0.6926	-3625.96
0.2711,0.7289	-3606.28
0.2856,0.7144	-3610.17
0.3305,0.6695	-3626.74
0.2940,0.7060	-3621.84
0.2977,0.7023	-3623.52
0.2957,0.7043	-3615.74
0.2922,0.7078	-3610.37
0.2397,0.7603	-3602.71
0.3566,0.6434	-3633.41
0.3001,0.6999	-3614.18
0.2910,0.7090	-3613.00
0.2856,0.7144	-3609.25
0.3055,0.6945	-3624.32
0.2362,0.7638	-3596.08
0.3188,0.6812	-3626.92
0.3271,0.6729	-3634.47
0.2998,0.7002	-3625.19
0.2948,0.7052	-3620.08
0.3250,0.6750	-3633.00
0.2279,0.7721	-3617.75
0.3251,0.6749	-3610.36
0.2835,0.7165	-3606.43
0.3199,0.6801	-3636.76
0.2803,0.7197	-3601.62
0.3146,0.6854	-3633.83
0.2661,0.7339	-3596.22
0.3149,0.6851	-3619.84
0.2718,0.7282	-3609.23
0.2898,0.7102	-3616.56
0.2779,0.7221	-3608.20
0.3273,0.6727	-3620.06
0.2666,0.7334	-3606.36
0.3076,0.6924	-3616.23
0.2933,0.7067	-3622.73
0.2890,0.7110	-3615.66
0.2653,0.7347	-3610.47
0.3222,0.6778	-3624.06
0.2865,0.7135	-3610.19
0.3041,0.6959	-3625.15
0.2928,0.7072	-3639.50
0.3088,0.6912	-3619.52
0.2963,0.7037	-3614.89
0.3229,0.6771	-3639.65
0.2964,0.7036	-3624.40
0.2768,0.7232	-3612.04
0.2764,0.7236	-3618.79
0.3407,0.6593	-3626.21
0.3074,0.6926	-3612.15
0.3228,0.6772	-3617.43
0.2710,0.7290	-3613.20
0.2853,0.7147	-3622.10
0.2778,0.7222	-3605.34
0.3253,0.6747	-3631.55
0.2968,0.7032	-3614.04
0.3123,0.6877	-3622.85
0.2849,0.7151	-3604.63
0.2648,0.7352	-3595.17
0.2504,0.7496	-3599.60
0.3198,0.6802	-3628.46
0.2852,0.7148	-3599.14
0.3133,0.6867	-3617.39
0.2812,0.7188	-3620.44
0.2676,0.7324	-3609.35
0.2686,0.7314	-3596.29
0.3069,0.6931	-3619.44
0.2698,0.7302	-3605.30
0.3126,0.6874	-3620.49
0.2821,0.7179	-3603.58
0.2681,0.7319	-3611.34
0.2442,0.7558	-3605.65
0.2606,0.7394	-3601.36
0.2642,0.7358	-3609.50
0.3298,0.6702	-3635.92
0.2498,0.7502	-3590.84
0.2706,0.7294	-3610.25
0.2511,0.7489	-3603.93
0.3031,0.6969	-3617.66
0.2436,0.7564	-3603.45
0.2896,0.7104	-3629.12
0.2385,0.7615	-3598.20
0.2820,0.7180	-3606.38
0.2377,0.7623	-3594.78
0.3133,0.6867	-3634.65
0.2758,0.7242	-3622.68
0.2726,0.7274	-3611.17
0.2782,0.7218	-3600.58
0.2802,0.7198	-3629.92
0.2619,0.7381	-3626.20
0.3050,0.6950	-3621.02
0.2843,0.7157	-3618.46
0.2584,0.7416	-3613.02
0.2717,0.7283	-3610.22
0.2729,0.7271	-3610.18
0.2942,0.7058	-3611.34
0.3179,0.6821	-3623.85
0.2727,0.7273	-3598.42
0.2726,0.7274	-3594.49
0.3168,0.6832	-3631.48
0.2926,0.7074	-3618.33
0.2896,0.7104	-3613.86
0.2828,0.7172	-3621.29
0.3019,0.6981	-3619.29
0.2843,0.7157	-3610.15
0.2808,0.7192	-3603.53
0.2980,0.7020	-3610.66
0.2710,0.7290	-3613.20
0.2944,0.7056	-3606.97
0.3017,0.6983	-3614.25
0.3478,0.6522	-3637.67
0.2781,0.7219	-3612.02
0.3113,0.6887	-3629.96
0.2861,0.7139	-3612.92
0.3149,0.6851	-3617.50
0.2856,0.7144	-3616.59
0.3481,0.6519	-3640.19
0.2760,0.7240	-3602.41
0.3293,0.6707	-3628.80
0.2896,0.7104	-3625.53
0.2906,0.7094	-3606.74
0.2973,0.7027	-3616.64
0.3109,0.6891	-3635.53
0.2966,0.7034	-3612.31
0.3151,0.6849	-3622.95
0.2738,0.7262	-3605.29
0.3426,0.6574	-3625.76
0.2772,0.7228	-3601.49
0.2750,0.7250	-3614.99
0.2989,0.7011	-3620.09
0.3220,0.6780	-3627.03
0.2786,0.7214	-3598.69
0.3025,0.6975	-3620.14
0.2831,0.7169	-3602.70
0.2787,0.7213	-3618.67
0.3159,0.6841	-3622.98
0.3216,0.6784	-3627.76
0.2695,0.7305	-3613.28
0.2802,0.7198	-3626.15
0.2964,0.7036	-3626.99
0.2573,0.7427	-3613.12
0.2993,0.7007	-3625.20
0.3505,0.6495	-3633.48
0.2992,0.7008	-3625.20
0.2879,0.7121	-3613.85
0.2883,0.7117	-3607.52
0.2336,0.7664	-3605.83
0.2929,0.7071	-3614.81
0.3144,0.6856	-3635.40
0.3481,0.6519	-3633.92
0.2751,0.7249	-3615.96
0.2972,0.7028	-3608.03
0.2786,0.7214	-3625.34
0.3152,0.6848	-3625.28
0.3307,0.6693	-3619.71
0.3293,0.6707	-3632.36
0.2865,0.7135	-3614.75
0.3220,0.6780	-3621.07
0.2753,0.7247	-3618.85
0.2981,0.7019	-3620.94
0.3352,0.6648	-3625.03
0.3116,0.6884	-3618.86
0.3227,0.6773	-3633.73
0.3372,0.6628	-3630.62
0.2866,0.7134	-3614.75
0.3182,0.6818	-3612.43
0.3644,0.6356	-3635.35
0.2963,0.7037	-3615.75
0.3187,0.6813	-3616.28
0.3154,0.6846	-3638.46
0.2714,0.7286	-3608.25
0.3217,0.6783	-3630.75
0.3641,0.6359	-3631.97
0.2749,0.7251	-3606.27
0.3019,0.6981	-3617.62
0.2961,0.7039	-3623.54
0.2811,0.7189	-3618.57
0.3085,0.6915	-3625.96
0.2941,0.7059	-3610.45
0.2884,0.7116	-3605.72
0.2992,0.7008	-3610.73
0.2829,0.7171	-3624.08
0.2920,0.7080	-3622.76
0.3139,0.6861	-3623.68
0.3209,0.6791	-3626.24
0.2667,0.7333	-3625.57
0.2437,0.7563	-3618.16
0.3227,0.6773	-3635.21
0.2986,0.7014	-3632.90
0.2891,0.7109	-3623.76
0.2685,0.7315	-3608.32
0.2808,0.7192	-3591.30
0.2705,0.7295	-3608.27
0.3524,0.6476	-3634.85
0.2755,0.7245	-3610.14
0.2944,0.7056	-3614.84
0.2992,0.7008	-3613.29
0.2958,0.7042	-3632.22
0.3027,0.6973	-3620.98
0.3116,0.6884	-3631.54
0.2855,0.7145	-3623.01
0.3259,0.6741	-3630.83
0.2999,0.7001	-3633.67
0.3021,0.6979	-3636.88
0.2955,0.7045	-3615.74
0.3337,0.6663	-3633.88
0.2532,0.7468	-3602.71
0.3052,0.6948	-3626.79
0.2775,0.7225	-3621.60
0.3303,0.6697	-3615.42
0.3024,0.6976	-3611.78
0.3044,0.6956	-3626.80
0.3055,0.6945	-3619.40
0.3032,0.6968	-3630.97
0.2930,0.7070	-3626.26
0.2981,0.7019	-3624.37
0.3264,0.6736	-3634.47
0.2768,0.7232	-3630.29
0.3026,0.6974	-3625.16
0.3059,0.6941	-3626.78
0.3057,0.6943	-3620.22
0.3338,0.6662	-3629.73
0.2840,0.7160	-3632.33
0.2569,0.7431	-3624.83
0.3121,0.6879	-3628.37
0.2771,0.7229	-3624.50
0.3158,0.6842	-3622.21
0.3470,0.6530	-3642.70
0.3254,0.6746	-3630.09
0.2664,0.7336	-3630.67
0.3006,0.6994	-3620.11
0.2876,0.7124	-3630.17
0.2815,0.7185	-3605.43
0.3420,0.6580	-3633.55
0.2999,0.7001	-3622.65
0.2975,0.7025	-3624.38
0.2959,0.7041	-3632.22
0.2921,0.7079	-3614.79
0.2892,0.7108	-3603.97
0.3100,0.6900	-3628.38
0.3521,0.6479	-3639.70
0.3073,0.6927	-3624.34
0.3137,0.6863	-3626.81
0.2949,0.7051	-3608.75
0.3359,0.6641	-3625.09
0.2970,0.7030	-3623.53
0.3390,0.6610	-3632.73
0.2784,0.7216	-3606.30
0.3282,0.6718	-3623.74
0.2864,0.7136	-3614.75
0.2997,0.7003	-3636.23
0.3004,0.6996	-3606.58
0.2837,0.7163	-3615.69
0.3230,0.6770	-3625.59
0.2784,0.7216	-3607.25
0.2974,0.7026	-3609.76
0.2680,0.7320	-3611.35
0.2609,0.7391	-3613.85
0.3274,0.6726	-3633.75
0.3058,0.6942	-3628.42
0.3033,0.6967	-3633.47
0.2945,0.7055	-3620.96
0.2648,0.7352	-3585.98
0.2919,0.7081	-3618.33
0.3237,0.6763	-3636.68
0.2713,0.7287	-3598.37
0.2921,0.7079	-3628.07
0.2796,0.7204	-3626.20
0.2521,0.7479	-3598.43
0.3187,0.6813	-3633.76
0.2764,0.7236	-3609.16
0.3088,0.6912	-3623.55
0.3168,0.6832	-3632.25
0.2944,0.7056	-3613.09
0.2584,0.7416	-3604.59
0.3602,0.6398	-3633.20
0.2812,0.7188	-3600.73
0.2883,0.7117	-3609.33
0.3201,0.6799	-3626.96
0.2906,0.7094	-3610.31
0.3155,0.6845	-3616.00
0.3754,0.6246	-3646.83
0.2884,0.7116	-3613.85
0.2743,0.7257	-3609.18
0.2846,0.7154	-3604.62
0.2678,0.7322	-3613.37
0.3015,0.6985	-3620.13
0.3261,0.6739	-3635.92
0.2764,0.7236	-3627.45
0.2998,0.7002	-3623.49
0.3555,0.6445	-3638.66
0.2790,0.7210	-3614.86
0.2945,0.7055	-3609.60
0.3108,0.6892	-3625.98
0.2684,0.7316	-3615.34
0.2950,0.7050	-3624.44
0.3285,0.6715	-3624.47
0.2561,0.7439	-3606.83
0.3053,0.6947	-3615.28
0.3232,0.6768	-3626.34
0.2856,0.7144	-3629.43
0.2899,0.7101	-3606.70
0.3029,0.6971	-3613.48
0.2532,0.7468	-3591.90
0.3140,0.6860	-3626.82
0.2778,0.7222	-3615.85
0.2733,0.7267	-3613.11
0.2945,0.7055	-3633.19
0.3200,0.6800	-3614.90
0.2458,0.7542	-3629.04
0.3085,0.6915	-3632.42
0.2746,0.7254	-3605.29
0.2973,0.7027	-3611.48
0.2865,0.7135	-3624.79
0.2947,0.7053	-3622.70
0.2793,0.7207	-3623.38
0.3525,0.6475	-3636.07
0.2609,0.7391	-3600.31
0.2857,0.7143	-3637.66
0.3238,0.6762	-3630.05
0.2668,0.7332	-3607.36
0.2994,0.7006	-3625.20
0.3519,0.6481	-3639.08
0.2685,0.7315	-3598.29
0.2722,0.7278	-3620.04
0.3178,0.6822	-3632.24
0.2712,0.7288	-3617.15
0.2590,0.7410	-3607.71
0.3366,0.6634	-3632.62
0.2619,0.7381	-3611.70
0.3216,0.6784	-3627.01
0.2860,0.7140	-3611.09
0.2881,0.7119	-3613.85
0.2826,0.7174	-3617.58
0.3062,0.6938	-3618.60
0.2818,0.7182	-3599.83
0.3039,0.6961	-3619.34
0.2943,0.7057	-3615.71
0.3464,0.6536	-3638.25
0.2976,0.7024	-3633.83
0.3012,0.6988	-3620.12
0.2643,0.7357	-3592.09
0.3043,0.6957	-3627.63
0.2842,0.7158	-3612.92
0.3124,0.6876	-3622.85
0.2873,0.7127	-3618.39
0.2976,0.7024	-3614.07
0.2658,0.7342	-3611.46
0.2900,0.7100	-3615.66
0.3014,0.6986	-3616.76
0.3084,0.6916	-3619.50
0.2984,0.7016	-3618.38
0.3037,0.6963	-3609.38
0.2507,0.7493	-3610.53
0.2820,0.7180	-3625.07
0.2952,0.7048	-3616.60
0.3194,0.6806	-3624.67
0.2900,0.7100	-3625.51
0.3046,0.6954	-3629.27
0.2626,0.7374	-3605.46
0.2526,0.7474	-3615.77
0.3128,0.6872	-3625.22
0.2651,0.7349	-3607.42
0.2607,0.7393	-3604.49
0.2905,0.7095	-3607.63
0.2891,0.7109	-3618.36
0.2600,0.7400	-3603.47
0.3179,0.6821	-3623.84
0.3370,0.6630	-3628.57
0.2394,0.7606	-3609.68
0.3068,0.6932	-3620.26
0.2990,0.7010	-3625.21
0.2671,0.7329	-3624.51
0.2774,0.7226	-3612.03
0.3298,0.6702	-3624.57
0.2485,0.7515	-3609.67
0.2921,0.7079	-3618.33
0.3045,0.6955	-3621.02
0.2511,0.7489	-3608.31
0.2824,0.7176	-3611.99
0.2559,0.7441	-3604.71
0.2509,0.7491	-3602.85
0.3019,0.6981	-3622.65
0.3187,0.6813	-3618.57
0.2590,0.7410	-3599.30
0.2747,0.7253	-3604.32
0.2700,0.7300	-3627.18
0.2715,0.7285	-3603.31
0.2959,0.7041	-3633.08
0.3305,0.6695	-3640.16
0.2659,0.7341	-3596.22
0.2763,0.7237	-3619.75
0.2930,0.7070	-3613.93
0.2732,0.7268	-3611.16
0.3042,0.6958	-3623.49
0.3338,0.6662	-3620.75
0.2628,0.7372	-3617.82
0.2737,0.7263	-3607.24
0.2860,0.7140	-3620.24
0.2938,0.7062	-3615.70
0.2858,0.7142	-3617.50
0.3513,0.6487	-3630.48
0.2777,0.7223	-3607.25
0.2675,0.7325	-3599.28
0.3064,0.6936	-3633.31
0.2755,0.7245	-3606.27
0.3025,0.6975	-3615.13
0.3480,0.6520	-3642.08
0.2783,0.7217	-3605.35
0.2784,0.7216	-3614.87
0.2978,0.7022	-3619.23
0.2867,0.7133	-3615.66
0.2987,0.7013	-3623.50
0.3255,0.6745	-3619.89
0.3075,0.6925	-3626.77
0.2904,0.7096	-3622.81
0.2936,0.7064	-3629.75
0.2966,0.7034	-3624.40
0.3113,0.6887	-3617.25
0.3139,0.6861	-3625.25
0.2937,0.7063	-3620.09
0.3287,0.6713	-3640.91
0.2857,0.7143	-3618.42
0.2637,0.7363	-3615.69
0.3202,0.6798	-3632.24
0.3025,0.6975	-3621.81
0.2923,0.7077	-3618.33
0.3164,0.6836	-3630.71
0.2730,0.7270	-3599.41
0.2687,0.7313	-3606.31
0.2824,0.7176	-3603.59
0.2923,0.7077	-3611.26
0.2827,0.7173	-3615.71
0.3234,0.6766	-3625.61
0.2868,0.7132	-3616.57
0.2456,0.7544	-3592.04
0.3068,0.6932	-3612.10
0.2689,0.7311	-3619.31
0.2687,0.7313	-3613.32
0.3172,0.6828	-3626.11
0.2592,0.7408	-3599.30
0.2675,0.7325	-3597.27
0.2921,0.7079	-3627.18
0.2876,0.7124	-3618.38
0.3033,0.6967	-3614.34
0.3050,0.6950	-3623.50
0.2881,0.7119	-3619.28
0.2886,0.7114	-3612.95
0.3304,0.6696	-3637.33
0.2906,0.7094	-3605.85
0.2864,0.7136	-3622.97
0.2948,0.7052	-3613.98
0.3529,0.6471	-3625.79
0.3130,0.6870	-3633.88
0.3073,0.6927	-3612.96
0.3057,0.6943	-3618.58
0.2595,0.7405	-3619.22
0.3188,0.6812	-3623.13
0.2790,0.7210	-3612.01
0.2804,0.7196	-3612.94
0.3111,0.6889	-3624.40
0.3004,0.6996	-3615.04
0.2665,0.7335	-3614.46
0.2831,0.7169	-3623.14
0.2792,0.7208	-3612.01
0.2575,0.7425	-3608.86
0.3093,0.6907	-3623.56
0.3221,0.6779	-3638.20
0.2743,0.7257	-3603.34
0.2827,0.7173	-3624.09
0.2745,0.7255	-3615.98
0.2828,0.7172	-3610.13
0.3140,0.6860	-3619.78
0.2905,0.7095	-3608.52
0.2872,0.7128	-3607.48
0.2741,0.7259	-3600.42
0.2656,0.7344	-3604.35
0.3147,0.6853	-3612.82
0.2996,0.7004	-3617.55
0.2856,0.7144	-3617.50
0.2956,0.7044	-3622.69
0.2986,0.7014	-3629.48
0.2559,0.7441	-3608.98
0.2882,0.7118	-3625.60
0.3176,0.6824	-3633.01
0.2486,0.7514	-3612.98
0.2925,0.7075	-3625.40
0.3067,0.6933	-3623.51
0.2503,0.7497	-3609.48
0.2784,0.7216	-3596.78
0.3090,0.6910	-3628.38
0.2551,0.7449	-3589.76
0.2413,0.7587	-3597.96
0.3323,0.6677	-3631.75
0.2493,0.7507	-3611.79
0.3094,0.6906	-3609.92
0.3151,0.6849	-3628.39
0.2503,0.7497	-3621.55
0.2608,0.7392	-3611.77
0.3091,0.6909	-3614.71
0.2847,0.7153	-3609.23
0.2847,0.7153	-3606.47
0.3265,0.6735	-3629.40
0.3018,0.6982	-3628.52
0.2725,0.7275	-3602.34
0.3567,0.6433	-3642.85
0.2715,0.7285	-3623.06
0.2526,0.7474	-3608.18
0.2917,0.7083	-3615.67
0.2895,0.7105	-3613.86
0.2835,0.7165	-3617.55
0.3209,0.6791	-3618.74
0.3181,0.6819	-3621.57
0.2706,0.7294	-3621.16
0.3262,0.6738	-3623.58
0.2520,0.7480	-3596.26
0.3137,0.6863	-3616.63
0.2846,0.7154	-3614.76
0.2908,0.7092	-3615.67
0.2651,0.7349	-3594.16
0.2849,0.7151	-3615.68
0.3197,0.6803	-3619.40
0.2883,0.7117	-3609.33
0.2812,0.7188	-3621.37
0.2826,0.7174	-3610.12
0.2820,0.7180	-3609.18
0.3067,0.6933	-3631.67
0.3030,0.6970	-3620.99
0.3119,0.6881	-3629.16
0.2870,0.7130	-3637.50
0.2895,0.7105	-3611.17
0.2885,0.7115	-3600.31
0.3129,0.6871	-3629.16
0.3050,0.6950	-3612.79
0.2934,0.7066	-3619.21
0.3090,0.6910	-3614.70
0.3186,0.6814	-3628.44
0.2870,0.7130	-3614.75
0.3199,0.6801	-3629.22
0.2853,0.7147	-3622.10
0.2932,0.7068	-3625.37
0.2932,0.7068	-3616.57
0.2815,0.7185	-3605.43
0.2965,0.7035	-3614.90
0.3346,0.6654	-3624.97
0.3257,0.6743	-3630.83
0.3097,0.6903	-3615.56
0.2675,0.7325	-3615.40
0.2599,0.7401	-3612.89
0.2902,0.7098	-3609.40
0.2965,0.7035	-3624.40
0.3309,0.6691	-3623.25
0.3069,0.6931	-3615.37
0.2302,0.7698	-3596.72
0.2442,0.7558	-3597.74
0.2815,0.7185	-3610.11
0.2824,0.7176	-3626.91
0.2781,0.7219	-3607.25
0.2926,0.7074	-3617.45
0.2567,0.7433	-3597.23
0.2717,0.7283	-3610.22
0.3046,0.6954	-3617.72
0.2548,0.7452	-3611.21
0.2879,0.7121	-3615.66
0.2775,0.7225	-3622.55
0.2899,0.7101	-3625.52
0.2799,0.7201	-3606.33
0.3109,0.6891	-3629.17
0.2648,0.7352	-3626.83
0.2887,0.7113	-3621.07
0.3066,0.6934	-3618.62
0.2678,0.7322	-3619.40
0.2666,0.7334	-3613.44
0.2979,0.7021	-3624.37
0.2979,0.7021	-3621.80
0.3290,0.6710	-3625.23
0.3176,0.6824	-3628.42
0.3214,0.6786	-3642.70
0.2806,0.7194	-3611.99
0.2918,0.7082	-3620.99
0.3043,0.6957	-3614.40
0.3373,0.6627	-3634.67
0.3356,0.6644	-3625.74
0.3515,0.6485	-3641.52
0.2713,0.7287	-3627.02
0.2722,0.7278	-3621.02
0.2642,0.7358	-3603.35
0.3314,0.6686	-3624.70
0.3043,0.6957	-3629.28
0.3347,0.6653	-3631.16
0.3175,0.6825	-3633.01
0.2853,0.7147	-3615.67
0.3259,0.6741	-3631.56
0.2743,0.7257	-3609.18
0.3031,0.6969	-3630.15
0.3148,0.6852	-3622.94
0.3001,0.6999	-3620.10
0.2812,0.7188	-3616.68
0.3169,0.6831	-3620.73
0.2870,0.7130	-3624.76
0.2868,0.7132	-3626.59
0.3561,0.6439	-3634.54
0.2921,0.7079	-3627.18
0.2876,0.7124	-3621.10
0.2900,0.7100	-3623.72
0.3090,0.6910	-3621.14
0.3150,0.6850	-3629.94
0.3275,0.6725	-3630.88
0.3095,0.6905	-3618.75
0.2707,0.7293	-3610.24
0.2839,0.7161	-3605.51
0.3017,0.6983	-3618.45
0.2630,0.7370	-3627.08
0.2801,0.7199	-3613.88
0.3060,0.6940	-3606.31
0.2838,0.7162	-3595.33
0.3047,0.6953	-3620.19
0.3084,0.6916	-3628.39
0.2737,0.7263	-3598.46
0.2740,0.7260	-3616.01
0.2975,0.7025	-3613.21
0.2750,0.7250	-3617.90
0.2769,0.7231	-3606.28
0.3041,0.6959	-3627.63
0.2610,0.7390	-3610.72
0.2959,0.7041	-3616.61
0.3193,0.6807	-3614.07
0.2970,0.7030	-3617.50
0.2528,0.7472	-3609.24
0.2909,0.7091	-3607.65
0.3163,0.6837	-3626.86
0.2911,0.7089	-3617.45
0.3025,0.6975	-3621.81
0.2612,0.7388	-3621.10
0.2688,0.7312	-3607.31
0.2998,0.7002	-3611.62
0.2698,0.7302	-3597.33
0.3239,0.6761	-3629.31
0.2738,0.7262	-3615.04
0.2577,0.7423	-3612.02
0.2828,0.7172	-3612.92
0.2969,0.7031	-3620.94
0.2627,0.7373	-3611.65
0.2829,0.7171	-3621.29
0.2760,0.7240	-3608.20
0.2819,0.7181	-3596.09
0.3073,0.6927	-3618.65
0.3056,0.6944	-3614.48
0.2623,0.7377	-3620.98
0.2612,0.7388	-3614.87
0.3272,0.6728	-3620.06
0.3063,0.6937	-3612.88
0.2705,0.7295	-3604.30
0.2972,0.7028	-3622.66
0.2671,0.7329	-3614.41
0.2468,0.7532	-3598.70
0.2872,0.7128	-3604.75
0.2974,0.7026	-3628.68
0.2929,0.7071	-3625.38
0.2796,0.7204	-3612.00
0.2617,0.7383	-3608.60
0.2358,0.7642	-3603.17
0.2935,0.7065	-3612.18
0.2768,0.7232	-3624.53
0.3020,0.6980	-3607.57
0.3218,0.6782	-3625.53
0.3247,0.6753	-3617.62
0.2587,0.7413	-3608.78
0.2706,0.7294	-3619.17
0.3049,0.6951	-3627.62
0.3126,0.6874	-3640.19
0.2640,0.7360	-3606.44
0.2658,0.7342	-3626.69
0.2938,0.7062	-3613.95
0.2913,0.7087	-3606.78
0.3089,0.6911	-3634.02
0.3285,0.6715	-3630.20
0.2629,0.7371	-3610.60
0.2935,0.7065	-3617.45
0.3016,0.6984	-3618.45
0.2949,0.7051	-3611.37
0.3194,0.6806	-3617.87
0.3229,0.6771	-3616.70
0.2995,0.7005	-3621.80
0.3094,0.6906	-3620.35
0.3242,0.6758	-3633.00
0.3039,0.6961	-3621.83
0.2681,0.7319	-3611.34
0.3467,0.6533	-3636.36
0.3021,0.6979	-3636.05
0.2989,0.7011	-3616.68
0.3586,0.6414	-3630.12
0.3099,0.6901	-3636.38
0.2899,0.7101	-3613.87
0.3753,0.6247	-3639.18
0.3184,0.6816	-3623.87
0.2430,0.7570	-3597.83
0.3286,0.6714	-3623.05
0.3343,0.6657	-3628.38
0.3202,0.6798	-3615.67
0.3146,0.6854	-3629.16
0.2897,0.7103	-3620.14
0.2505,0.7495	-3617.12
0.2912,0.7088	-3612.11
0.3809,0.6191	-3643.70
0.2995,0.7005	-3609.91
0.2938,0.7062	-3624.47
0.2808,0.7192	-3605.41
0.2936,0.7064	-3633.26
0.2582,0.7418	-3596.15
0.3925,0.6075	-3644.40
0.3112,0.6888	-3609.30
0.2948,0.7052	-3613.98
0.2676,0.7324	-3601.30
0.2796,0.7204	-3604.43
0.2872,0.7128	-3625.66
0.3768,0.6232	-3643.37
0.3105,0.6895	-3621.19
0.3190,0.6810	-3628.45
0.2635,0.7365	-3604.40
0.2888,0.7112	-3608.45
0.3139,0.6861	-3624.47
0.3244,0.6756	-3635.93
0.2584,0.7416	-3601.42
0.3113,0.6887	-3614.87
0.2980,0.7020	-3617.52
0.2906,0.7094	-3616.56
0.2883,0.7117	-3629.21
0.2741,0.7259	-3599.45
0.2827,0.7173	-3612.92
0.2821,0.7179	-3618.52
0.2953,0.7047	-3604.42
0.2929,0.7071	-3635.96
0.2715,0.7285	-3593.44
0.2593,0.7407	-3593.00
0.2548,0.7452	-3620.87
0.3021,0.6979	-3620.97
0.3043,0.6957	-3625.15
0.2956,0.7044	-3623.55
0.2674,0.7326	-3616.41
0.2468,0.7532	-3605.39
0.2785,0.7215	-3619.63
0.2956,0.7044	-3609.66
0.3092,0.6908	-3623.56
0.3135,0.6865	-3616.62
0.2694,0.7306	-3605.30
0.2755,0.7245	-3607.24
0.2832,0.7168	-3616.63
0.3234,0.6766	-3615.28
0.3075,0.6925	-3617.03
0.3142,0.6858	-3612.77
0.2582,0.7418	-3624.64
0.2677,0.7323	-3610.35
0.2971,0.7029	-3609.75
0.2808,0.7192	-3608.23
0.3246,0.6754	-3641.06
0.3030,0.6970	-3637.65
0.2391,0.7609	-3598.15
0.2778,0.7222	-3615.85
0.2973,0.7027	-3625.24
0.2822,0.7178	-3611.99
0.3116,0.6884	-3632.33
0.3051,0.6949	-3621.85
0.2634,0.7366	-3604.40
0.2737,0.7263	-3617.97
0.3219,0.6781	-3635.22
0.3177,0.6823	-3629.19
0.3225,0.6775	-3626.31
0.3090,0.6910	-3631.60
0.2826,0.7174	-3607.33
0.3068,0.6932	-3621.89
0.3210,0.6790	-3620.25
0.3276,0.6724	-3626.56
0.3386,0.6614	-3626.68
0.3191,0.6809	-3619.35
0.3221,0.6779	-3625.55
0.2881,0.7119	-3615.66
0.3115,0.6885	-3625.20
0.2998,0.7002	-3620.95
0.3067,0.6933	-3616.17
0.3391,0.6609	-3621.39
0.2745,0.7255	-3606.26
0.2889,0.7111	-3616.56
0.3457,0.6543	-3639.50
0.2889,0.7111	-3604.85
0.3011,0.6989	-3629.38
0.3096,0.6904	-3613.14
0.2744,0.7256	-3606.26
0.3008,0.6992	-3620.11
0.2486,0.7514	-3601.91
0.2541,0.7459	-3614.51
0.3110,0.6890	-3614.85
0.3032,0.6968	-3615.17
0.2473,0.7527	-3600.89
0.3051,0.6949	-3616.09
0.2632,0.7368	-3589.99
0.2976,0.7024	-3628.67
0.2797,0.7203	-3618.62
0.3282,0.6718	-3632.33
0.2595,0.7405	-3605.58
0.2976,0.7024	-3615.79
0.2649,0.7351	-3615.59
0.3145,0.6855	-3619.03
0.2868,0.7132	-3623.86
0.2888,0.7112	-3622.87
0.2519,0.7481	-3616.94
0.3098,0.6902	-3634.79
0.2614,0.7386	-3613.81
0.3188,0.6812	-3621.61
0.3088,0.6912	-3609.05
0.2855,0.7145	-3609.25
0.2519,0.7481	-3606.06
0.2898,0.7102	-3615.66
0.2677,0.7323	-3603.31
0.2442,0.7558	-3611.31
0.2884,0.7116	-3621.08
0.2789,0.7211	-3622.46
0.2934,0.7066	-3625.37
0.3477,0.6523	-3641.44
0.3221,0.6779	-3619.59
0.3042,0.6958	-3632.59
0.2908,0.7092	-3615.67
0.3325,0.6675	-3620.61
0.2842,0.7158	-3606.45
0.3243,0.6757	-3629.33
0.3108,0.6892	-3619.61
0.2893,0.7107	-3618.35
0.2709,0.7291	-3597.37
0.3264,0.6736	-3622.15
0.3280,0.6720	-3620.85
0.3006,0.6994	-3620.11
0.3057,0.6943	-3611.20
0.2641,0.7359	-3613.60
0.2930,0.7070	-3608.64
0.3102,0.6898	-3627.58
0.3070,0.6930	-3615.38
0.3041,0.6959	-3622.66
0.2814,0.7186	-3614.80
0.2782,0.7218	-3613.92
0.3096,0.6904	-3621.16
0.2908,0.7092	-3607.64
0.2733,0.7267	-3618.00
0.3502,0.6498	-3630.36
0.3025,0.6975	-3627.66
0.2525,0.7475	-3607.10
0.3021,0.6979	-3616.79
0.3168,0.6832	-3614.57
0.2797,0.7203	-3622.41
0.3378,0.6622	-3632.67
0.3112,0.6888	-3627.58
0.2577,0.7423	-3620.48
0.3074,0.6926	-3615.40
0.2766,0.7234	-3601.47
0.2871,0.7129	-3622.94
0.3604,0.6396	-3634.37
0.2994,0.7006	-3614.15
0.2541,0.7459	-3604.82
0.2985,0.7015	-3628.63
0.2974,0.7026	-3617.50
0.2804,0.7196	-3608.22
0.3333,0.6667	-3629.71
0.3143,0.6857	-3618.24
0.3008,0.6992	-3625.17
0.3147,0.6853	-3626.83
0.2758,0.7242	-3613.99
0.3174,0.6826	-3623.06
0.2785,0.7215	-3614.87
0.2981,0.7019	-3616.66
0.2846,0.7154	-3611.99
0.3321,0.6679	-3627.55
0.2765,0.7235	-3614.93
0.3390,0.6610	-3628.05
0.3029,0.6971	-3618.48
0.3002,0.6998	-3611.64
0.3158,0.6842	-3633.81
0.3287,0.6713	-3628.06
0.2973,0.7027	-3614.92
0.3373,0.6627	-3630.62
0.2941,0.7059	-3613.96
0.3271,0.6729	-3627.26
0.2997,0.7003	-3617.55
0.3144,0.6856	-3620.58
0.2958,0.7042	-3629.62
0.3166,0.6834	-3620.71
0.2695,0.7305	-3605.30
0.3087,0.6913	-3619.51
0.3318,0.6682	-3631.03
0.3006,0.6994	-3612.51
0.2985,0.7015	-3614.11
0.2710,0.7290	-3609.24
0.3411,0.6589	-3619.01
0.2845,0.7155	-3626.75
0.3183,0.6817	-3629.19
0.2918,0.7082	-3627.20
0.2755,0.7245	-3614.97
0.2660,0.7340	-3604.34
0.3111,0.6889	-3614.86
0.3040,0.6960	-3621.00
0.3196,0.6804	-3625.44
0.2762,0.7238	-3599.53
0.3059,0.6941	-3622.69
0.3147,0.6853	-3627.61
0.2987,0.7013	-3616.68
0.2912,0.7088	-3624.57
0.3108,0.6892	-3612.45
0.2836,0.7164	-3612.92
0.3155,0.6845	-3616.00
0.2846,0.7154	-3611.07
0.3030,0.6970	-3633.49
0.3160,0.6840	-3619.13
0.3050,0.6950	-3628.44
0.2995,0.7005	-3610.75
0.3184,0.6816	-3624.63
0.2696,0.7304	-3606.29
0.2858,0.7142	-3614.75
0.3120,0.6880	-3621.25
0.3050,0.6950	-3636.68
0.2745,0.7255	-3598.49
0.3509,0.6491	-3631.66
0.2716,0.7284	-3608.24
0.2405,0.7595	-3616.42
0.3243,0.6757	-3621.26
0.3299,0.6701	-3630.96
0.2584,0.7416	-3625.66
0.3310,0.6690	-3636.63
0.2715,0.7285	-3597.39
0.2935,0.7065	-3615.70
0.3252,0.6748	-3629.36
0.2945,0.7055	-3628.82
0.2634,0.7366	-3596.17
0.3380,0.6620	-3636.04
0.3066,0.6934	-3622.70
0.3134,0.6866	-3628.37
0.3482,0.6518	-3642.70
0.2990,0.7010	-3620.09
0.2601,0.7399	-3613.92
0.3640,0.6360	-3627.49
0.2959,0.7041	-3612.28
0.3069,0.6931	-3617.00
0.3715,0.6285	-3637.73
0.2793,0.7207	-3606.32
0.2635,0.7365	-3590.01
0.3215,0.6785	-3630.75
0.3084,0.6916	-3627.58
0.3135,0.6865	-3622.10
0.3734,0.6266	-3647.26
0.2949,0.7051	-3616.59
0.2827,0.7173	-3619.44
0.3332,0.6668	-3632.48
0.3236,0.6764	-3616.77
0.2684,0.7316	-3607.32
0.3591,0.6409	-3633.08
0.3058,0.6942	-3615.31
0.2938,0.7062	-3618.33
0.3253,0.6747	-3620.61
0.2986,0.7014	-3616.67
0.2674,0.7326	-3608.35
0.3450,0.6550	-3627.31
0.2780,0.7220	-3614.88
0.3134,0.6866	-3613.47
0.3432,0.6568	-3625.83
0.3092,0.6908	-3634.01
0.2927,0.7073	-3614.80
0.3217,0.6783	-3624.78
0.2497,0.7503	-3610.64
0.3115,0.6885	-3618.06
0.3366,0.6634	-3629.90
0.3334,0.6666	-3633.18
0.2961,0.7039	-3614.02
0.3124,0.6876	-3622.85
0.2266,0.7734	-3593.50
0.2946,0.7054	-3624.45
0.3012,0.6988	-3628.54
0.3027,0.6973	-3623.49
0.3423,0.6577	-3619.19
0.2985,0.7015	-3623.51
0.2597,0.7403	-3613.95
0.2740,0.7260	-3617.96
0.2976,0.7024	-3626.10
0.2938,0.7062	-3628.86
0.3226,0.6774	-3630.76
0.3336,0.6664	-3621.42
0.2624,0.7376	-3610.63
0.3160,0.6840	-3626.85
0.2914,0.7086	-3623.67
0.3222,0.6778	-3620.35
0.3091,0.6909	-3623.55
0.3031,0.6969	-3618.49
0.2712,0.7288	-3601.33
0.3156,0.6844	-3625.30
0.2864,0.7136	-3617.49
0.2958,0.7042	-3626.15
0.3048,0.6952	-3628.44
0.2949,0.7051	-3626.18
0.3006,0.6994	-3619.27
0.2685,0.7315	-3614.33
0.2724,0.7276	-3616.09
0.2947,0.7053	-3613.98
0.2748,0.7252	-3606.27
0.3524,0.6476	-3629.37
0.3147,0.6853	-3636.17
0.2679,0.7321	-3608.33
0.2861,0.7139	-3628.47
0.2908,0.7092	-3624.58
0.2605,0.7395	-3606.58
0.3246,0.6754	-3624.94
0.3572,0.6428	-3634.64
0.2841,0.7159	-3617.54
0.3043,0.6957	-3628.45
0.2614,0.7386	-3623.16
0.2438,0.7562	-3614.75
0.2886,0.7114	-3611.15
0.3499,0.6501	-3632.80
0.2853,0.7147	-3612.92
0.2887,0.7113	-3615.66
0.3127,0.6873	-3622.07
0.2821,0.7179	-3617.59
0.3231,0.6769	-3638.17
0.3106,0.6894	-3629.17
0.2672,0.7328	-3605.33
0.2746,0.7254	-3622.78
0.2893,0.7107	-3618.35
0.3076,0.6924	-3623.53
0.3002,0.6998	-3624.34
0.3286,0.6714	-3630.91
0.2900,0.7100	-3609.39
0.2754,0.7246	-3595.63
0.2978,0.7022	-3621.80
0.3090,0.6910	-3617.92
0.3427,0.6573	-3633.59
0.3027,0.6973	-3618.48
0.2858,0.7142	-3615.67
0.2966,0.7034	-3636.49
0.3054,0.6946	-3623.50
0.3067,0.6933	-3613.73
0.2961,0.7039	-3620.08
0.3130,0.6870	-3611.86
0.2749,0.7251	-3601.42
0.3177,0.6823	-3633.77
0.3042,0.6958	-3622.66
0.3266,0.6734	-3630.85
0.3033,0.6967	-3620.16
0.2934,0.7066	-3608.66
0.2413,0.7587	-3628.88
0.2915,0.7085	-3614.78
0.2713,0.7287	-3619.12
0.3041,0.6959	-3621.01
0.3311,0.6689	-3622.56
0.3042,0.6958	-3621.84
0.2600,0.7400	-3600.33
0.2973,0.7027	-3627.82
0.2788,0.7212	-3596.80
0.2532,0.7468	-3603.80
0.3322,0.6678	-3619.18
0.2800,0.7200	-3625.22
0.2517,0.7483	-3594.09
0.3263,0.6737	-3635.19
0.2638,0.7362	-3599.26
0.2625,0.7375	-3597.19
0.2865,0.7135	-3617.49
0.2962,0.7038	-3621.81
0.2545,0.7455	-3610.17
0.2996,0.7004	-3609.91
0.2548,0.7452	-3603.71
0.2413,0.7587	-3597.96
0.2648,0.7352	-3611.51
0.2787,0.7213	-3610.11
0.2413,0.7587	-3603.68
0.2901,0.7099	-3623.72
0.2451,0.7549	-3611.18
0.2556,0.7444	-3602.59
0.2553,0.7447	-3626.16
0.2460,0.7540	-3603.24
0.2831,0.7169	-3625.00
0.3065,0.6935	-3624.33
0.2716,0.7284	-3601.34
0.2551,0.7449	-3605.83
0.2658,0.7342	-3611.46
0.2456,0.7544	-3617.85
0.2982,0.7018	-3619.23
0.2989,0.7011	-3620.09
0.2884,0.7116	-3610.24
0.2936,0.7064	-3621.85
0.2792,0.7208	-3617.70
0.2805,0.7195	-3616.71
0.3196,0.6804	-3623.92
0.2790,0.7210	-3622.45
0.2842,0.7158	-3624.92
0.3014,0.6986	-3626.01
0.2440,0.7560	-3607.94
0.2911,0.7089	-3615.67
0.2694,0.7306	-3609.29
0.2607,0.7393	-3607.61
0.2921,0.7079	-3612.14
0.3195,0.6805	-3629.97
0.2776,0.7224	-3612.99
0.2766,0.7234	-3625.51
0.2917,0.7083	-3622.77
0.2771,0.7229	-3614.91
0.3079,0.6921	-3604.91
0.2906,0.7094	-3612.09
0.2759,0.7241	-3615.92
0.2667,0.7333	-3609.39
0.2726,0.7274	-3619.03
0.2968,0.7032	-3614.04
0.3006,0.6994	-3619.27
0.3130,0.6870	-3635.45
0.3126,0.6874	-3625.22
0.2680,0.7320	-3608.33
0.2697,0.7303	-3608.28
0.2891,0.7109	-3623.76
0.2624,0.7376	-3616.83
0.2995,0.7005	-3617.55
0.3072,0.6928	-3623.52
0.3061,0.6939	-3621.05
0.3043,0.6957	-3620.18
0.2884,0.7116	-3618.37
0.2877,0.7123	-3614.75
0.2897,0.7103	-3613.87
0.3116,0.6884	-3630.75
0.2986,0.7014	-3606.43
0.3151,0.6849	-3612.09
0.3496,0.6504	-3637.75
0.2993,0.7007	-3623.50
0.2747,0.7253	-3605.29
0.2793,0.7207	-3612.95
0.3343,0.6657	-3611.86
0.3238,0.6762	-3620.47
0.3093,0.6907	-3617.94
0.2762,0.7238	-3617.83
0.3012,0.6988	-3610.86
0.2692,0.7308	-3603.30
0.3321,0.6679	-3633.84
0.3200,0.6800	-3621.68
0.2816,0.7184	-3607.31
0.2567,0.7433	-3602.54
0.2795,0.7205	-3614.84
0.3242,0.6758	-3620.51
0.3040,0.6960	-3621.01
0.2953,0.7047	-3620.95
0.2793,0.7207	-3615.80
0.3132,0.6868	-3615.03
0.3059,0.6941	-3616.13
0.2921,0.7079	-3619.22
0.3134,0.6866	-3622.89
0.3075,0.6925	-3625.15
0.2987,0.7013	-3620.94
0.3014,0.6986	-3611.71
0.2803,0.7197	-3610.11
0.2994,0.7006	-3622.65
0.3361,0.6639	-3624.43
0.2727,0.7273	-3621.96
0.3206,0.6794	-3614.96
0.2844,0.7156	-3605.53
0.2762,0.7238	-3615.91
0.3111,0.6889	-3618.04
0.2908,0.7092	-3622.80
0.3058,0.6942	-3630.06
0.3408,0.6592	-3638.10
0.2980,0.7020	-3619.23
0.3143,0.6857	-3633.06
0.3317,0.6683	-3631.73
0.3079,0.6921	-3623.53
0.3364,0.6636	-3623.77
0.3173,0.6827	-3624.58
0.2477,0.7523	-3591.98
0.3019,0.6981	-3610.07
0.2907,0.7093	-3615.67
0.3061,0.6939	-3625.96
0.3098,0.6902	-3625.17
0.3128,0.6872	-3630.73
0.2932,0.7068	-3605.13
0.2516,0.7484	-3606.08
0.3396,0.6604	-3625.44
0.3004,0.6996	-3622.64
0.2687,0.7313	-3601.30
0.3536,0.6464	-3631.92
0.2930,0.7070	-3628.02
0.2444,0.7556	-3606.76
0.3127,0.6873	-3614.20
0.3017,0.6983	-3613.41
0.2948,0.7052	-3623.57
0.3215,0.6785	-3620.29
0.2762,0.7238	-3611.09
0.2760,0.7240	-3612.06
0.2930,0.7070	-3618.33
0.2962,0.7038	-3607.96
0.2687,0.7313	-3623.33
0.3328,0.6672	-3635.94
0.2966,0.7034	-3619.22
0.2698,0.7302	-3610.27
0.2958,0.7042	-3614.87
0.2864,0.7136	-3617.49
0.2622,0.7378	-3612.71
0.3221,0.6779	-3627.03
0.3090,0.6910	-3612.29
0.2683,0.7317	-3605.31
0.2678,0.7322	-3627.45
0.3360,0.6640	-3627.82
0.2754,0.7246	-3616.91
0.3135,0.6865	-3626.02
0.3288,0.6712	-3638.77
0.2730,0.7270	-3619.98
0.2796,0.7204	-3609.16
0.3230,0.6770	-3619.67
0.2636,0.7364	-3587.96
0.2913,0.7087	-3624.56
0.2700,0.7300	-3609.27
0.2786,0.7214	-3614.87
0.2622,0.7378	-3619.95
0.3225,0.6775	-3618.88
0.2840,0.7160	-3612.92
0.2925,0.7075	-3626.28
0.2902,0.7098	-3615.66
0.2731,0.7269	-3617.03
0.2687,0.7313	-3598.30
0.2848,0.7152	-3607.39
0.2745,0.7255	-3599.46
0.3018,0.6982	-3627.68
0.3037,0.6963	-3616.02
0.2636,0.7364	-3606.45
0.2937,0.7063	-3609.56
0.2922,0.7078	-3607.72
0.3153,0.6847	-3616.75
0.3021,0.6979	-3629.35
0.3072,0.6928	-3620.27
0.2809,0.7191	-3616.69
0.3128,0.6872	-3623.65
0.2902,0.7098	-3621.92
0.2960,0.7040	-3607.09
0.2677,0.7323	-3620.41
0.3295,0.6705	-3625.97
0.2898,0.7102	-3617.45
0.2808,0.7192	-3615.75
0.2804,0.7196	-3611.05
0.2888,0.7112	-3616.56
0.2457,0.7543	-3604.38
0.2815,0.7185	-3608.24
0.2577,0.7423	-3615.20
0.2992,0.7008	-3606.48
0.3067,0.6933	-3616.99
0.2956,0.7044	-3616.61
0.2631,0.7369	-3606.47
0.2942,0.7058	-3612.21
0.2899,0.7101	-3612.97
0.2948,0.7052	-3624.44
0.2809,0.7191	-3611.99
0.2872,0.7128	-3611.11
0.2828,0.7172	-3598.96
0.2913,0.7087	-3615.67
0.3350,0.6650	-3636.66
0.2904,0.7096	-3608.52
0.2670,0.7330	-3601.30
0.2895,0.7105	-3614.76
0.2949,0.7051	-3624.44
0.2633,0.7367	-3613.66
0.3072,0.6928	-3623.52
0.2826,0.7174	-3618.51
0.2634,0.7366	-3605.43
0.3049,0.6951	-3628.44
0.2799,0.7201	-3612.00
0.3088,0.6912	-3610.66
0.3200,0.6800	-3613.40
0.2938,0.7062	-3620.96
0.2409,0.7591	-3612.91
0.3062,0.6938	-3607.15
0.2504,0.7496	-3602.89
0.3063,0.6937	-3618.60
0.3076,0.6924	-3624.34
0.2808,0.7192	-3622.34
0.3089,0.6911	-3630.80
0.2685,0.7315	-3607.32
0.2408,0.7592	-3595.70
0.3167,0.6833	-3619.18
0.2854,0.7146	-3613.84
0.3121,0.6879	-3626.00
0.2874,0.7126	-3592.96
0.2983,0.7017	-3619.23
0.2920,0.7080	-3634.28
0.3362,0.6638	-3630.56
0.2660,0.7340	-3597.24
0.3286,0.6714	-3633.77
0.2907,0.7093	-3624.59
0.3045,0.6955	-3624.32
0.3160,0.6840	-3636.12
0.2872,0.7128	-3622.02
0.2699,0.7301	-3620.22
0.3209,0.6791	-3621.74
0.2832,0.7168	-3603.63
0.3077,0.6923	-3614.61
0.2874,0.7126	-3629.28
0.2704,0.7296	-3598.34
0.2616,0.7384	-3598.23
0.3448,0.6552	-3639.48
0.2625,0.7375	-3594.09
0.3740,0.6260	-3647.28
0.2868,0.7132	-3609.29
0.2707,0.7293	-3613.22
0.2528,0.7472	-3611.41
0.3298,0.6702	-3630.95
0.2960,0.7040	-3620.08
0.3389,0.6611	-3634.06
0.2944,0.7056	-3613.09
0.2550,0.7450	-3599.40
0.2547,0.7453	-3613.37
0.3026,0.6974	-3618.48
0.3277,0.6723	-3620.11
0.3310,0.6690	-3635.22
0.2939,0.7061	-3618.33
0.2473,0.7527	-3610.91
0.2467,0.7533	-3600.94
0.3641,0.6359	-3633.64
0.3187,0.6813	-3627.68
0.3074,0.6926	-3610.53
0.3146,0.6854	-3626.05
0.3112,0.6888	-3633.14
0.2815,0.7185	-3608.24
0.3385,0.6615	-3644.76
0.3487,0.6513	-3624.59
0.2900,0.7100	-3613.87
0.3359,0.6641	-3638.04
0.3079,0.6921	-3617.86
0.2942,0.7058	-3611.33
0.2844,0.7156	-3619.38
0.3599,0.6401	-3633.74
0.3066,0.6934	-3621.88
0.3329,0.6671	-3628.30
0.3034,0.6966	-3626.81
0.2773,0.7227	-3612.03
0.3196,0.6804	-3618.64
0.3229,0.6771	-3615.22
0.2956,0.7044	-3608.79
0.3297,0.6703	-3622.44
0.2739,0.7261	-3606.26
0.2367,0.7633	-3593.69
0.2873,0.7127	-3615.66
0.3200,0.6800	-3624.70
0.2447,0.7553	-3601.09
0.2626,0.7374	-3606.49
0.2991,0.7009	-3627.76
0.2787,0.7213	-3597.75
0.3114,0.6886	-3632.34
0.3252,0.6748	-3635.20
0.2704,0.7296	-3612.24
0.2448,0.7552	-3603.33
0.2929,0.7071	-3608.64
0.2810,0.7190	-3617.63
0.2909,0.7091	-3615.67
0.2872,0.7128	-3619.30
0.2517,0.7483	-3608.25
0.2801,0.7199	-3628.99
0.2527,0.7473	-3604.91
0.3027,0.6973	-3631.83
0.2945,0.7055	-3627.07
0.3049,0.6951	-3616.90
0.2221,0.7779	-3591.59
0.2864,0.7136	-3619.32
0.2954,0.7046	-3621.82
0.2870,0.7130	-3630.22
0.2706,0.7294	-3614.22
0.2800,0.7200	-3621.44
0.2494,0.7506	-3612.88
0.2800,0.7200	-3605.39
0.3112,0.6888	-3628.37
0.2706,0.7294	-3598.35
0.3067,0.6933	-3626.78
0.2664,0.7336	-3605.35
0.2667,0.7333	-3613.43
0.2900,0.7100	-3625.51
0.3092,0.6908	-3629.99
0.2490,0.7510	-3604.09
0.3151,0.6849	-3634.60
0.3130,0.6870	-3611.08
0.2897,0.7103	-3612.97
0.3388,0.6612	-3626.70
0.2985,0.7015	-3623.51
0.2884,0.7116	-3617.46
0.2971,0.7029	-3622.66
0.2927,0.7073	-3619.22
0.3052,0.6948	-3613.63
0.2975,0.7025	-3622.66
0.2826,0.7174	-3602.67
0.3157,0.6843	-3625.30
0.2932,0.7068	-3607.77
0.2929,0.7071	-3605.11
0.3220,0.6780	-3619.59
0.3236,0.6764	-3616.04
0.2702,0.7298	-3620.20
0.3096,0.6904	-3620.36
0.2779,0.7221	-3613.93
0.2683,0.7317	-3606.32
0.3423,0.6577	-3633.56
0.2730,0.7270	-3606.26
0.2964,0.7036	-3617.49
0.2808,0.7192	-3610.11
0.3136,0.6864	-3623.67
0.2705,0.7295	-3600.33
0.2817,0.7183	-3617.60
0.2740,0.7260	-3620.88
0.3317,0.6683	-3624.72
0.2977,0.7023	-3635.54
0.3130,0.6870	-3618.94
0.2772,0.7228	-3621.62
0.3044,0.6956	-3625.15
0.2658,0.7342	-3625.68
0.3159,0.6841	-3623.76
0.3168,0.6832	-3621.49
0.3046,0.6954	-3615.24
0.2762,0.7238	-3609.16
0.2988,0.7012	-3607.29
0.2768,0.7232	-3608.20
0.3398,0.6602	-3632.77
0.3005,0.6995	-3620.11
0.2763,0.7237	-3610.13
0.2808,0.7192	-3609.17
0.3221,0.6779	-3623.31
0.2649,0.7351	-3609.46
0.3252,0.6748	-3632.28
0.3262,0.6738	-3630.11
0.2583,0.7417	-3617.24
0.3229,0.6771	-3625.58
0.3017,0.6983	-3617.61
0.2906,0.7094	-3610.31
0.3474,0.6526	-3628.20
0.3154,0.6846	-3622.96
0.2745,0.7255	-3608.21
0.2554,0.7446	-3597.25
0.3182,0.6818	-3634.53
0.2866,0.7134	-3617.49
0.3007,0.6993	-3636.15
0.2884,0.7116	-3612.95
0.2758,0.7242	-3615.93
0.2413,0.7587	-3586.50
0.3299,0.6701	-3633.79
0.2736,0.7264	-3607.24
0.2866,0.7134	-3612.01
0.2694,0.7306	-3614.28
0.2718,0.7282	-3615.14
0.2397,0.7603	-3599.25
0.3179,0.6821	-3629.95
0.2928,0.7072	-3621.86
0.2866,0.7134	-3604.72
0.2910,0.7090	-3619.23
0.2814,0.7186	-3619.49
0.2444,0.7556	-3604.50
0.2904,0.7096	-3619.24
0.2993,0.7007	-3602.23
0.3237,0.6763	-3627.10
0.3237,0.6763	-3628.57
0.2865,0.7135	-3607.45
0.2915,0.7085	-3612.12
0.2835,0.7165	-3604.57
0.3259,0.6741	-3622.84
0.2955,0.7045	-3617.47
0.3133,0.6867	-3619.74
0.2721,0.7279	-3623.00
0.3301,0.6699	-3628.84
0.2798,0.7202	-3616.73
0.3004,0.6996	-3626.87
0.2670,0.7330	-3616.44
0.3264,0.6736	-3619.98
0.3214,0.6786	-3628.50
0.2681,0.7319	-3604.31
0.2901,0.7099	-3614.77
0.2747,0.7253	-3615.98
0.2724,0.7276	-3618.06
0.2701,0.7299	-3603.30
0.2786,0.7214	-3622.48
0.3186,0.6814	-3621.60
0.2505,0.7495	-3596.31
0.2465,0.7535	-3608.77
0.2964,0.7036	-3601.06
0.2983,0.7017	-3614.96
0.2947,0.7053	-3628.81
0.2883,0.7117	-3615.66
0.2473,0.7527	-3613.14
0.2714,0.7286	-3627.01
0.3118,0.6882	-3622.83
0.3089,0.6911	-3625.16
0.3094,0.6906	-3623.56
0.2659,0.7341	-3611.45
0.2626,0.7374	-3601.32
0.2454,0.7546	-3601.03
0.3405,0.6595	-3637.43
0.3260,0.6740	-3635.92
0.3286,0.6714	-3625.20
0.3133,0.6867	-3619.74
0.2730,0.7270	-3606.26
0.2616,0.7384	-3599.27
0.3144,0.6856	-3628.38
0.3238,0.6762	-3624.89
0.2980,0.7020	-3618.37
0.3125,0.6875	-3626.79
0.2689,0.7311	-3608.31
0.2763,0.7237	-3616.87
0.3047,0.6953	-3618.54
0.3521,0.6479	-3637.87
0.2623,0.7377	-3618.91
0.2915,0.7085	-3618.34
0.2373,0.7627	-3595.98
0.2794,0.7206	-3612.00
0.3035,0.6965	-3617.67
0.2934,0.7066	-3620.97
0.2781,0.7219	-3625.37
0.2469,0.7531	-3606.50
0.2390,0.7610	-3598.16
0.3376,0.6624	-3621.20
0.2804,0.7196	-3595.97
0.2625,0.7375	-3602.36
0.3162,0.6838	-3626.09
0.2806,0.7194	-3612.93
0.2768,0.7232	-3613.00
0.3129,0.6871	-3614.21
0.3279,0.6721	-3633.04
0.2714,0.7286	-3610.22
0.2660,0.7340	-3612.46
0.2803,0.7197	-3610.11
0.2878,0.7122	-3617.47
0.3063,0.6937	-3616.15
0.3345,0.6655	-3616.02
0.2485,0.7515	-3628.48
0.3058,0.6942	-3612.84
0.2718,0.7282	-3619.08
0.3065,0.6935	-3625.96
0.3137,0.6863	-3630.72
0.3014,0.6986	-3631.89
0.2348,0.7652	-3585.58
0.3519,0.6481	-3638.47
0.2774,0.7226	-3601.50
0.3024,0.6976	-3620.98
0.3031,0.6969	-3623.49
0.2861,0.7139	-3607.44
0.2527,0.7473	-3601.66
0.3493,0.6507	-3641.47
0.2747,0.7253	-3620.83
0.2722,0.7278	-3604.30
0.3033,0.6967	-3622.66
0.3175,0.6825	-3619.24
0.2726,0.7274	-3601.36
0.2985,0.7015	-3617.53
0.2904,0.7096	-3621.92
0.2876,0.7124	-3606.59
0.2938,0.7062	-3621.84
0.3139,0.6861	-3626.03
0.2608,0.7392	-3610.73
0.2999,0.7001	-3618.41
0.2723,0.7277	-3622.98
0.2745,0.7255	-3603.35
0.2578,0.7422	-3617.30
0.3179,0.6821	-3626.90
