#isoforms=['ENSG00000186575.SE.4.A.up_ENSG00000186575.SE.4.A.SE1_ENSG00000186575.SE.4.A.dn','ENSG00000186575.SE.4.B.up_ENSG00000186575.SE.4.B.dn']	exon_lens=('ENSG00000186575.SE.4.A.up',128),('ENSG00000186575.SE.4.A.SE1',163),('ENSG00000186575.SE.4.A.dn',3847),('ENSG00000186575.SE.4.B.up',128),('ENSG00000186575.SE.4.B.dn',194)	iters=5000	burn_in=500	lag=10	percent_accept=93.49	proposal_type=drift	counts=(0,0):324,(0,1):2,(1,0):1420,(1,1):77	assigned_counts=0:1481,1:18	chrom=chr22	strand=+	mRNA_starts=29678196,29678196	mRNA_ends=29698598,29694945
sampled_psi	log_score
0.7316,0.2684	-12497.95
0.9283,0.0717	-12466.11
0.8321,0.1679	-12479.50
0.7976,0.2024	-12489.66
0.8116,0.1884	-12490.79
0.8401,0.1599	-12482.47
0.7972,0.2028	-12489.68
0.9083,0.0917	-12473.60
0.8334,0.1666	-12489.10
0.8025,0.1975	-12502.15
0.8369,0.1631	-12480.92
0.8401,0.1599	-12477.49
0.8156,0.1844	-12486.29
0.9062,0.0938	-12473.60
0.8243,0.1757	-12492.24
0.8123,0.1877	-12486.39
0.8458,0.1542	-12480.63
0.8322,0.1678	-12492.30
0.8021,0.1979	-12488.14
0.9238,0.0762	-12478.69
0.8098,0.1902	-12483.57
0.7764,0.2236	-12491.66
0.8289,0.1711	-12485.96
0.8383,0.1617	-12498.97
0.8339,0.1661	-12477.80
0.9416,0.0584	-12465.96
0.7752,0.2248	-12494.18
0.7872,0.2128	-12493.92
0.8114,0.1886	-12492.25
0.8675,0.1325	-12480.16
0.7893,0.2107	-12500.49
0.9430,0.0570	-12485.60
0.7733,0.2267	-12497.92
0.8315,0.1685	-12489.10
0.7947,0.2053	-12488.40
0.8918,0.1082	-12473.79
0.7998,0.2002	-12488.22
0.9498,0.0502	-12474.82
0.8187,0.1813	-12498.26
0.8099,0.1901	-12486.47
0.7684,0.2316	-12494.37
0.8811,0.1189	-12484.07
0.7916,0.2084	-12499.19
0.9366,0.0634	-12465.99
0.8403,0.1597	-12492.42
0.8016,0.1984	-12488.16
0.7981,0.2019	-12496.52
0.8846,0.1154	-12478.03
0.7209,0.2791	-12497.50
0.9478,0.0522	-12468.88
0.8712,0.1288	-12485.85
0.8030,0.1970	-12502.17
0.8280,0.1720	-12484.40
0.8961,0.1039	-12478.03
0.8046,0.1954	-12493.73
0.9468,0.0532	-12465.97
0.8822,0.1178	-12482.08
0.8271,0.1729	-12486.00
0.8195,0.1805	-12493.74
0.9226,0.0774	-12481.11
0.7930,0.2070	-12497.86
0.9400,0.0600	-12471.47
0.8769,0.1231	-12485.96
0.8155,0.1845	-12483.32
0.7793,0.2207	-12489.04
0.9093,0.0907	-12466.68
0.8189,0.1811	-12486.19
0.9348,0.0652	-12471.33
0.8675,0.1325	-12487.67
0.8441,0.1559	-12489.12
0.8319,0.1681	-12487.50
0.9005,0.0995	-12478.06
0.7930,0.2070	-12493.83
0.9500,0.0500	-12463.06
0.8405,0.1595	-12490.76
0.8576,0.1424	-12480.33
0.8178,0.1822	-12493.73
0.9161,0.0839	-12471.22
0.8058,0.1942	-12492.30
0.9457,0.0543	-12468.82
0.8364,0.1636	-12485.83
0.8742,0.1258	-12476.22
0.8293,0.1707	-12481.21
0.9286,0.0714	-12466.10
0.7882,0.2118	-12489.96
0.9413,0.0587	-12465.96
0.8396,0.1604	-12492.41
0.8725,0.1275	-12482.03
0.8314,0.1686	-12490.70
0.9216,0.0784	-12476.13
0.7592,0.2408	-12500.43
0.9488,0.0512	-12463.07
0.8285,0.1715	-12492.27
0.8615,0.1385	-12482.08
0.8254,0.1746	-12487.59
0.9201,0.0799	-12466.31
0.7719,0.2281	-12497.93
0.9541,0.0459	-12472.16
0.8492,0.1508	-12490.90
0.8570,0.1430	-12476.76
0.7942,0.2058	-12495.17
0.9227,0.0773	-12466.24
0.7815,0.2185	-12501.68
0.9511,0.0489	-12471.96
0.8631,0.1369	-12485.75
0.8395,0.1605	-12485.79
0.7861,0.2139	-12479.62
0.9122,0.0878	-12468.91
0.7831,0.2169	-12488.86
0.9601,0.0399	-12466.28
0.8532,0.1468	-12487.47
0.7681,0.2319	-12489.59
0.7639,0.2361	-12498.04
0.9048,0.0952	-12480.37
0.7458,0.2542	-12493.08
0.9682,0.0318	-12466.73
0.8897,0.1103	-12475.93
0.7466,0.2534	-12495.20
0.7963,0.2037	-12500.61
0.9120,0.0880	-12482.94
0.7429,0.2571	-12497.49
0.9611,0.0389	-12466.32
0.8637,0.1363	-12483.91
0.7332,0.2668	-12498.89
0.8133,0.1867	-12487.83
0.9184,0.0816	-12485.73
0.7818,0.2182	-12502.96
0.9574,0.0426	-12484.86
0.8379,0.1621	-12489.10
0.7455,0.2545	-12503.85
0.8112,0.1888	-12487.88
0.9237,0.0763	-12476.19
0.8085,0.1915	-12487.95
0.9396,0.0604	-12465.96
0.8375,0.1625	-12485.82
0.8024,0.1976	-12499.34
0.8088,0.1912	-12489.39
0.9278,0.0722	-12471.23
0.8141,0.1859	-12496.67
0.9425,0.0575	-12468.75
0.8318,0.1682	-12492.30
0.8338,0.1662	-12492.32
0.7913,0.2087	-12493.86
0.9305,0.0695	-12479.04
0.7959,0.2041	-12493.80
0.9377,0.0623	-12468.69
0.8265,0.1735	-12500.06
0.8123,0.1877	-12499.57
0.7829,0.2171	-12499.14
0.9228,0.0772	-12478.64
0.8191,0.1809	-12495.25
0.9370,0.0630	-12465.98
0.8107,0.1893	-12486.44
0.7886,0.2114	-12491.27
0.7448,0.2552	-12498.49
0.9279,0.0721	-12471.23
0.8727,0.1273	-12478.18
0.9306,0.0694	-12471.26
0.8373,0.1627	-12484.18
0.8125,0.1875	-12496.65
0.7530,0.2470	-12493.81
0.9366,0.0634	-12484.84
0.8603,0.1397	-12478.45
0.9321,0.0679	-12460.80
0.8417,0.1583	-12489.11
0.7730,0.2270	-12494.24
0.7395,0.2605	-12497.62
0.9137,0.0863	-12478.31
0.8668,0.1332	-12476.42
0.9290,0.0710	-12478.96
0.8148,0.1852	-12501.13
0.7784,0.2216	-12496.62
0.7338,0.2662	-12494.81
0.9174,0.0826	-12485.65
0.8876,0.1124	-12492.48
0.9302,0.0698	-12463.48
0.8324,0.1676	-12482.69
0.7771,0.2229	-12489.14
0.7866,0.2134	-12500.46
0.9061,0.0939	-12478.14
0.8568,0.1432	-12487.50
0.9304,0.0696	-12471.26
0.8071,0.1929	-12490.85
0.7735,0.2265	-12494.23
0.8170,0.1830	-12486.25
0.8864,0.1136	-12478.02
0.8702,0.1298	-12482.03
0.9324,0.0676	-12468.66
0.8008,0.1992	-12495.14
0.7645,0.2355	-12500.39
0.8069,0.1931	-12488.00
0.8827,0.1173	-12484.10
0.8619,0.1381	-12489.40
0.9390,0.0610	-12471.43
0.7839,0.2161	-12495.27
0.7757,0.2243	-12484.25
0.8385,0.1615	-12487.45
0.8636,0.1364	-12483.91
0.8564,0.1436	-12496.42
0.9311,0.0689	-12463.46
0.8124,0.1876	-12490.78
0.8276,0.1724	-12493.83
0.8606,0.1394	-12491.19
0.8724,0.1276	-12499.32
0.8170,0.1830	-12493.73
0.9427,0.0573	-12482.76
0.8350,0.1650	-12485.85
0.8167,0.1833	-12489.24
0.8576,0.1424	-12483.92
0.8564,0.1436	-12476.78
0.8206,0.1794	-12489.19
0.9505,0.0495	-12466.01
0.8544,0.1456	-12475.09
0.7731,0.2269	-12494.24
0.8256,0.1744	-12479.81
0.8329,0.1671	-12485.89
0.8183,0.1817	-12490.72
0.9311,0.0689	-12466.06
0.8270,0.1730	-12498.51
0.7937,0.2063	-12484.39
0.7885,0.2115	-12493.90
0.8476,0.1524	-12489.15
0.8523,0.1477	-12483.95
0.9268,0.0732	-12486.45
0.8416,0.1584	-12475.75
0.8257,0.1743	-12495.36
0.8313,0.1687	-12479.53
0.8382,0.1618	-12480.87
0.8904,0.1096	-12480.11
0.9294,0.0706	-12468.67
0.8548,0.1452	-12478.61
0.8425,0.1575	-12492.47
0.8192,0.1808	-12492.23
0.8459,0.1541	-12482.32
0.8931,0.1069	-12484.38
0.9461,0.0539	-12468.83
0.8663,0.1337	-12478.30
0.8605,0.1395	-12487.55
0.8240,0.1760	-12486.06
0.8676,0.1324	-12485.80
0.9066,0.0934	-12482.69
0.9249,0.0751	-12473.72
0.8736,0.1264	-12483.96
0.8217,0.1783	-12486.12
0.8199,0.1801	-12487.68
0.8853,0.1147	-12486.20
0.9006,0.0994	-12467.04
0.9085,0.0915	-12475.89
0.8687,0.1313	-12480.14
0.8263,0.1737	-12487.57
0.8346,0.1654	-12479.39
0.8835,0.1165	-12473.99
0.9009,0.0991	-12482.48
0.8944,0.1056	-12471.61
0.8953,0.1047	-12478.02
0.8429,0.1571	-12487.43
0.8307,0.1693	-12498.65
0.8627,0.1373	-12493.10
0.8861,0.1139	-12482.13
0.8641,0.1359	-12483.91
0.8936,0.1064	-12473.76
0.8027,0.1973	-12495.14
0.8623,0.1377	-12485.74
0.8308,0.1692	-12479.56
0.8849,0.1151	-12490.27
0.8535,0.1465	-12480.42
0.9032,0.0968	-12473.63
0.8094,0.1906	-12483.59
0.8695,0.1305	-12482.03
0.8486,0.1514	-12487.44
0.8761,0.1239	-12480.08
0.8696,0.1304	-12474.44
0.9047,0.0953	-12471.36
0.7802,0.2198	-12501.66
0.8710,0.1290	-12480.12
0.8542,0.1458	-12480.40
0.8756,0.1244	-12482.03
0.8586,0.1414	-12483.91
0.8752,0.1248	-12480.08
0.7988,0.2012	-12488.25
0.8713,0.1287	-12487.76
0.8654,0.1346	-12489.49
0.8556,0.1444	-12491.04
0.8445,0.1555	-12487.43
0.8968,0.1032	-12478.03
0.8410,0.1590	-12490.77
0.8811,0.1189	-12472.05
0.8601,0.1399	-12474.83
0.8696,0.1304	-12476.34
0.8561,0.1439	-12487.49
0.9118,0.0882	-12480.60
0.8547,0.1453	-12485.71
0.8880,0.1120	-12480.09
0.8824,0.1176	-12482.08
0.8588,0.1412	-12480.30
0.8487,0.1513	-12477.10
0.8903,0.1097	-12478.01
0.8835,0.1165	-12484.12
0.8857,0.1143	-12482.12
0.8901,0.1099	-12473.83
0.8760,0.1240	-12474.22
0.8371,0.1629	-12482.55
0.8796,0.1204	-12480.07
0.8855,0.1145	-12478.03
0.9017,0.0983	-12475.86
0.8983,0.1017	-12475.86
0.8629,0.1371	-12476.55
0.8330,0.1670	-12484.28
0.8441,0.1559	-12484.06
0.8673,0.1327	-12483.92
0.8921,0.1079	-12475.90
0.8773,0.1227	-12489.91
0.8544,0.1456	-12482.17
0.8309,0.1691	-12484.33
0.8526,0.1474	-12476.93
0.8544,0.1456	-12480.40
0.8876,0.1124	-12486.28
0.9003,0.0997	-12475.86
0.8447,0.1553	-12485.74
0.7892,0.2108	-12491.25
0.8534,0.1466	-12480.42
0.8657,0.1343	-12478.32
0.9052,0.0948	-12469.10
0.9136,0.0864	-12480.67
0.8134,0.1866	-12484.88
0.7892,0.2108	-12492.57
0.8892,0.1108	-12471.77
0.8503,0.1497	-12485.71
0.9141,0.0859	-12478.33
0.9229,0.0771	-12476.16
0.8200,0.1800	-12487.68
0.8176,0.1824	-12480.23
0.8880,0.1120	-12475.95
0.8626,0.1374	-12487.58
0.8968,0.1032	-12478.03
0.9235,0.0765	-12478.67
0.8097,0.1903	-12490.82
0.7967,0.2033	-12486.96
0.8859,0.1141	-12488.27
0.8717,0.1283	-12483.94
0.9083,0.0917	-12469.01
0.9396,0.0604	-12468.71
0.7858,0.2142	-12495.25
0.7933,0.2067	-12492.48
0.9123,0.0877	-12478.28
0.8665,0.1335	-12485.78
0.9087,0.0913	-12478.19
0.9232,0.0768	-12471.20
0.8209,0.1791	-12481.57
0.8001,0.1999	-12485.43
0.9135,0.0865	-12483.02
0.8588,0.1412	-12480.30
0.9118,0.0882	-12478.26
0.9039,0.0961	-12475.86
0.8238,0.1762	-12484.53
0.8273,0.1727	-12493.82
0.9142,0.0858	-12464.13
0.8542,0.1458	-12480.40
0.8993,0.1007	-12478.05
0.8969,0.1031	-12478.03
0.8060,0.1940	-12493.72
0.7788,0.2212	-12489.06
0.8973,0.1027	-12482.37
0.8592,0.1408	-12480.29
0.8781,0.1219	-12482.05
0.8997,0.1003	-12469.28
0.8052,0.1948	-12493.72
0.7951,0.2049	-12493.81
0.9170,0.0830	-12466.41
0.8686,0.1314	-12472.59
0.8825,0.1175	-12472.00
0.8995,0.1005	-12475.86
0.7982,0.2018	-12493.77
0.7631,0.2369	-12493.38
0.9366,0.0634	-12476.76
0.8460,0.1540	-12485.73
0.8865,0.1135	-12478.02
0.9031,0.0969	-12478.09
0.7692,0.2308	-12494.35
0.7540,0.2460	-12498.24
0.9521,0.0479	-12460.06
0.8434,0.1566	-12485.75
0.8931,0.1069	-12475.89
0.9121,0.0879	-12475.93
0.8041,0.1959	-12492.32
0.7916,0.2084	-12491.18
0.9340,0.0660	-12473.96
0.8327,0.1673	-12489.10
0.8906,0.1094	-12484.30
0.9010,0.0990	-12478.07
0.8015,0.1985	-12488.16
0.7858,0.2142	-12488.75
0.9306,0.0694	-12458.28
0.8432,0.1568	-12485.75
0.8854,0.1146	-12475.98
0.9161,0.0839	-12478.39
0.8259,0.1741	-12486.02
0.7617,0.2383	-12496.92
0.9132,0.0868	-12478.30
0.8433,0.1567	-12485.75
0.8984,0.1016	-12497.66
0.9056,0.0944	-12478.13
0.8270,0.1730	-12484.43
0.8068,0.1932	-12495.15
0.9213,0.0787	-12471.20
0.8475,0.1525	-12478.86
0.9110,0.0890	-12489.87
0.8844,0.1156	-12488.21
0.8461,0.1539	-12484.03
0.7893,0.2107	-12495.21
0.9275,0.0725	-12473.77
0.8398,0.1602	-12492.41
0.9187,0.0813	-12476.05
0.8837,0.1163	-12476.01
0.8131,0.1869	-12486.36
0.7863,0.2137	-12495.24
0.9123,0.0877	-12473.59
0.8424,0.1576	-12479.05
0.9000,0.1000	-12467.07
0.8942,0.1058	-12484.42
0.8291,0.1709	-12503.33
0.7833,0.2167	-12492.71
0.9038,0.0962	-12473.62
0.8177,0.1823	-12492.23
0.8970,0.1030	-12473.70
0.9171,0.0829	-12480.82
0.7980,0.2020	-12496.52
0.7849,0.2151	-12501.73
0.9109,0.0891	-12485.21
0.8144,0.1856	-12498.15
0.8994,0.1006	-12486.81
0.9004,0.0996	-12478.06
0.8176,0.1824	-12484.73
0.7682,0.2318	-12497.98
0.9128,0.0872	-12475.94
0.8360,0.1640	-12484.21
0.8981,0.1019	-12475.86
0.9021,0.0979	-12471.42
0.8033,0.1967	-12497.95
0.7979,0.2021	-12491.03
0.9277,0.0723	-12476.33
0.8455,0.1545	-12480.63
0.8898,0.1102	-12478.01
0.8981,0.1019	-12488.92
0.7854,0.2146	-12490.06
0.8217,0.1783	-12481.54
0.9100,0.0900	-12471.28
0.8382,0.1618	-12489.10
0.8978,0.1022	-12482.38
0.9165,0.0835	-12468.82
0.7811,0.2189	-12497.86
0.8095,0.1905	-12489.37
0.8886,0.1114	-12471.79
0.8257,0.1743	-12489.14
0.8894,0.1106	-12471.76
0.8943,0.1057	-12484.42
0.7753,0.2247	-12494.18
0.8210,0.1790	-12484.61
0.8909,0.1091	-12486.41
0.8612,0.1388	-12483.91
0.8461,0.1539	-12489.14
0.9113,0.0887	-12471.26
0.7942,0.2058	-12484.36
0.7952,0.2048	-12489.73
0.8790,0.1210	-12480.07
0.8886,0.1114	-12490.47
0.8770,0.1230	-12480.08
0.8621,0.1379	-12480.24
0.8141,0.1859	-12490.76
0.7958,0.2042	-12489.72
0.8979,0.1021	-12478.04
0.8808,0.1192	-12474.07
0.8535,0.1465	-12485.71
0.8629,0.1371	-12489.42
0.8166,0.1834	-12489.24
0.8087,0.1913	-12482.18
0.9031,0.0969	-12478.09
0.8951,0.1049	-12478.02
0.7915,0.2085	-12495.19
0.8563,0.1437	-12483.92
0.7604,0.2396	-12495.80
0.8032,0.1968	-12490.92
0.8918,0.1082	-12478.01
0.9079,0.0921	-12473.60
0.7933,0.2067	-12507.28
0.8514,0.1486	-12489.20
0.7825,0.2175	-12494.01
0.7778,0.2222	-12491.61
0.8650,0.1350	-12478.33
0.9197,0.0803	-12473.64
0.7752,0.2248	-12485.52
0.8469,0.1531	-12484.01
0.7874,0.2126	-12500.47
0.7782,0.2218	-12495.37
0.8619,0.1381	-12489.40
0.9344,0.0656	-12484.60
0.7800,0.2200	-12489.01
0.8338,0.1662	-12489.10
0.8147,0.1853	-12483.35
0.7937,0.2063	-12483.04
0.8752,0.1248	-12480.08
0.9492,0.0508	-12471.85
0.8279,0.1721	-12496.98
0.8303,0.1697	-12487.52
0.8362,0.1638	-12489.09
0.7756,0.2244	-12494.17
0.8582,0.1418	-12491.12
0.9557,0.0443	-12478.41
0.7976,0.2024	-12485.55
0.8271,0.1729	-12492.26
0.8461,0.1539	-12489.14
0.7808,0.2192	-12490.24
0.8348,0.1652	-12498.81
0.9515,0.0485	-12471.98
0.7674,0.2326	-12501.57
0.8266,0.1734	-12486.01
0.8178,0.1822	-12496.73
0.7809,0.2191	-12491.51
0.8460,0.1540	-12482.32
0.9463,0.0537	-12468.84
0.7653,0.2347	-12506.29
0.7796,0.2204	-12494.08
0.8492,0.1508	-12477.07
0.7952,0.2048	-12489.73
0.8639,0.1361	-12474.66
0.9344,0.0656	-12466.01
0.8039,0.1961	-12493.73
0.8258,0.1742	-12487.58
0.8513,0.1487	-12487.45
0.8385,0.1615	-12485.80
0.8603,0.1397	-12469.36
0.9401,0.0599	-12465.96
0.8066,0.1934	-12486.58
0.8226,0.1774	-12475.36
0.8582,0.1418	-12489.32
0.8370,0.1630	-12485.82
0.8484,0.1516	-12487.44
0.9346,0.0654	-12473.99
0.8146,0.1854	-12487.80
0.8085,0.1915	-12482.19
0.8712,0.1288	-12478.20
0.8126,0.1874	-12480.51
0.8322,0.1678	-12487.50
0.9317,0.0683	-12473.89
0.8200,0.1800	-12486.17
0.8412,0.1588	-12487.44
0.8678,0.1322	-12474.51
0.8328,0.1672	-12493.91
0.8594,0.1406	-12482.10
0.9157,0.0843	-12475.99
0.8239,0.1761	-12489.15
0.8482,0.1518	-12478.83
0.8598,0.1402	-12482.10
0.8735,0.1265	-12474.30
0.8559,0.1441	-12485.71
0.9325,0.0675	-12458.16
0.8287,0.1713	-12484.39
0.8544,0.1456	-12487.48
0.8396,0.1604	-12487.44
0.8436,0.1564	-12482.38
0.8690,0.1310	-12500.95
0.9265,0.0735	-12466.15
0.8619,0.1381	-12483.91
0.8522,0.1478	-12483.95
0.8311,0.1689	-12484.32
0.8090,0.1910	-12480.72
0.8969,0.1031	-12482.36
0.9388,0.0612	-12463.24
0.8857,0.1143	-12471.89
0.8384,0.1616	-12494.04
0.8759,0.1241	-12485.94
0.8389,0.1611	-12497.35
0.8905,0.1095	-12478.01
0.9428,0.0572	-12474.36
0.8417,0.1583	-12487.44
0.8430,0.1570	-12484.07
0.9007,0.0993	-12484.68
0.8462,0.1538	-12485.73
0.8800,0.1200	-12494.01
0.9342,0.0658	-12466.01
0.8509,0.1491	-12496.16
0.8488,0.1512	-12492.62
0.9001,0.0999	-12491.25
0.8314,0.1686	-12489.10
0.8750,0.1250	-12482.03
0.9243,0.0757	-12476.21
0.8824,0.1176	-12478.05
0.8577,0.1423	-12487.51
0.8969,0.1031	-12480.19
0.8429,0.1571	-12494.16
0.8673,0.1327	-12472.65
0.9272,0.0728	-12473.77
0.8745,0.1255	-12472.32
0.8679,0.1321	-12482.04
0.9170,0.0830	-12476.01
0.8619,0.1381	-12487.57
0.8631,0.1369	-12478.38
0.9397,0.0603	-12479.70
0.8660,0.1340	-12489.51
0.8766,0.1234	-12472.23
0.9250,0.0750	-12483.77
0.8152,0.1848	-12487.78
0.8697,0.1303	-12472.54
0.9528,0.0472	-12469.06
0.8507,0.1493	-12485.71
0.8537,0.1463	-12491.00
0.9064,0.0936	-12480.41
0.8015,0.1985	-12479.78
0.8650,0.1350	-12482.05
0.9496,0.0504	-12466.00
0.8711,0.1289	-12480.12
0.8741,0.1259	-12493.65
0.8992,0.1008	-12482.42
0.8134,0.1866	-12489.30
0.8626,0.1374	-12478.39
0.9480,0.0520	-12463.08
0.8543,0.1457	-12489.24
0.8603,0.1397	-12473.00
0.8938,0.1062	-12480.15
0.8180,0.1820	-12490.73
0.8773,0.1227	-12487.94
0.9568,0.0432	-12469.26
0.8567,0.1433	-12483.92
0.8612,0.1388	-12487.56
0.9065,0.0935	-12478.15
0.8208,0.1792	-12477.01
0.8676,0.1324	-12491.43
0.9604,0.0396	-12459.91
0.8713,0.1287	-12483.94
0.8643,0.1357	-12493.16
0.9125,0.0875	-12473.59
0.8213,0.1787	-12502.91
0.8911,0.1089	-12478.01
0.9491,0.0509	-12477.69
0.8747,0.1253	-12482.03
0.8699,0.1301	-12483.93
0.8957,0.1043	-12473.72
0.8257,0.1743	-12493.80
0.9021,0.0979	-12482.52
0.9403,0.0597	-12471.48
0.8882,0.1118	-12475.94
0.8654,0.1346	-12476.47
0.8926,0.1074	-12471.66
0.8124,0.1876	-12490.78
0.9348,0.0652	-12473.99
0.9365,0.0635	-12474.06
0.8592,0.1408	-12485.72
0.8636,0.1364	-12480.22
0.8924,0.1076	-12478.01
0.8297,0.1703	-12479.61
0.9385,0.0615	-12471.42
0.9417,0.0583	-12471.52
0.8691,0.1309	-12474.46
0.8458,0.1542	-12487.43
0.8716,0.1284	-12476.28
0.8220,0.1780	-12495.29
0.9413,0.0587	-12471.51
0.9544,0.0456	-12472.17
0.8778,0.1222	-12482.04
0.8421,0.1579	-12490.78
0.8888,0.1112	-12486.33
0.8394,0.1606	-12489.10
0.9318,0.0682	-12463.43
0.9561,0.0439	-12459.98
0.8815,0.1185	-12478.06
0.8405,0.1595	-12490.77
0.9035,0.0965	-12471.39
0.8336,0.1664	-12479.43
0.9366,0.0634	-12471.37
0.9560,0.0440	-12466.13
0.8683,0.1317	-12485.81
0.8311,0.1689	-12485.92
0.9255,0.0745	-12486.32
0.8297,0.1703	-12492.28
0.9390,0.0610	-12471.44
0.9528,0.0472	-12475.07
0.8857,0.1143	-12480.07
0.8274,0.1726	-12487.56
0.9313,0.0687	-12463.45
0.7973,0.2027	-12482.82
0.9375,0.0625	-12465.98
0.9463,0.0537	-12463.10
0.8739,0.1261	-12485.90
0.8285,0.1715	-12481.24
0.9226,0.0774	-12476.16
0.8040,0.1960	-12495.14
0.9434,0.0566	-12465.96
0.9437,0.0563	-12471.60
0.8654,0.1346	-12485.77
0.8224,0.1776	-12502.96
0.9088,0.0912	-12475.89
0.7937,0.2063	-12495.17
0.9457,0.0543	-12465.97
0.9406,0.0594	-12471.48
0.8702,0.1298	-12478.22
0.8155,0.1845	-12487.78
0.8860,0.1140	-12486.23
0.8171,0.1829	-12493.73
0.9458,0.0542	-12480.27
0.9298,0.0702	-12471.25
0.8800,0.1200	-12482.06
0.8145,0.1855	-12490.76
0.8896,0.1104	-12475.93
0.8092,0.1908	-12485.04
0.9407,0.0593	-12479.78
0.9322,0.0678	-12471.28
0.8325,0.1675	-12489.10
0.8059,0.1941	-12488.03
0.8938,0.1062	-12475.89
0.8033,0.1967	-12492.33
0.9329,0.0671	-12460.77
0.9503,0.0497	-12471.91
0.8269,0.1731	-12490.69
0.8118,0.1882	-12486.40
0.8720,0.1280	-12493.54
0.8200,0.1800	-12495.26
0.9347,0.0653	-12463.35
0.9547,0.0453	-12469.15
0.8385,0.1615	-12485.80
0.8239,0.1761	-12487.61
0.8756,0.1244	-12476.18
0.8253,0.1747	-12490.69
0.9322,0.0678	-12481.77
0.9535,0.0465	-12460.03
0.8774,0.1226	-12485.98
0.8307,0.1693	-12479.56
0.8529,0.1471	-12487.46
0.8567,0.1433	-12478.56
0.9442,0.0558	-12474.44
0.9575,0.0425	-12459.95
0.8632,0.1368	-12476.54
0.8440,0.1560	-12480.68
0.8579,0.1421	-12476.72
0.8792,0.1208	-12484.04
0.9385,0.0615	-12479.59
0.9526,0.0474	-12475.05
0.8860,0.1140	-12482.13
0.8593,0.1407	-12489.34
0.8481,0.1519	-12492.60
0.8554,0.1446	-12483.93
0.9415,0.0585	-12474.30
0.9525,0.0475	-12466.05
0.8641,0.1359	-12485.76
0.8345,0.1655	-12482.62
0.8364,0.1636	-12490.73
0.8427,0.1573	-12485.76
0.9296,0.0704	-12468.67
0.9431,0.0569	-12471.57
0.8993,0.1007	-12478.05
0.8558,0.1442	-12491.05
0.8443,0.1557	-12485.74
0.8347,0.1653	-12477.76
0.9169,0.0831	-12473.61
0.9569,0.0431	-12481.66
0.8736,0.1264	-12489.76
0.8800,0.1200	-12488.04
0.8424,0.1576	-12487.44
0.8242,0.1758	-12479.88
0.8917,0.1083	-12475.90
0.9563,0.0437	-12472.32
0.8756,0.1244	-12482.03
0.9062,0.0938	-12478.14
0.8029,0.1971	-12486.71
0.8360,0.1640	-12484.21
0.8845,0.1155	-12482.11
0.9519,0.0481	-12480.97
0.8788,0.1212	-12470.16
0.9037,0.0963	-12469.14
0.8256,0.1744	-12489.14
0.8322,0.1678	-12489.10
0.8858,0.1142	-12484.17
0.9537,0.0463	-12466.07
0.8652,0.1348	-12483.91
0.8963,0.1037	-12486.65
0.8194,0.1806	-12484.67
0.8109,0.1891	-12490.80
0.8740,0.1260	-12483.97
0.9552,0.0448	-12456.93
0.8619,0.1381	-12482.07
0.8933,0.1067	-12482.26
0.8386,0.1614	-12482.51
0.7962,0.2038	-12500.61
0.8332,0.1668	-12484.27
0.9460,0.0540	-12471.69
0.9078,0.0922	-12478.17
0.8890,0.1110	-12469.69
0.8714,0.1286	-12480.11
0.7772,0.2228	-12496.63
0.8343,0.1657	-12492.33
0.9577,0.0423	-12466.19
0.8990,0.1010	-12475.86
0.8884,0.1116	-12465.57
0.8762,0.1238	-12472.25
0.7912,0.2088	-12496.52
0.8330,0.1670	-12489.10
0.9460,0.0540	-12465.97
0.9015,0.0985	-12475.86
0.8783,0.1217	-12489.95
0.9057,0.0943	-12473.61
0.8157,0.1843	-12493.72
0.8614,0.1386	-12487.56
0.9323,0.0677	-12466.04
0.9042,0.0958	-12473.62
0.8600,0.1400	-12483.91
0.9104,0.0896	-12480.54
0.7849,0.2151	-12490.08
0.8617,0.1383	-12496.71
0.9175,0.0825	-12473.62
0.9098,0.0902	-12480.52
0.8340,0.1660	-12482.64
0.9247,0.0753	-12476.22
0.7794,0.2206	-12497.87
0.8419,0.1581	-12477.40
0.8852,0.1148	-12471.90
0.9170,0.0830	-12464.00
0.8623,0.1377	-12472.90
0.9194,0.0806	-12471.20
0.8010,0.1990	-12485.39
0.8313,0.1687	-12476.34
0.8796,0.1204	-12482.06
0.9103,0.0897	-12466.64
0.8365,0.1635	-12479.30
0.9201,0.0799	-12463.87
0.7361,0.2639	-12502.88
0.8417,0.1583	-12489.11
0.8904,0.1096	-12467.54
0.9100,0.0900	-12489.78
0.8565,0.1435	-12483.92
0.9105,0.0895	-12478.23
0.7729,0.2271	-12495.47
0.8761,0.1239	-12478.12
0.9070,0.0930	-12473.60
0.9188,0.0812	-12473.63
0.8744,0.1256	-12470.39
0.9357,0.0643	-12474.03
0.8118,0.1882	-12502.48
0.8528,0.1472	-12483.95
0.8954,0.1046	-12478.02
0.9157,0.0843	-12471.22
0.8492,0.1508	-12483.99
0.9276,0.0724	-12471.23
0.8433,0.1567	-12487.43
0.8788,0.1212	-12474.13
0.9064,0.0936	-12482.68
0.9096,0.0904	-12471.28
0.8363,0.1637	-12482.57
0.9147,0.0853	-12466.48
0.8871,0.1129	-12480.08
0.9023,0.0977	-12473.64
0.8897,0.1103	-12484.28
0.9023,0.0977	-12482.53
0.8094,0.1906	-12487.93
0.9201,0.0799	-12478.53
0.8799,0.1201	-12474.09
0.8933,0.1067	-12478.01
0.8821,0.1179	-12474.03
0.8990,0.1010	-12469.30
0.8131,0.1869	-12495.18
0.9216,0.0784	-12476.13
0.8584,0.1416	-12483.91
0.9159,0.0841	-12478.38
0.8864,0.1136	-12473.92
0.9086,0.0914	-12473.59
0.8014,0.1986	-12488.17
0.9311,0.0689	-12471.27
0.8599,0.1401	-12480.28
0.9109,0.0891	-12482.89
0.9005,0.0995	-12473.65
0.9038,0.0962	-12482.58
0.7877,0.2123	-12487.36
0.9287,0.0713	-12460.97
0.8646,0.1354	-12476.49
0.9115,0.0885	-12485.25
0.8807,0.1193	-12472.07
0.8748,0.1252	-12476.20
0.7704,0.2296	-12500.37
0.9179,0.0821	-12476.03
0.8952,0.1048	-12473.73
0.9167,0.0833	-12476.01
0.8717,0.1283	-12482.03
0.8701,0.1299	-12485.83
0.7503,0.2497	-12501.64
0.9194,0.0806	-12473.63
0.9169,0.0831	-12480.81
0.9288,0.0712	-12476.37
0.8855,0.1145	-12488.26
0.8666,0.1334	-12476.43
0.7027,0.2973	-12499.48
0.9233,0.0767	-12483.64
0.9057,0.0943	-12475.87
0.9346,0.0654	-12468.67
0.8800,0.1200	-12480.07
0.8673,0.1327	-12468.90
0.6791,0.3209	-12503.39
0.9067,0.0933	-12475.88
0.9074,0.0926	-12469.03
0.9434,0.0566	-12465.96
0.8940,0.1060	-12482.28
0.8484,0.1516	-12484.00
0.7285,0.2715	-12501.05
0.9065,0.0935	-12473.60
0.9079,0.0921	-12482.75
0.9300,0.0700	-12481.60
0.8831,0.1169	-12482.09
0.8344,0.1656	-12489.10
0.7836,0.2164	-12497.85
0.9148,0.0852	-12466.48
0.8929,0.1071	-12473.77
0.9267,0.0733	-12471.22
0.8729,0.1271	-12483.95
0.8257,0.1743	-12487.58
0.7833,0.2167	-12486.28
0.9273,0.0727	-12468.68
0.8798,0.1202	-12482.06
0.9343,0.0657	-12471.32
0.8518,0.1482	-12487.46
0.8430,0.1570	-12482.39
0.7937,0.2063	-12487.08
0.9343,0.0657	-12481.94
0.8836,0.1164	-12476.01
0.9363,0.0637	-12471.36
0.8291,0.1709	-12487.53
0.8545,0.1455	-12487.48
0.8118,0.1882	-12490.79
0.9274,0.0726	-12463.58
0.8725,0.1275	-12472.41
0.9279,0.0721	-12471.23
0.8464,0.1536	-12485.73
0.8302,0.1698	-12479.59
0.8222,0.1778	-12495.30
0.9410,0.0590	-12477.04
0.8753,0.1247	-12482.03
0.9277,0.0723	-12463.57
0.8155,0.1845	-12496.69
0.8280,0.1720	-12482.83
0.8505,0.1495	-12477.02
0.9353,0.0647	-12468.67
0.8766,0.1234	-12482.04
0.9281,0.0719	-12466.11
0.8229,0.1771	-12490.70
0.8514,0.1486	-12476.98
0.8342,0.1658	-12489.10
0.9303,0.0697	-12473.85
0.8786,0.1214	-12484.03
0.9363,0.0637	-12468.68
0.8153,0.1847	-12499.66
0.8812,0.1188	-12486.08
0.8753,0.1247	-12480.08
0.9174,0.0826	-12466.39
0.8656,0.1344	-12482.05
0.9191,0.0809	-12476.06
0.8385,0.1615	-12490.74
0.8853,0.1147	-12486.20
0.8852,0.1148	-12480.07
0.9269,0.0731	-12468.68
0.8789,0.1211	-12484.03
0.9139,0.0861	-12473.60
0.8437,0.1563	-12489.12
0.8687,0.1313	-12478.25
0.8782,0.1218	-12484.02
0.9299,0.0701	-12471.25
0.8718,0.1282	-12480.11
0.9074,0.0926	-12464.47
0.8712,0.1288	-12482.03
0.8281,0.1719	-12476.54
0.8666,0.1334	-12470.81
0.8980,0.1020	-12464.99
0.8910,0.1090	-12480.11
0.9055,0.0945	-12480.39
0.8520,0.1480	-12483.96
0.8055,0.1945	-12492.30
0.8443,0.1557	-12485.74
0.8796,0.1204	-12474.10
0.8728,0.1272	-12476.25
0.9122,0.0878	-12482.95
0.8800,0.1200	-12482.06
0.8109,0.1891	-12479.15
0.8543,0.1457	-12496.32
0.8850,0.1150	-12482.11
0.8745,0.1255	-12480.09
0.9026,0.0974	-12480.31
0.8648,0.1352	-12480.20
0.8207,0.1793	-12487.67
0.8398,0.1602	-12485.79
0.8888,0.1112	-12482.17
0.8630,0.1370	-12476.54
0.8933,0.1067	-12473.76
0.8385,0.1615	-12480.86
0.7889,0.2111	-12495.21
0.8442,0.1558	-12490.81
0.9147,0.0853	-12478.34
0.8358,0.1642	-12484.21
0.9157,0.0843	-12471.22
0.8283,0.1717	-12489.12
0.7869,0.2131	-12490.01
0.8266,0.1734	-12490.69
0.8935,0.1065	-12473.76
0.8178,0.1822	-12492.23
0.9261,0.0739	-12476.27
0.8736,0.1264	-12476.23
0.7771,0.2229	-12487.89
0.8459,0.1541	-12484.03
0.8936,0.1064	-12482.27
0.8319,0.1681	-12484.30
0.9217,0.0783	-12471.20
0.8745,0.1255	-12482.03
0.8158,0.1842	-12495.21
0.8208,0.1792	-12490.71
0.9048,0.0952	-12482.62
0.7893,0.2107	-12483.32
0.9208,0.0792	-12476.11
0.8773,0.1227	-12478.11
0.8259,0.1741	-12481.35
0.8039,0.1961	-12482.44
0.8936,0.1064	-12473.76
0.7920,0.2080	-12493.85
0.9203,0.0797	-12471.20
0.8761,0.1239	-12478.12
0.8329,0.1671	-12481.07
0.8084,0.1916	-12492.27
0.8761,0.1239	-12468.34
0.8023,0.1977	-12479.73
0.9427,0.0573	-12471.56
0.8809,0.1191	-12480.07
0.8378,0.1622	-12485.81
0.8488,0.1512	-12490.89
0.8509,0.1491	-12478.74
0.7843,0.2157	-12488.81
0.9433,0.0567	-12468.77
0.8626,0.1374	-12487.58
0.8455,0.1545	-12482.34
0.8129,0.1871	-12492.24
0.8414,0.1586	-12482.43
0.7977,0.2023	-12493.78
0.9404,0.0596	-12465.96
0.8617,0.1383	-12474.76
0.8262,0.1738	-12492.25
0.8479,0.1521	-12489.16
0.8689,0.1311	-12483.92
0.8173,0.1827	-12502.72
0.9346,0.0654	-12481.97
0.8632,0.1368	-12482.06
0.8371,0.1629	-12492.37
0.8611,0.1389	-12478.43
0.8825,0.1175	-12484.10
0.8066,0.1934	-12492.29
0.9309,0.0691	-12463.46
0.8181,0.1819	-12493.73
0.8623,0.1377	-12491.24
0.8182,0.1818	-12484.71
0.8975,0.1025	-12493.22
0.7912,0.2088	-12484.53
0.9376,0.0624	-12468.69
0.8525,0.1475	-12496.23
0.8575,0.1425	-12480.33
0.8234,0.1766	-12490.70
0.9021,0.0979	-12466.97
0.7922,0.2078	-12499.20
0.9301,0.0699	-12473.84
0.8520,0.1480	-12483.96
0.8597,0.1403	-12485.72
0.8289,0.1711	-12482.80
0.9107,0.0893	-12480.56
0.7682,0.2318	-12499.17
0.9302,0.0698	-12471.25
0.8684,0.1316	-12485.81
0.8488,0.1512	-12482.27
0.8064,0.1936	-12490.86
0.9148,0.0852	-12468.85
0.7676,0.2324	-12501.57
0.9352,0.0648	-12479.35
0.8469,0.1531	-12485.72
0.8465,0.1535	-12485.73
0.8055,0.1945	-12492.30
0.9062,0.0938	-12487.22
0.7966,0.2034	-12489.69
0.9362,0.0638	-12457.93
0.8465,0.1535	-12480.60
0.8535,0.1465	-12485.71
0.7927,0.2073	-12492.50
0.9090,0.0910	-12480.50
0.8173,0.1827	-12486.24
0.9404,0.0596	-12463.20
0.8384,0.1616	-12489.10
0.8461,0.1539	-12485.73
0.8264,0.1736	-12493.81
0.9277,0.0723	-12466.12
0.8500,0.1500	-12485.71
0.9407,0.0593	-12460.43
0.8476,0.1524	-12484.01
0.8558,0.1442	-12480.36
0.7824,0.2176	-12492.74
0.9049,0.0951	-12473.61
0.8578,0.1422	-12478.52
0.9422,0.0578	-12474.33
0.8365,0.1635	-12489.09
0.8500,0.1500	-12480.51
0.7633,0.2367	-12498.05
0.9039,0.0961	-12484.83
0.8472,0.1528	-12497.71
0.9514,0.0486	-12466.03
0.8405,0.1595	-12487.44
0.8273,0.1727	-12489.13
0.7780,0.2220	-12485.34
0.9095,0.0905	-12482.82
0.8817,0.1183	-12482.07
0.9586,0.0414	-12466.22
0.8396,0.1604	-12489.10
0.8173,0.1827	-12490.73
0.7673,0.2327	-12492.02
0.9041,0.0959	-12475.86
0.8939,0.1061	-12478.02
0.9547,0.0453	-12469.15
0.8631,0.1369	-12476.54
0.8177,0.1823	-12484.73
0.7810,0.2190	-12499.13
0.8984,0.1016	-12482.40
0.8799,0.1201	-12490.02
0.9542,0.0458	-12475.19
0.8712,0.1288	-12480.12
0.8340,0.1660	-12490.71
0.7822,0.2178	-12491.46
0.9153,0.0847	-12468.84
0.8785,0.1215	-12476.11
0.9464,0.0536	-12471.71
0.9023,0.0977	-12473.63
0.8559,0.1441	-12482.14
0.7877,0.2123	-12491.29
0.9143,0.0857	-12480.70
0.8866,0.1134	-12488.30
0.9406,0.0594	-12463.20
0.9129,0.0871	-12473.59
0.8355,0.1645	-12490.72
0.7956,0.2044	-12497.88
0.9236,0.0764	-12478.68
0.8962,0.1038	-12478.03
0.9395,0.0605	-12474.19
0.8929,0.1071	-12467.41
0.8440,0.1560	-12489.12
0.7859,0.2141	-12487.44
0.9192,0.0808	-12463.90
0.8835,0.1165	-12473.99
0.9397,0.0603	-12468.71
0.8743,0.1257	-12476.21
0.8776,0.1224	-12470.22
0.8111,0.1889	-12486.43
0.9256,0.0744	-12461.12
0.8733,0.1267	-12485.89
0.9407,0.0593	-12474.25
0.8600,0.1400	-12482.09
0.8504,0.1496	-12480.50
0.7951,0.2049	-12492.45
0.9112,0.0888	-12482.90
0.8497,0.1503	-12477.05
0.9475,0.0525	-12463.09
0.8743,0.1257	-12480.09
0.8541,0.1459	-12469.80
0.7966,0.2034	-12486.96
0.9193,0.0807	-12471.20
0.8166,0.1834	-12487.75
0.9268,0.0732	-12468.68
0.8341,0.1659	-12489.10
0.8600,0.1400	-12474.83
0.7934,0.2066	-12500.55
0.9232,0.0768	-12466.23
0.8572,0.1428	-12480.34
0.9209,0.0791	-12478.56
0.8458,0.1542	-12489.14
0.8240,0.1760	-12482.98
0.7963,0.2037	-12488.34
0.9244,0.0756	-12471.20
0.8606,0.1394	-12485.73
0.9086,0.0914	-12475.89
0.8467,0.1533	-12480.60
0.7991,0.2009	-12497.91
0.7753,0.2247	-12492.94
0.9162,0.0838	-12468.82
0.8593,0.1407	-12474.86
0.9096,0.0904	-12478.21
0.8231,0.1769	-12492.24
0.7989,0.2011	-12502.04
0.7972,0.2028	-12489.68
0.8919,0.1081	-12482.23
0.8471,0.1529	-12485.72
0.8880,0.1120	-12482.16
0.8196,0.1804	-12483.15
0.8154,0.1846	-12495.21
0.7958,0.2042	-12496.52
0.8800,0.1200	-12482.06
0.8438,0.1562	-12485.75
0.8481,0.1519	-12482.28
0.8313,0.1687	-12492.29
0.8382,0.1618	-12484.16
0.8293,0.1707	-12489.11
0.8711,0.1289	-12482.03
0.8386,0.1614	-12490.74
0.8274,0.1726	-12495.39
0.8351,0.1649	-12498.83
0.8533,0.1467	-12483.94
0.8061,0.1939	-12495.14
0.8601,0.1399	-12480.28
0.8199,0.1801	-12480.10
0.8403,0.1597	-12485.78
0.8581,0.1419	-12485.71
0.8839,0.1161	-12471.95
0.7796,0.2204	-12491.55
0.8186,0.1814	-12498.26
0.8524,0.1476	-12483.95
0.8541,0.1459	-12487.47
0.8634,0.1366	-12482.06
0.8877,0.1123	-12471.82
0.7791,0.2209	-12499.13
0.7749,0.2251	-12497.90
0.8394,0.1606	-12475.87
0.8523,0.1477	-12478.69
0.8341,0.1659	-12489.10
0.8895,0.1105	-12482.18
0.7498,0.2502	-12495.06
0.7581,0.2419	-12491.30
0.8619,0.1381	-12482.07
0.8726,0.1274	-12476.26
0.8577,0.1423	-12476.73
0.9144,0.0856	-12485.44
0.7501,0.2499	-12500.54
0.7572,0.2428	-12495.90
0.8635,0.1365	-12483.91
0.8803,0.1197	-12478.07
0.8842,0.1158	-12484.13
0.9075,0.0925	-12475.88
0.7611,0.2389	-12493.46
0.7443,0.2557	-12497.44
0.8513,0.1487	-12489.20
0.8850,0.1150	-12471.91
0.8934,0.1066	-12484.39
0.9113,0.0887	-12492.23
0.8139,0.1861	-12487.81
0.7228,0.2772	-12493.56
0.8490,0.1510	-12477.08
0.8807,0.1193	-12478.07
0.8931,0.1069	-12486.51
0.9038,0.0962	-12484.82
0.7940,0.2060	-12497.87
0.7613,0.2387	-12492.29
0.8564,0.1436	-12480.35
0.8997,0.1003	-12484.63
0.9172,0.0828	-12473.61
0.9037,0.0963	-12475.86
0.7956,0.2044	-12496.52
0.7550,0.2450	-12499.35
0.8382,0.1618	-12492.39
0.9142,0.0858	-12478.33
0.9202,0.0798	-12485.87
0.9082,0.0918	-12469.01
0.8012,0.1988	-12499.32
0.7787,0.2213	-12502.90
0.8716,0.1284	-12480.11
0.8912,0.1088	-12478.01
0.9124,0.0876	-12480.62
0.8949,0.1051	-12482.30
0.7950,0.2050	-12503.29
0.8187,0.1813	-12484.69
0.8737,0.1263	-12480.09
0.9013,0.0987	-12478.07
0.9006,0.0994	-12478.06
0.8961,0.1039	-12482.34
0.8006,0.1994	-12492.36
0.7887,0.2113	-12484.68
0.8743,0.1257	-12493.67
0.8980,0.1020	-12469.34
0.9150,0.0850	-12471.22
0.8901,0.1099	-12478.01
0.7914,0.2086	-12488.52
0.8101,0.1899	-12490.81
0.8729,0.1271	-12480.10
0.9155,0.0845	-12480.75
0.9122,0.0878	-12478.27
0.8946,0.1054	-12475.88
0.8135,0.1865	-12487.82
0.8412,0.1588	-12489.11
0.8806,0.1194	-12482.06
0.9289,0.0711	-12471.24
0.9102,0.0898	-12480.54
0.8828,0.1172	-12476.03
0.8651,0.1349	-12483.91
0.8346,0.1654	-12489.09
0.8663,0.1337	-12489.52
0.9303,0.0697	-12466.07
0.8897,0.1103	-12484.28
0.9061,0.0939	-12471.34
0.8668,0.1332	-12480.17
0.8379,0.1621	-12487.45
0.8633,0.1367	-12485.75
0.9216,0.0784	-12478.59
0.8871,0.1129	-12484.20
0.9058,0.0942	-12480.40
0.8664,0.1336	-12483.91
0.8299,0.1701	-12487.52
0.8748,0.1252	-12482.03
0.9258,0.0742	-12473.74
0.8860,0.1140	-12480.08
0.8833,0.1167	-12476.02
0.8331,0.1669	-12490.71
0.8368,0.1632	-12484.19
0.8332,0.1668	-12482.66
0.9305,0.0695	-12473.85
0.8893,0.1107	-12467.60
0.8697,0.1303	-12483.93
0.8004,0.1996	-12492.36
0.8184,0.1816	-12489.22
0.8437,0.1563	-12492.49
0.9436,0.0564	-12471.59
0.8903,0.1097	-12475.92
0.8863,0.1137	-12486.24
0.8031,0.1969	-12489.52
0.8311,0.1689	-12489.10
0.8172,0.1828	-12483.25
0.9590,0.0410	-12466.24
0.8884,0.1116	-12473.87
0.8798,0.1202	-12480.07
0.8138,0.1862	-12487.81
0.8466,0.1534	-12480.60
0.8544,0.1456	-12489.24
0.9548,0.0452	-12463.05
0.8921,0.1079	-12482.24
0.9001,0.0999	-12482.45
0.7695,0.2305	-12494.34
0.8785,0.1215	-12484.03
0.8705,0.1295	-12482.03
0.9450,0.0550	-12468.80
0.8775,0.1225	-12472.20
0.9052,0.0948	-12473.61
0.7681,0.2319	-12496.78
0.8737,0.1263	-12474.29
0.8494,0.1506	-12483.98
0.9538,0.0462	-12460.02
0.8789,0.1211	-12482.05
0.9242,0.0758	-12476.20
0.7912,0.2088	-12489.86
0.8583,0.1417	-12483.91
0.8609,0.1391	-12483.91
0.9527,0.0473	-12475.06
0.8817,0.1183	-12484.08
0.9141,0.0859	-12473.60
0.8152,0.1848	-12489.27
0.8711,0.1289	-12482.03
0.8585,0.1415	-12476.70
0.9522,0.0478	-12463.05
0.8833,0.1167	-12486.14
0.9247,0.0753	-12466.19
0.7997,0.2003	-12495.14
0.8689,0.1311	-12485.82
0.8844,0.1156	-12476.00
0.9494,0.0506	-12468.93
0.8773,0.1227	-12478.11
0.9126,0.0874	-12466.55
0.8390,0.1610	-12487.45
0.8852,0.1148	-12484.16
0.8906,0.1094	-12478.01
0.9480,0.0520	-12463.08
0.8710,0.1290	-12482.03
0.9077,0.0923	-12480.46
0.8779,0.1221	-12482.04
0.8965,0.1035	-12493.14
0.8926,0.1074	-12469.54
0.9472,0.0528	-12465.98
0.8584,0.1416	-12487.52
0.9102,0.0898	-12466.64
0.8810,0.1190	-12486.07
0.8965,0.1035	-12467.23
0.8894,0.1106	-12482.18
0.9606,0.0394	-12466.30
0.8510,0.1490	-12478.74
0.8758,0.1242	-12487.89
0.8919,0.1081	-12478.01
0.9016,0.0984	-12478.07
0.8844,0.1156	-12482.10
0.9621,0.0379	-12469.60
0.8352,0.1648	-12484.23
0.8804,0.1196	-12478.07
0.8951,0.1049	-12478.02
0.8921,0.1079	-12469.56
0.8587,0.1413	-12483.91
0.9580,0.0420	-12456.82
0.8208,0.1792	-12496.80
0.8996,0.1004	-12473.67
0.8813,0.1187	-12482.07
0.8995,0.1005	-12482.43
0.8532,0.1468	-12483.95
0.9620,0.0380	-12476.05
0.8220,0.1780	-12479.99
0.8691,0.1309	-12485.82
0.8356,0.1644	-12489.09
0.9225,0.0775	-12481.10
0.8362,0.1638	-12493.98
0.9615,0.0385	-12463.12
0.8230,0.1770	-12490.70
0.8610,0.1390	-12487.55
0.7917,0.2083	-12497.86
0.9255,0.0745	-12471.21
0.8360,0.1640	-12484.21
0.9529,0.0471	-12469.06
0.8627,0.1373	-12483.91
0.8675,0.1325	-12491.43
0.8259,0.1741	-12481.35
0.9402,0.0598	-12476.98
0.8485,0.1515	-12487.44
0.9486,0.0514	-12463.07
0.8658,0.1342	-12476.45
0.8416,0.1584	-12477.42
0.8392,0.1608	-12474.23
0.9441,0.0559	-12480.09
0.8337,0.1663	-12479.42
0.9501,0.0499	-12466.01
0.8577,0.1423	-12489.31
0.8492,0.1508	-12477.07
0.8390,0.1610	-12482.50
0.9440,0.0560	-12468.78
0.8530,0.1470	-12490.98
0.9543,0.0457	-12472.17
0.8552,0.1448	-12482.15
0.8379,0.1621	-12485.81
0.8934,0.1066	-12471.64
0.9385,0.0615	-12476.87
0.8504,0.1496	-12480.50
0.9468,0.0532	-12465.97
0.8515,0.1485	-12490.95
0.8750,0.1250	-12476.19
0.9073,0.0927	-12478.16
0.9442,0.0558	-12465.96
0.8703,0.1297	-12478.22
0.9580,0.0420	-12475.58
0.8533,0.1467	-12492.75
0.8748,0.1252	-12478.14
0.9127,0.0873	-12490.03
0.9452,0.0548	-12477.35
0.8867,0.1133	-12482.14
0.9631,0.0369	-12472.95
0.8758,0.1242	-12478.13
0.8879,0.1121	-12490.43
0.8925,0.1075	-12478.01
0.9266,0.0734	-12473.75
0.8790,0.1210	-12478.09
0.9735,0.0265	-12467.22
0.8924,0.1076	-12471.67
0.8548,0.1452	-12483.93
0.9003,0.0997	-12475.86
0.9142,0.0858	-12483.06
0.8891,0.1109	-12473.85
0.9702,0.0298	-12459.93
0.8998,0.1002	-12473.66
0.8240,0.1760	-12482.98
0.9048,0.0952	-12484.87
0.9059,0.0941	-12478.14
0.8926,0.1074	-12478.01
0.9635,0.0365	-12466.44
0.9031,0.0969	-12493.71
0.8394,0.1606	-12484.14
0.9129,0.0871	-12480.64
0.8985,0.1015	-12473.68
0.9165,0.0835	-12473.61
0.9619,0.0381	-12459.90
0.9078,0.0922	-12469.02
0.8017,0.1983	-12490.95
0.9285,0.0715	-12466.11
0.8819,0.1181	-12488.11
0.9017,0.0983	-12486.94
0.9686,0.0314	-12456.48
0.9082,0.0918	-12475.89
0.8384,0.1616	-12485.80
0.9351,0.0649	-12471.34
0.8882,0.1118	-12482.16
0.8784,0.1216	-12476.12
0.9641,0.0359	-12463.18
0.9130,0.0870	-12473.59
0.8441,0.1559	-12477.30
0.9305,0.0695	-12466.07
0.9008,0.0992	-12478.06
0.9096,0.0904	-12475.90
0.9669,0.0331	-12459.90
0.9218,0.0782	-12468.73
0.8326,0.1674	-12485.89
0.9356,0.0644	-12476.70
0.9063,0.0937	-12480.41
0.9122,0.0878	-12466.57
0.9652,0.0348	-12459.89
0.9229,0.0771	-12471.20
0.8412,0.1588	-12477.44
0.9470,0.0530	-12465.97
0.9170,0.0830	-12468.81
0.9298,0.0702	-12471.25
0.9642,0.0358	-12463.18
0.9087,0.0913	-12471.30
0.8453,0.1547	-12494.23
0.9429,0.0571	-12477.17
0.9009,0.0991	-12478.06
0.9502,0.0498	-12468.96
0.9629,0.0371	-12479.43
0.9092,0.0908	-12473.59
0.8388,0.1612	-12487.45
0.9441,0.0559	-12468.78
0.8833,0.1167	-12476.02
0.9461,0.0539	-12465.97
0.9641,0.0359	-12473.05
0.9023,0.0977	-12475.86
0.8445,0.1555	-12487.43
0.9321,0.0679	-12473.90
0.8973,0.1027	-12480.20
0.9435,0.0565	-12471.59
0.9658,0.0342	-12473.26
0.9089,0.0911	-12471.29
0.8360,0.1640	-12476.07
0.9379,0.0621	-12465.97
0.9064,0.0936	-12482.69
0.9470,0.0530	-12477.51
0.9575,0.0425	-12469.30
0.9131,0.0869	-12468.89
0.8379,0.1621	-12487.45
0.9353,0.0647	-12474.01
0.9136,0.0864	-12480.67
0.9415,0.0585	-12474.29
0.9530,0.0470	-12487.13
0.9109,0.0891	-12478.24
0.8356,0.1644	-12489.09
0.9331,0.0669	-12468.66
0.9104,0.0896	-12473.59
0.9389,0.0611	-12476.90
0.9588,0.0412	-12469.38
0.9120,0.0880	-12468.91
0.8318,0.1682	-12489.10
0.9376,0.0624	-12468.69
0.9169,0.0831	-12483.21
0.9220,0.0780	-12471.20
0.9619,0.0381	-12485.73
0.9129,0.0871	-12473.59
0.8163,0.1837	-12486.27
0.9363,0.0637	-12471.36
0.9327,0.0673	-12463.41
0.9252,0.0748	-12476.24
0.9653,0.0347	-12459.89
0.8926,0.1074	-12480.13
0.7757,0.2243	-12494.17
0.9413,0.0587	-12474.29
0.9227,0.0773	-12473.68
0.9228,0.0772	-12488.57
0.9663,0.0337	-12466.61
0.8934,0.1066	-12482.27
0.7769,0.2231	-12492.89
0.9383,0.0617	-12468.69
0.9258,0.0742	-12491.40
0.9202,0.0798	-12468.75
0.9765,0.0235	-12471.31
0.9135,0.0865	-12487.74
0.7983,0.2017	-12493.77
0.9250,0.0750	-12473.72
0.9229,0.0771	-12476.16
0.9228,0.0772	-12473.68
0.9733,0.0267	-12463.60
0.9052,0.0948	-12473.61
0.8218,0.1782	-12489.18
0.9344,0.0656	-12476.63
0.9125,0.0875	-12478.28
0.9307,0.0693	-12473.86
0.9716,0.0284	-12467.03
0.9056,0.0944	-12471.35
0.8197,0.1803	-12484.66
0.8918,0.1082	-12475.90
0.9183,0.0817	-12476.04
0.9239,0.0761	-12478.69
0.9733,0.0267	-12460.00
0.8964,0.1036	-12480.19
0.7956,0.2044	-12495.16
0.8742,0.1258	-12476.21
0.9211,0.0789	-12468.74
0.9231,0.0769	-12458.78
0.9776,0.0224	-12467.73
0.8926,0.1074	-12475.90
0.8108,0.1892	-12493.71
0.8719,0.1281	-12483.94
0.9209,0.0791	-12466.29
0.9115,0.0885	-12475.92
0.9784,0.0216	-12464.02
0.8730,0.1270	-12483.96
0.7992,0.2008	-12499.29
0.8776,0.1224	-12484.01
0.9123,0.0877	-12468.91
0.9191,0.0809	-12476.06
0.9736,0.0264	-12456.40
0.8744,0.1256	-12489.79
0.7882,0.2118	-12486.02
0.8807,0.1193	-12482.06
0.9172,0.0828	-12473.61
0.9304,0.0696	-12471.26
0.9705,0.0295	-12459.94
0.8583,0.1417	-12482.11
0.8107,0.1893	-12487.89
0.8680,0.1320	-12470.73
0.9079,0.0921	-12485.04
0.9302,0.0698	-12466.07
0.9689,0.0311	-12463.35
0.8597,0.1403	-12482.10
0.7895,0.2105	-12492.56
0.8658,0.1342	-12482.05
0.9168,0.0832	-12471.21
0.9333,0.0667	-12476.58
0.9709,0.0291	-12473.98
0.8744,0.1256	-12480.09
0.7742,0.2258	-12496.67
0.8910,0.1090	-12494.82
0.9033,0.0967	-12471.39
0.9108,0.0892	-12478.24
0.9691,0.0309	-12466.81
0.8842,0.1158	-12482.10
0.7875,0.2125	-12488.68
0.9064,0.0936	-12478.15
0.9000,0.1000	-12469.27
0.9184,0.0816	-12476.04
0.9692,0.0308	-12456.47
0.8701,0.1299	-12480.13
0.7957,0.2043	-12492.44
0.9023,0.0977	-12475.86
0.9035,0.0965	-12473.62
0.9240,0.0760	-12478.70
0.9686,0.0314	-12459.91
0.8840,0.1160	-12480.07
0.8043,0.1957	-12486.66
0.8923,0.1077	-12482.24
0.9032,0.0968	-12473.63
0.9317,0.0683	-12471.27
0.9658,0.0342	-12463.23
0.8960,0.1040	-12475.87
0.8107,0.1893	-12489.35
0.8715,0.1285	-12487.77
0.8949,0.1051	-12475.88
0.9336,0.0664	-12471.31
0.9561,0.0439	-12463.06
0.8886,0.1114	-12473.86
0.7770,0.2230	-12492.89
0.8690,0.1310	-12482.03
0.9220,0.0780	-12471.20
0.9474,0.0526	-12468.87
0.9586,0.0414	-12475.64
0.8738,0.1262	-12476.22
0.8155,0.1845	-12490.75
0.8729,0.1271	-12495.51
0.9176,0.0824	-12483.26
0.9589,0.0411	-12466.23
0.9585,0.0415	-12469.36
0.8506,0.1494	-12475.27
0.8122,0.1878	-12496.64
0.8436,0.1564	-12484.06
0.9246,0.0754	-12473.71
0.9531,0.0469	-12463.05
0.9606,0.0394	-12469.49
0.8520,0.1480	-12485.71
0.8184,0.1816	-12489.22
0.8094,0.1906	-12492.27
0.9205,0.0795	-12478.55
0.9380,0.0620	-12468.69
0.9651,0.0349	-12456.57
0.8615,0.1385	-12487.56
0.8465,0.1535	-12482.31
0.8150,0.1850	-12492.24
0.9089,0.0911	-12485.10
0.9211,0.0789	-12473.66
0.9647,0.0353	-12463.20
0.8751,0.1249	-12478.14
0.8383,0.1617	-12487.45
0.8386,0.1614	-12480.86
0.9202,0.0798	-12483.43
0.9227,0.0773	-12476.16
0.9609,0.0391	-12469.51
0.8822,0.1178	-12476.04
0.8392,0.1608	-12482.49
0.8522,0.1478	-12480.45
0.9278,0.0722	-12468.67
0.9235,0.0765	-12476.18
0.9606,0.0394	-12463.11
0.8748,0.1252	-12474.25
0.8437,0.1563	-12495.87
0.8516,0.1484	-12482.21
0.9318,0.0682	-12481.73
0.9337,0.0663	-12479.24
0.9534,0.0466	-12460.03
0.8629,0.1371	-12480.23
0.8310,0.1690	-12487.51
0.8543,0.1457	-12485.71
0.9308,0.0692	-12481.66
0.9321,0.0679	-12473.90
0.9656,0.0344	-12456.56
0.8503,0.1497	-12485.71
0.8544,0.1456	-12482.17
0.8301,0.1699	-12487.52
0.9099,0.0901	-12468.97
0.9486,0.0514	-12474.74
0.9593,0.0407	-12466.25
0.8733,0.1267	-12482.03
0.8467,0.1533	-12487.44
0.8157,0.1843	-12486.28
0.9004,0.0996	-12475.86
0.9411,0.0589	-12463.19
0.9557,0.0443	-12466.13
0.8521,0.1479	-12485.71
0.8772,0.1228	-12485.97
0.8007,0.1993	-12497.92
0.8991,0.1009	-12475.86
0.9454,0.0546	-12468.82
0.9626,0.0374	-12469.64
0.8504,0.1496	-12490.92
0.8779,0.1221	-12485.99
0.7666,0.2334	-12499.19
0.8986,0.1014	-12475.86
0.9245,0.0755	-12476.22
0.9637,0.0363	-12466.45
0.8833,0.1167	-12482.09
0.8780,0.1220	-12474.15
0.7424,0.2576	-12500.68
0.9061,0.0939	-12484.94
0.9243,0.0757	-12471.20
0.9631,0.0369	-12463.16
0.8614,0.1386	-12496.69
0.8783,0.1217	-12472.16
0.7605,0.2395	-12494.64
0.9002,0.0998	-12464.86
0.9286,0.0714	-12481.50
0.9568,0.0432	-12463.06
0.8590,0.1410	-12487.53
0.8546,0.1454	-12487.48
0.7869,0.2131	-12493.93
0.9151,0.0849	-12483.11
0.9083,0.0917	-12478.18
0.9548,0.0452	-12475.26
0.8842,0.1158	-12482.10
0.8704,0.1296	-12478.22
0.7761,0.2239	-12492.92
0.9231,0.0769	-12471.20
0.9222,0.0778	-12481.09
0.9414,0.0586	-12463.18
0.8577,0.1423	-12485.71
0.8654,0.1346	-12472.74
0.7701,0.2299	-12497.95
0.9206,0.0794	-12478.55
0.9235,0.0765	-12483.66
0.9434,0.0566	-12485.65
0.8514,0.1486	-12485.71
0.8557,0.1443	-12492.83
0.7414,0.2586	-12500.70
0.9412,0.0588	-12468.73
0.9232,0.0768	-12473.69
0.9453,0.0547	-12474.51
0.8685,0.1315	-12487.70
0.8420,0.1580	-12489.11
0.7208,0.2792	-12495.61
0.9410,0.0590	-12468.73
0.9207,0.0793	-12478.56
0.9303,0.0697	-12468.66
0.8665,0.1335	-12482.04
0.8496,0.1504	-12490.91
0.7529,0.2471	-12497.16
0.9307,0.0693	-12466.06
0.9070,0.0930	-12478.16
0.9136,0.0864	-12468.88
0.8795,0.1205	-12480.07
0.8139,0.1861	-12492.24
0.7277,0.2723	-12498.12
0.9098,0.0902	-12473.59
0.8978,0.1022	-12473.69
0.9258,0.0742	-12478.78
0.8652,0.1348	-12482.05
0.8167,0.1833	-12493.73
0.7341,0.2659	-12495.81
0.9030,0.0970	-12475.86
0.9103,0.0897	-12468.96
0.9344,0.0656	-12476.63
0.8796,0.1204	-12478.08
0.8047,0.1953	-12488.06
0.7380,0.2620	-12502.85
0.9244,0.0756	-12471.20
0.9155,0.0845	-12480.75
0.9336,0.0664	-12463.38
0.8789,0.1211	-12472.14
0.8121,0.1879	-12492.25
0.6995,0.3005	-12503.91
0.9273,0.0727	-12478.86
0.9272,0.0728	-12473.77
0.9012,0.0988	-12478.07
0.8804,0.1196	-12476.07
0.8324,0.1676	-12493.91
0.6985,0.3015	-12508.16
0.9097,0.0903	-12475.90
0.9387,0.0613	-12474.16
0.8872,0.1128	-12471.83
0.8818,0.1182	-12474.04
0.8478,0.1522	-12485.72
0.7036,0.2964	-12502.02
0.9158,0.0842	-12471.22
0.9352,0.0648	-12474.01
0.8671,0.1329	-12478.29
0.8835,0.1165	-12471.96
0.8142,0.1858	-12489.28
0.6903,0.3097	-12503.52
0.9106,0.0894	-12485.20
0.9159,0.0841	-12471.22
0.8816,0.1184	-12478.06
0.8743,0.1257	-12485.91
0.8250,0.1750	-12490.69
0.6701,0.3299	-12505.41
0.9199,0.0801	-12473.64
0.9130,0.0870	-12478.29
0.8867,0.1133	-12478.02
0.8739,0.1261	-12478.16
0.8119,0.1881	-12492.25
0.6650,0.3350	-12505.05
0.9232,0.0768	-12468.71
0.9233,0.0767	-12468.71
0.8787,0.1213	-12476.11
0.8715,0.1285	-12476.29
0.8463,0.1537	-12475.50
0.7329,0.2671	-12499.91
0.9226,0.0774	-12473.68
0.9192,0.0808	-12478.50
0.8835,0.1165	-12480.07
0.8934,0.1066	-12469.51
0.8136,0.1864	-12490.77
0.7343,0.2657	-12496.81
0.9037,0.0963	-12473.62
0.9192,0.0808	-12471.20
0.8693,0.1307	-12480.14
0.8927,0.1073	-12480.13
0.8186,0.1814	-12483.19
0.6829,0.3171	-12507.76
0.8865,0.1135	-12475.97
0.9060,0.0940	-12473.61
0.8764,0.1236	-12476.16
0.8786,0.1214	-12493.92
0.8190,0.1810	-12484.68
0.6995,0.3005	-12499.69
0.8714,0.1286	-12491.59
0.9049,0.0951	-12471.36
0.8527,0.1473	-12490.97
0.8688,0.1312	-12485.81
0.7797,0.2203	-12490.28
0.7073,0.2927	-12502.73
0.8749,0.1251	-12478.14
0.9125,0.0875	-12475.94
0.8454,0.1546	-12480.64
0.8986,0.1014	-12484.59
0.7981,0.2019	-12496.52
0.7384,0.2616	-12503.89
0.9010,0.0990	-12475.86
0.9189,0.0811	-12473.63
0.8756,0.1244	-12489.84
0.8892,0.1108	-12484.26
0.8250,0.1750	-12487.59
0.7085,0.2915	-12498.24
0.8834,0.1166	-12490.19
0.8922,0.1078	-12473.79
0.8676,0.1324	-12482.04
0.8497,0.1503	-12487.44
0.8470,0.1530	-12482.30
0.7176,0.2824	-12505.15
0.8722,0.1278	-12474.34
0.9053,0.0947	-12473.61
0.8542,0.1458	-12475.10
0.8173,0.1827	-12489.23
0.8573,0.1427	-12494.67
0.6943,0.3057	-12506.59
0.8426,0.1574	-12479.05
0.9143,0.0857	-12475.96
0.8384,0.1616	-12480.87
0.7960,0.2040	-12491.07
0.8559,0.1441	-12489.27
0.7081,0.2919	-12500.93
0.8636,0.1364	-12491.29
0.9161,0.0839	-12473.61
0.8530,0.1470	-12476.91
0.8396,0.1604	-12490.76
0.8656,0.1344	-12474.60
0.7103,0.2897	-12502.62
0.8424,0.1576	-12484.08
0.9232,0.0768	-12461.25
0.8876,0.1124	-12480.08
0.8470,0.1530	-12484.01
0.8724,0.1276	-12478.18
0.7381,0.2619	-12507.00
0.8475,0.1525	-12494.30
0.9155,0.0845	-12471.22
0.8844,0.1156	-12488.21
0.8809,0.1191	-12482.07
0.8871,0.1129	-12484.20
0.7620,0.2380	-12494.59
0.8600,0.1400	-12482.09
0.9051,0.0949	-12475.87
0.9083,0.0917	-12469.01
0.8625,0.1375	-12469.22
0.9068,0.0932	-12469.05
0.7480,0.2520	-12496.22
0.8509,0.1491	-12478.74
0.9126,0.0874	-12480.63
0.8980,0.1020	-12473.69
0.8611,0.1389	-12478.43
0.9108,0.0892	-12482.88
0.7256,0.2744	-12497.25
0.8330,0.1670	-12481.06
0.9183,0.0817	-12468.79
0.9104,0.0896	-12473.59
0.8585,0.1415	-12482.11
0.9005,0.0995	-12469.25
0.7562,0.2438	-12499.32
0.8532,0.1468	-12487.47
0.8956,0.1044	-12471.57
0.9092,0.0908	-12468.99
0.8585,0.1415	-12478.51
0.9117,0.0883	-12466.59
0.7986,0.2014	-12493.77
0.8661,0.1339	-12476.44
0.8668,0.1332	-12470.80
0.9096,0.0904	-12482.83
0.8482,0.1518	-12480.56
0.9225,0.0775	-12478.63
0.8062,0.1938	-12496.57
0.8666,0.1334	-12483.91
0.8523,0.1477	-12485.71
0.9098,0.0902	-12485.15
0.8401,0.1599	-12484.13
0.9114,0.0886	-12473.59
0.8133,0.1867	-12483.41
0.8837,0.1163	-12482.10
0.8334,0.1666	-12489.10
0.8947,0.1053	-12482.30
0.8337,0.1663	-12479.42
0.9087,0.0913	-12471.30
0.8069,0.1931	-12483.71
0.8872,0.1128	-12482.14
0.8659,0.1341	-12480.18
0.9039,0.0961	-12478.10
0.8132,0.1868	-12487.83
0.9115,0.0885	-12478.26
0.7860,0.2140	-12499.15
0.8726,0.1274	-12478.18
0.8730,0.1270	-12482.03
0.8640,0.1360	-12476.51
0.8007,0.1993	-12493.75
0.9054,0.0946	-12478.13
0.7756,0.2244	-12494.17
0.8889,0.1111	-12478.01
0.8551,0.1449	-12485.71
0.8819,0.1181	-12480.07
0.7889,0.2111	-12496.53
0.8975,0.1025	-12482.37
0.7641,0.2359	-12490.99
0.8743,0.1257	-12483.97
0.8555,0.1445	-12482.15
0.8791,0.1209	-12482.05
0.7703,0.2297	-12489.48
0.9011,0.0989	-12480.28
0.7819,0.2181	-12487.64
0.8834,0.1166	-12490.19
0.8446,0.1554	-12489.13
0.8662,0.1338	-12472.70
0.8070,0.1930	-12489.42
0.9120,0.0880	-12478.27
0.7830,0.2170	-12495.29
0.8720,0.1280	-12478.19
0.8508,0.1492	-12487.45
0.8623,0.1377	-12487.58
0.7804,0.2196	-12491.52
0.9059,0.0941	-12471.34
0.7719,0.2281	-12485.74
0.8583,0.1417	-12478.51
0.8475,0.1525	-12473.72
0.8693,0.1307	-12495.29
0.8205,0.1795	-12489.19
0.9220,0.0780	-12476.14
0.7427,0.2573	-12494.32
0.8532,0.1468	-12487.47
0.8727,0.1273	-12483.95
0.8652,0.1348	-12489.49
0.8223,0.1777	-12496.83
0.9267,0.0733	-12471.22
0.7178,0.2822	-12499.55
0.8742,0.1258	-12474.28
0.9005,0.0995	-12486.87
0.8608,0.1392	-12482.08
0.8113,0.1887	-12489.34
0.9254,0.0746	-12478.76
0.7061,0.2939	-12500.15
0.8696,0.1304	-12478.24
0.8725,0.1275	-12480.10
0.8682,0.1318	-12485.80
0.7870,0.2130	-12484.78
0.9197,0.0803	-12473.64
0.7014,0.2986	-12504.69
0.8750,0.1250	-12478.14
0.8715,0.1285	-12483.94
0.8393,0.1607	-12490.75
0.8259,0.1741	-12482.91
0.8913,0.1087	-12478.01
0.7512,0.2488	-12495.00
0.9046,0.0954	-12478.11
0.8889,0.1111	-12473.86
0.8011,0.1989	-12495.14
0.8484,0.1516	-12490.88
0.8971,0.1029	-12475.87
0.7651,0.2349	-12495.66
0.9225,0.0775	-12463.77
0.8999,0.1001	-12473.66
0.8538,0.1462	-12494.53
0.8589,0.1411	-12482.11
0.8820,0.1180	-12480.07
0.6965,0.3035	-12501.55
0.9094,0.0906	-12468.98
0.9032,0.0968	-12475.86
0.8748,0.1252	-12480.09
0.8607,0.1393	-12482.09
0.8833,0.1167	-12478.04
0.6953,0.3047	-12498.31
0.8990,0.1010	-12488.98
0.9170,0.0830	-12473.61
0.8276,0.1724	-12492.26
0.8642,0.1358	-12485.76
0.8910,0.1090	-12475.91
0.6867,0.3133	-12501.36
0.8886,0.1114	-12475.94
0.9192,0.0808	-12473.63
0.8215,0.1785	-12487.65
0.8696,0.1304	-12493.41
0.8824,0.1176	-12480.07
0.6905,0.3095	-12503.51
0.8987,0.1013	-12495.50
0.9162,0.0838	-12473.61
0.8160,0.1840	-12496.70
0.8570,0.1430	-12491.08
0.8913,0.1087	-12482.22
0.6931,0.3069	-12505.82
0.8934,0.1066	-12480.14
0.8973,0.1027	-12467.19
0.8147,0.1853	-12487.79
0.8768,0.1232	-12480.08
0.8741,0.1259	-12480.09
0.6985,0.3015	-12503.95
0.8837,0.1163	-12486.15
0.9185,0.0815	-12478.47
0.8079,0.1921	-12489.40
0.8874,0.1126	-12490.40
0.8557,0.1443	-12480.37
0.6365,0.3635	-12510.66
0.8885,0.1115	-12475.94
0.9105,0.0895	-12494.47
0.8055,0.1945	-12483.78
0.8781,0.1219	-12482.05
0.8528,0.1472	-12482.19
0.7063,0.2937	-12504.53
0.8889,0.1111	-12480.09
0.9029,0.0971	-12469.17
0.7850,0.2150	-12492.67
0.8583,0.1417	-12480.31
0.8636,0.1364	-12491.29
0.7299,0.2701	-12500.01
0.9072,0.0928	-12478.16
0.9123,0.0877	-12480.62
0.8186,0.1814	-12490.72
0.8491,0.1509	-12487.44
0.8806,0.1194	-12482.06
0.7253,0.2747	-12498.23
0.9150,0.0850	-12471.22
0.8971,0.1029	-12480.20
0.8312,0.1688	-12493.89
0.8463,0.1537	-12482.32
0.8786,0.1214	-12476.11
0.7586,0.2414	-12495.85
0.9219,0.0781	-12468.73
0.9029,0.0971	-12475.86
0.8084,0.1916	-12496.59
0.8674,0.1326	-12485.79
0.8889,0.1111	-12492.57
0.7653,0.2347	-12499.20
0.9264,0.0736	-12466.15
0.9000,0.1000	-12486.84
0.7976,0.2024	-12488.29
0.8668,0.1332	-12483.91
0.8748,0.1252	-12483.98
0.7633,0.2367	-12501.57
0.9191,0.0809	-12478.49
0.9142,0.0858	-12464.13
0.8380,0.1620	-12487.45
0.8629,0.1371	-12485.75
0.8739,0.1261	-12478.16
0.7686,0.2314	-12500.37
0.9097,0.0903	-12473.59
0.9068,0.0932	-12473.60
0.8025,0.1975	-12490.93
0.8495,0.1505	-12494.37
0.8628,0.1372	-12482.07
0.7402,0.2598	-12490.26
0.8858,0.1142	-12488.27
0.9110,0.0890	-12480.57
0.8289,0.1711	-12482.81
0.8745,0.1255	-12482.03
0.8598,0.1402	-12492.98
0.7739,0.2261	-12494.22
0.8643,0.1357	-12476.50
0.9103,0.0897	-12478.23
0.8431,0.1569	-12485.75
0.8721,0.1279	-12470.51
0.8622,0.1378	-12476.57
0.7926,0.2074	-12489.82
0.8637,0.1363	-12485.75
0.8980,0.1020	-12482.39
0.8572,0.1428	-12483.92
0.8854,0.1146	-12486.21
0.8833,0.1167	-12482.09
0.7713,0.2287	-12491.86
0.8774,0.1226	-12476.14
0.9016,0.0984	-12480.29
0.8304,0.1696	-12492.28
0.8929,0.1071	-12473.77
0.8891,0.1109	-12475.93
0.7462,0.2538	-12500.61
0.8882,0.1118	-12475.94
0.9158,0.0842	-12468.83
0.8151,0.1849	-12486.30
0.9095,0.0905	-12471.28
0.8973,0.1027	-12480.20
0.7703,0.2297	-12500.37
0.8939,0.1061	-12471.62
0.9299,0.0701	-12468.66
0.8342,0.1658	-12484.25
0.9147,0.0853	-12471.23
0.9012,0.0988	-12486.91
0.7843,0.2157	-12495.27
0.8845,0.1155	-12476.00
0.9433,0.0567	-12465.96
0.8283,0.1717	-12490.69
0.9150,0.0850	-12471.22
0.9030,0.0970	-12475.86
0.7878,0.2122	-12503.09
0.8835,0.1165	-12482.09
0.9384,0.0616	-12474.14
0.8012,0.1988	-12492.35
0.9082,0.0918	-12480.47
0.9002,0.0998	-12478.06
0.8036,0.1964	-12495.14
0.8571,0.1429	-12478.55
0.9212,0.0788	-12476.12
0.8166,0.1834	-12484.76
0.9093,0.0907	-12471.29
0.8932,0.1068	-12471.64
0.8092,0.1908	-12487.93
0.8442,0.1558	-12497.57
0.9068,0.0932	-12473.60
0.8429,0.1571	-12487.43
0.8845,0.1155	-12480.07
0.8685,0.1315	-12478.26
0.8217,0.1783	-12480.01
0.8520,0.1480	-12485.71
0.9268,0.0732	-12471.22
0.8479,0.1521	-12480.56
0.8849,0.1151	-12478.03
0.8690,0.1310	-12483.92
0.7950,0.2050	-12492.45
0.8365,0.1635	-12484.20
0.9234,0.0766	-12468.71
0.8424,0.1576	-12484.08
0.8740,0.1260	-12476.22
0.8877,0.1123	-12482.15
0.7911,0.2089	-12492.53
0.8543,0.1457	-12501.62
0.9195,0.0805	-12473.64
0.8606,0.1394	-12476.63
0.8504,0.1496	-12477.02
0.9011,0.0989	-12482.49
0.8161,0.1839	-12493.72
0.8205,0.1795	-12492.23
0.9150,0.0850	-12478.35
0.8720,0.1280	-12483.95
0.8616,0.1384	-12485.73
0.8547,0.1453	-12483.93
0.8274,0.1726	-12485.99
0.8241,0.1759	-12490.70
0.9151,0.0849	-12468.85
0.8684,0.1316	-12476.37
0.8638,0.1362	-12493.14
0.8690,0.1310	-12474.46
0.8272,0.1728	-12482.86
0.8272,0.1728	-12492.26
0.9068,0.0932	-12473.60
0.8641,0.1359	-12493.16
0.8165,0.1835	-12492.23
0.8480,0.1520	-12496.03
0.7598,0.2402	-12495.81
0.8211,0.1789	-12489.18
0.8733,0.1267	-12483.96
0.8970,0.1030	-12473.70
0.8356,0.1644	-12489.09
0.8490,0.1510	-12489.17
0.7656,0.2344	-12505.12
0.8109,0.1891	-12487.89
0.8905,0.1095	-12475.92
0.8536,0.1464	-12482.18
0.8545,0.1455	-12482.17
0.8513,0.1487	-12489.20
0.7372,0.2628	-12509.06
0.8180,0.1820	-12493.73
0.8864,0.1136	-12486.24
0.8420,0.1580	-12477.40
0.8337,0.1663	-12495.54
0.8461,0.1539	-12482.32
0.7305,0.2695	-12499.99
0.8285,0.1715	-12487.54
0.8812,0.1188	-12482.07
0.8613,0.1387	-12482.08
0.8402,0.1598	-12482.46
0.8268,0.1732	-12487.57
0.7889,0.2111	-12503.12
0.8461,0.1539	-12490.84
0.8961,0.1039	-12471.56
0.8531,0.1469	-12489.22
0.8160,0.1840	-12486.27
0.8282,0.1718	-12478.11
0.7917,0.2083	-12497.86
0.8228,0.1772	-12486.09
0.9037,0.0963	-12469.14
0.8538,0.1462	-12482.18
0.8217,0.1783	-12484.59
0.7778,0.2222	-12504.14
0.7717,0.2283	-12488.19
0.8412,0.1588	-12484.10
0.8718,0.1282	-12485.86
0.8391,0.1609	-12490.75
0.8418,0.1582	-12487.44
0.7822,0.2178	-12485.07
0.8338,0.1662	-12489.10
0.8136,0.1864	-12489.29
0.8440,0.1560	-12489.12
0.8713,0.1287	-12478.20
0.8286,0.1714	-12495.42
0.7987,0.2013	-12495.15
0.8078,0.1922	-12492.28
0.8374,0.1626	-12485.82
0.8241,0.1759	-12495.33
0.8785,0.1215	-12474.14
0.8306,0.1694	-12493.88
0.7997,0.2003	-12493.76
0.8202,0.1798	-12486.16
0.8316,0.1684	-12485.91
0.8192,0.1808	-12492.23
0.8677,0.1323	-12482.04
0.8302,0.1698	-12492.28
0.7938,0.2062	-12493.82
0.8253,0.1747	-12496.91
0.7974,0.2026	-12493.78
0.8404,0.1596	-12480.80
0.8757,0.1243	-12482.03
0.8316,0.1684	-12490.70
0.7924,0.2076	-12495.18
0.8393,0.1607	-12495.71
0.7858,0.2142	-12488.75
0.8298,0.1702	-12484.36
0.8869,0.1131	-12478.02
0.8073,0.1927	-12502.31
0.7694,0.2306	-12499.17
0.8320,0.1680	-12489.10
0.8009,0.1991	-12490.96
0.8353,0.1647	-12493.97
0.8976,0.1024	-12475.86
0.8204,0.1796	-12496.79
0.7865,0.2135	-12490.02
0.8346,0.1654	-12493.95
0.8268,0.1732	-12493.82
0.8273,0.1727	-12492.26
0.8983,0.1017	-12469.33
0.8551,0.1449	-12487.48
0.7944,0.2056	-12492.46
0.8489,0.1511	-12471.91
0.8517,0.1483	-12485.71
0.8226,0.1774	-12490.70
0.8994,0.1006	-12473.67
0.8656,0.1344	-12485.77
0.7919,0.2081	-12489.84
0.8579,0.1421	-12480.32
0.8481,0.1519	-12477.12
0.7967,0.2033	-12488.33
0.8732,0.1268	-12476.24
0.8754,0.1246	-12478.13
0.8241,0.1759	-12496.87
0.8938,0.1062	-12473.76
0.8672,0.1328	-12483.91
0.8202,0.1798	-12492.23
0.8617,0.1383	-12480.25
0.8527,0.1473	-12485.71
0.7864,0.2136	-12501.76
0.9222,0.0778	-12468.73
0.8864,0.1136	-12469.81
0.8458,0.1542	-12489.14
0.8328,0.1672	-12485.89
0.8616,0.1384	-12482.08
0.7762,0.2238	-12495.40
0.9134,0.0866	-12475.95
0.8655,0.1345	-12487.63
0.8715,0.1285	-12482.03
0.8413,0.1587	-12487.44
0.8883,0.1117	-12480.09
0.7962,0.2038	-12491.07
0.9189,0.0811	-12483.34
0.8453,0.1547	-12484.04
0.8573,0.1427	-12482.13
0.8646,0.1354	-12483.91
0.8902,0.1098	-12475.92
0.8200,0.1800	-12478.58
0.9323,0.0677	-12473.91
0.8462,0.1538	-12490.84
0.8628,0.1372	-12474.71
0.8900,0.1100	-12473.83
0.8865,0.1135	-12473.91
0.8272,0.1728	-12492.26
0.9282,0.0718	-12471.23
0.8515,0.1485	-12485.71
0.8624,0.1376	-12474.73
0.8779,0.1221	-12482.04
0.8818,0.1182	-12476.05
0.8251,0.1749	-12492.25
0.9335,0.0665	-12481.87
0.8449,0.1551	-12482.35
0.8705,0.1295	-12480.12
0.8868,0.1132	-12480.08
0.8872,0.1128	-12486.27
0.8196,0.1804	-12483.15
0.9366,0.0634	-12463.29
0.8532,0.1468	-12478.67
0.8910,0.1090	-12478.01
0.8976,0.1024	-12473.69
0.9053,0.0947	-12478.13
0.8148,0.1852	-12493.72
0.9460,0.0540	-12483.15
0.8475,0.1525	-12480.58
0.8852,0.1148	-12480.07
0.9098,0.0902	-12475.90
0.8950,0.1050	-12488.73
0.8192,0.1808	-12480.14
0.9451,0.0549	-12465.96
0.8341,0.1659	-12487.48
0.8846,0.1154	-12480.07
0.8792,0.1208	-12478.08
0.9060,0.0940	-12482.67
0.8123,0.1877	-12493.71
0.9338,0.0662	-12468.66
0.8011,0.1989	-12488.17
0.8684,0.1316	-12483.92
0.8767,0.1233	-12474.19
0.8912,0.1088	-12480.12
0.7938,0.2062	-12491.13
0.9338,0.0662	-12479.25
0.7872,0.2128	-12491.30
0.8717,0.1283	-12470.53
0.9051,0.0949	-12471.36
0.8988,0.1012	-12480.23
0.7911,0.2089	-12493.86
0.9260,0.0740	-12466.16
0.7873,0.2127	-12493.92
0.8862,0.1138	-12484.18
0.9061,0.0939	-12484.94
0.9091,0.0909	-12478.20
0.7824,0.2176	-12495.29
0.9329,0.0671	-12471.29
0.7491,0.2509	-12501.65
0.8963,0.1037	-12484.50
0.8951,0.1049	-12475.88
0.9072,0.0928	-12480.44
0.7794,0.2206	-12499.13
0.9268,0.0732	-12481.38
0.7487,0.2513	-12495.11
0.8845,0.1155	-12467.85
0.8798,0.1202	-12476.09
0.8899,0.1101	-12482.19
0.7717,0.2283	-12497.93
0.9286,0.0714	-12468.67
0.7886,0.2114	-12487.32
0.8870,0.1130	-12478.02
0.8765,0.1235	-12480.08
0.8964,0.1036	-12467.24
0.7816,0.2184	-12490.21
0.9155,0.0845	-12473.60
0.8298,0.1702	-12478.02
0.8823,0.1177	-12480.07
0.8893,0.1107	-12469.68
0.9039,0.0961	-12487.07
0.7945,0.2055	-12500.57
0.9235,0.0765	-12478.67
0.8554,0.1446	-12491.04
0.8833,0.1167	-12488.16
0.8807,0.1193	-12482.06
0.9240,0.0760	-12466.21
0.7836,0.2164	-12492.70
0.9177,0.0823	-12478.44
0.8666,0.1334	-12487.65
0.8867,0.1133	-12480.08
0.9004,0.0996	-12475.86
0.9204,0.0796	-12480.99
0.7885,0.2115	-12495.22
0.9084,0.0916	-12480.48
0.8767,0.1233	-12476.15
0.8928,0.1072	-12482.25
0.9026,0.0974	-12473.63
0.9096,0.0904	-12473.59
0.7917,0.2083	-12487.17
0.8924,0.1076	-12482.24
0.8714,0.1286	-12487.77
0.9016,0.0984	-12484.72
0.8873,0.1127	-12465.64
0.9177,0.0823	-12485.68
0.7919,0.2081	-12501.87
0.9136,0.0864	-12478.31
0.8895,0.1105	-12488.44
0.8817,0.1183	-12484.08
0.8802,0.1198	-12480.07
0.9082,0.0918	-12473.60
0.8235,0.1765	-12484.54
0.8984,0.1016	-12469.32
0.8883,0.1117	-12471.80
0.8792,0.1208	-12480.07
0.8852,0.1148	-12484.16
0.8901,0.1099	-12473.83
0.8308,0.1692	-12482.74
0.8765,0.1235	-12487.92
0.8816,0.1184	-12478.06
0.8890,0.1110	-12478.01
0.8752,0.1248	-12483.98
0.8925,0.1075	-12482.25
0.8684,0.1316	-12482.03
0.8912,0.1088	-12478.01
0.8933,0.1067	-12475.89
0.8927,0.1073	-12490.73
0.8583,0.1417	-12482.11
0.8802,0.1198	-12480.07
0.8542,0.1458	-12483.94
0.9060,0.0940	-12482.67
0.8724,0.1276	-12478.18
0.8901,0.1099	-12482.20
0.8637,0.1363	-12480.21
0.8754,0.1246	-12485.93
0.8582,0.1418	-12480.31
0.8899,0.1101	-12478.01
0.8513,0.1487	-12489.20
0.8746,0.1254	-12476.20
0.8613,0.1387	-12489.38
0.8799,0.1201	-12474.09
0.8744,0.1256	-12495.62
0.8869,0.1131	-12478.02
0.8207,0.1793	-12487.67
0.8553,0.1447	-12489.26
0.8532,0.1468	-12485.71
0.8941,0.1059	-12482.28
0.8839,0.1161	-12476.01
0.8953,0.1047	-12484.46
0.8132,0.1868	-12496.66
0.8816,0.1184	-12482.07
0.8501,0.1499	-12490.92
0.9009,0.0991	-12475.86
0.8828,0.1172	-12488.14
0.8847,0.1153	-12478.03
0.8395,0.1605	-12489.10
0.8771,0.1229	-12480.07
0.8544,0.1456	-12482.17
0.8910,0.1090	-12482.21
0.8570,0.1430	-12491.08
0.8781,0.1219	-12489.94
0.8143,0.1857	-12490.76
0.8972,0.1028	-12488.87
0.8357,0.1643	-12489.09
0.8413,0.1587	-12484.10
0.8685,0.1315	-12485.81
0.8663,0.1337	-12482.04
0.7986,0.2014	-12489.63
0.8822,0.1178	-12482.08
0.8431,0.1569	-12482.39
0.8681,0.1319	-12476.38
0.8685,0.1315	-12476.37
0.8683,0.1317	-12487.69
0.7826,0.2174	-12492.73
0.8740,0.1260	-12483.97
0.8566,0.1434	-12501.80
0.8599,0.1401	-12471.21
0.8439,0.1561	-12489.12
0.8606,0.1394	-12485.73
0.7960,0.2040	-12497.88
0.8861,0.1139	-12469.82
0.8822,0.1178	-12480.07
0.8509,0.1491	-12482.22
0.8219,0.1781	-12483.06
0.8651,0.1349	-12480.19
0.8331,0.1669	-12482.67
0.8720,0.1280	-12489.70
0.8985,0.1015	-12478.04
0.8347,0.1653	-12481.00
0.7991,0.2009	-12495.14
0.8669,0.1331	-12480.17
0.8192,0.1808	-12498.27
0.8793,0.1207	-12478.08
0.9092,0.0908	-12480.50
0.8435,0.1565	-12484.06
0.7664,0.2336	-12495.63
0.8590,0.1410	-12494.75
0.8058,0.1942	-12486.61
0.8556,0.1444	-12485.71
0.9134,0.0866	-12483.02
0.8481,0.1519	-12494.32
0.8069,0.1931	-12500.87
0.8533,0.1467	-12487.47
0.8217,0.1783	-12489.18
0.8404,0.1596	-12492.42
0.9105,0.0895	-12478.23
0.8160,0.1840	-12486.28
0.7973,0.2027	-12489.67
0.8214,0.1786	-12490.71
0.8283,0.1717	-12485.97
0.8326,0.1674	-12492.31
0.9169,0.0831	-12476.01
0.8255,0.1745	-12489.14
0.8322,0.1678	-12490.70
0.8370,0.1630	-12484.19
0.8204,0.1796	-12496.79
0.8157,0.1843	-12496.70
0.9108,0.0892	-12471.27
0.8794,0.1206	-12476.09
0.8258,0.1742	-12486.02
0.8464,0.1536	-12484.02
0.8518,0.1482	-12489.20
0.8548,0.1452	-12494.57
0.9088,0.0912	-12480.49
0.8903,0.1097	-12473.83
0.8359,0.1641	-12497.23
0.8501,0.1499	-12485.71
0.8493,0.1507	-12487.44
0.8555,0.1445	-12492.82
0.9098,0.0902	-12473.59
0.9126,0.0874	-12485.32
0.8488,0.1512	-12483.99
0.8823,0.1177	-12490.14
0.8135,0.1865	-12498.13
0.8789,0.1211	-12484.03
0.9140,0.0860	-12475.96
0.9309,0.0691	-12476.46
0.8389,0.1611	-12492.40
0.8692,0.1308	-12478.24
0.8060,0.1940	-12488.02
0.8882,0.1118	-12478.02
0.9324,0.0676	-12466.04
0.9131,0.0869	-12471.24
0.8399,0.1601	-12490.76
0.8378,0.1622	-12484.17
0.7828,0.2172	-12496.57
0.9134,0.0866	-12480.66
0.9221,0.0779	-12481.08
0.9272,0.0728	-12473.77
0.8591,0.1409	-12480.29
0.8130,0.1870	-12480.49
0.7635,0.2365	-12491.02
0.8840,0.1160	-12478.04
0.9135,0.0865	-12471.24
0.9253,0.0747	-12471.21
0.8214,0.1786	-12486.13
0.7955,0.2045	-12501.95
0.7515,0.2485	-12491.67
0.8639,0.1361	-12489.45
0.9032,0.0968	-12473.63
0.9199,0.0801	-12471.20
0.8176,0.1824	-12487.73
0.8049,0.1951	-12489.47
0.7327,0.2673	-12500.92
0.8474,0.1526	-12478.86
0.9145,0.0855	-12471.23
0.9068,0.0932	-12469.05
0.8314,0.1686	-12490.70
0.7873,0.2127	-12492.61
0.7609,0.2391	-12499.25
0.8594,0.1406	-12489.34
0.8993,0.1007	-12467.10
0.8842,0.1158	-12473.97
0.8506,0.1494	-12477.01
0.8276,0.1724	-12489.12
0.7834,0.2166	-12487.57
0.8721,0.1279	-12470.51
0.8993,0.1007	-12480.24
0.8623,0.1377	-12487.57
0.8605,0.1395	-12489.37
0.8496,0.1504	-12485.71
0.8063,0.1937	-12490.87
0.8593,0.1407	-12487.53
0.8795,0.1205	-12480.07
0.8555,0.1445	-12485.71
0.8477,0.1523	-12487.44
0.8518,0.1482	-12485.71
0.8393,0.1607	-12487.45
0.8506,0.1494	-12483.97
0.8683,0.1317	-12472.60
0.8507,0.1493	-12480.49
0.8599,0.1401	-12489.35
0.8542,0.1458	-12476.87
0.8388,0.1612	-12492.40
0.8640,0.1360	-12472.81
0.8934,0.1066	-12475.89
0.8790,0.1210	-12478.08
0.8883,0.1117	-12469.72
0.8485,0.1515	-12485.72
0.8172,0.1828	-12493.73
0.8785,0.1215	-12482.05
0.9026,0.0974	-12493.67
0.8573,0.1427	-12473.16
0.9056,0.0944	-12471.35
0.8579,0.1421	-12480.32
0.8333,0.1667	-12487.49
0.8504,0.1496	-12492.66
0.9193,0.0807	-12471.20
0.8288,0.1712	-12489.12
0.8985,0.1015	-12486.76
0.8812,0.1188	-12474.05
0.8142,0.1858	-12481.90
0.8434,0.1566	-12480.70
0.9130,0.0870	-12475.94
0.8352,0.1648	-12484.23
0.8903,0.1097	-12478.01
0.8935,0.1065	-12486.52
0.8077,0.1923	-12487.97
0.8093,0.1907	-12483.59
0.9271,0.0729	-12486.48
0.8393,0.1607	-12485.79
0.8742,0.1258	-12485.91
0.8891,0.1109	-12480.10
0.8176,0.1824	-12487.73
0.8202,0.1798	-12487.68
0.9234,0.0766	-12478.67
0.8543,0.1457	-12489.24
0.8744,0.1256	-12478.15
0.8639,0.1361	-12478.36
0.8155,0.1845	-12493.72
0.7931,0.2069	-12488.46
0.9199,0.0801	-12473.64
0.8414,0.1586	-12497.45
0.9004,0.0996	-12484.67
0.8591,0.1409	-12478.49
0.8159,0.1841	-12493.72
0.8087,0.1913	-12482.18
0.9379,0.0621	-12479.55
0.8425,0.1575	-12487.44
0.8716,0.1284	-12476.28
0.8514,0.1486	-12476.98
0.8089,0.1911	-12490.83
0.8080,0.1920	-12493.71
0.9444,0.0556	-12485.79
0.8219,0.1781	-12483.06
0.8406,0.1594	-12504.06
0.8548,0.1452	-12478.62
0.8398,0.1602	-12487.44
0.8110,0.1890	-12484.97
0.9331,0.0669	-12463.39
0.8018,0.1982	-12490.95
0.8287,0.1713	-12485.96
0.8870,0.1130	-12478.02
0.8213,0.1787	-12492.23
0.8478,0.1522	-12480.57
0.9349,0.0651	-12471.33
0.8398,0.1602	-12495.73
0.8246,0.1754	-12479.86
0.8733,0.1267	-12487.82
0.8007,0.1993	-12492.36
0.8313,0.1687	-12489.10
0.9198,0.0802	-12480.96
0.7724,0.2276	-12491.82
0.8581,0.1419	-12482.12
0.8596,0.1404	-12474.85
0.8530,0.1470	-12487.46
0.8520,0.1480	-12485.71
0.9159,0.0841	-12475.99
0.7883,0.2117	-12496.53
0.8822,0.1178	-12486.10
0.8535,0.1465	-12480.42
0.8133,0.1867	-12493.71
0.8597,0.1403	-12487.53
0.9150,0.0850	-12475.98
0.8161,0.1839	-12483.29
0.8682,0.1318	-12480.15
0.8694,0.1306	-12491.51
0.8306,0.1694	-12490.70
0.8752,0.1248	-12480.08
0.9163,0.0837	-12473.61
0.7892,0.2108	-12496.53
0.8722,0.1278	-12491.63
0.8535,0.1465	-12476.89
0.8279,0.1721	-12489.12
0.8517,0.1483	-12490.95
0.9256,0.0744	-12473.73
0.8002,0.1998	-12502.08
0.8591,0.1409	-12483.91
0.8358,0.1642	-12492.35
0.8419,0.1581	-12485.76
0.8667,0.1333	-12470.81
0.9209,0.0791	-12478.56
0.7786,0.2214	-12494.10
0.8582,0.1418	-12476.71
0.8398,0.1602	-12485.79
