#isoforms=['ENSG00000211445.SE.0.A.up_ENSG00000211445.SE.0.A.SE1_ENSG00000211445.SE.0.A.dn','ENSG00000211445.SE.0.B.up_ENSG00000211445.SE.0.B.dn']	exon_lens=('ENSG00000211445.SE.0.A.up',136),('ENSG00000211445.SE.0.A.SE1',426),('ENSG00000211445.SE.0.A.dn',154),('ENSG00000211445.SE.0.B.up',179),('ENSG00000211445.SE.0.B.dn',154)	iters=5000	burn_in=500	lag=10	percent_accept=97.71	proposal_type=drift	counts=(0,0):113,(0,1):1,(1,0):7,(1,1):1	assigned_counts=0:7,1:2	chrom=chr5	strand=+	mRNA_starts=151020606,151020563	mRNA_ends=151025493,151025493
sampled_psi	log_score
0.7889,0.2111	-60.00
0.6282,0.3718	-60.15
0.3926,0.6074	-61.52
0.4436,0.5564	-60.85
0.1977,0.8023	-63.38
0.7202,0.2798	-59.99
0.7730,0.2270	-59.98
0.5700,0.4300	-60.35
0.3833,0.6167	-61.14
0.4495,0.5505	-61.03
0.1915,0.8085	-63.52
0.6578,0.3422	-60.08
0.7882,0.2118	-59.99
0.5583,0.4417	-60.63
0.3583,0.6417	-61.30
0.4691,0.5309	-60.77
0.2177,0.7823	-62.98
0.6822,0.3178	-60.03
0.7798,0.2202	-59.99
0.6017,0.3983	-60.23
0.3426,0.6574	-61.42
0.4330,0.5670	-61.16
0.2311,0.7689	-62.74
0.7418,0.2582	-61.03
0.7745,0.2255	-59.98
0.5828,0.4172	-60.63
0.4097,0.5903	-61.36
0.4384,0.5616	-61.12
0.1895,0.8105	-63.56
0.6542,0.3458	-60.09
0.7317,0.2683	-59.98
0.6236,0.3764	-60.16
0.3618,0.6382	-61.27
0.4580,0.5420	-60.97
0.1837,0.8163	-63.70
0.7215,0.2785	-59.99
0.7114,0.2886	-60.90
0.6130,0.3870	-60.66
0.3003,0.6997	-61.81
0.3964,0.6036	-61.06
0.2036,0.7964	-63.25
0.6722,0.3278	-60.77
0.7307,0.2693	-59.98
0.6162,0.3838	-60.19
0.3419,0.6581	-62.08
0.4035,0.5965	-61.02
0.2036,0.7964	-63.25
0.6673,0.3327	-60.06
0.6537,0.3463	-60.72
0.6279,0.3721	-60.15
0.3089,0.6911	-61.72
0.4071,0.5929	-61.01
0.2430,0.7570	-63.68
0.5807,0.4193	-60.63
0.6686,0.3314	-60.06
0.6338,0.3662	-60.69
0.3175,0.6825	-62.40
0.4508,0.5492	-60.83
0.2393,0.7607	-62.60
0.6534,0.3466	-60.72
0.6588,0.3412	-60.08
0.5465,0.4535	-60.45
0.3650,0.6350	-61.25
0.5063,0.4937	-60.69
0.2346,0.7654	-63.86
0.6388,0.3612	-60.12
0.6857,0.3143	-60.81
0.5354,0.4646	-60.51
0.3912,0.6088	-61.09
0.5059,0.4941	-60.69
0.2197,0.7803	-62.94
0.6501,0.3499	-60.10
0.7172,0.2828	-59.99
0.5276,0.4724	-60.54
0.3818,0.6182	-61.15
0.5356,0.4644	-60.50
0.2474,0.7526	-62.48
0.7157,0.2843	-60.92
0.7089,0.2911	-60.00
0.5284,0.4716	-60.54
0.3952,0.6048	-61.49
0.5414,0.4586	-60.48
0.2746,0.7254	-62.10
0.7685,0.2315	-59.98
0.6858,0.3142	-60.03
0.5090,0.4910	-60.64
0.3826,0.6174	-61.62
0.5953,0.4047	-60.25
0.2618,0.7382	-62.27
0.7491,0.2509	-59.98
0.6148,0.3852	-60.66
0.4764,0.5236	-60.84
0.3933,0.6067	-61.08
0.5257,0.4743	-60.66
0.2724,0.7276	-62.13
0.7547,0.2453	-59.98
0.6300,0.3700	-60.15
0.4954,0.5046	-60.72
0.3786,0.6214	-61.16
0.5375,0.4625	-60.65
0.2468,0.7532	-62.48
0.7193,0.2807	-59.99
0.6128,0.3872	-60.20
0.4515,0.5485	-61.02
0.3258,0.6742	-61.56
0.5031,0.4969	-60.69
0.2173,0.7827	-64.26
0.7093,0.2907	-60.00
0.6100,0.3900	-60.21
0.4235,0.5765	-61.24
0.3188,0.6812	-62.38
0.4901,0.5099	-60.76
0.2603,0.7397	-62.29
0.6708,0.3292	-60.05
0.6070,0.3930	-60.22
0.4515,0.5485	-60.82
0.3460,0.6540	-61.39
0.4866,0.5134	-60.78
0.2749,0.7251	-63.07
0.6934,0.3066	-60.02
0.5852,0.4148	-60.64
0.4965,0.5035	-60.72
0.3595,0.6405	-61.29
0.5312,0.4688	-60.65
0.3098,0.6902	-61.71
0.7962,0.2038	-60.00
0.5659,0.4341	-60.63
0.4893,0.5107	-60.72
0.3418,0.6582	-61.42
0.5303,0.4697	-60.65
0.3462,0.6538	-62.02
0.7812,0.2188	-59.99
0.5367,0.4633	-60.65
0.4611,0.5389	-60.79
0.4316,0.5684	-61.17
0.5073,0.4927	-60.68
0.3504,0.6496	-61.36
0.7841,0.2159	-59.99
0.5086,0.4914	-60.68
0.4967,0.5033	-60.70
0.3700,0.6300	-61.75
0.5090,0.4910	-60.68
0.3398,0.6602	-61.44
0.7884,0.2116	-59.99
0.5217,0.4783	-60.58
0.5635,0.4365	-60.63
0.3691,0.6309	-61.23
0.5875,0.4125	-60.28
0.3397,0.6603	-61.44
0.8124,0.1876	-60.03
0.5421,0.4579	-60.64
0.4888,0.5112	-60.76
0.4167,0.5833	-60.96
0.5720,0.4280	-60.63
0.3416,0.6584	-62.08
0.8184,0.1816	-61.55
0.5097,0.4903	-60.68
0.4960,0.5040	-60.72
0.4292,0.5708	-60.91
0.5937,0.4063	-60.26
0.4115,0.5885	-60.99
0.8547,0.1453	-61.91
0.5101,0.4899	-60.68
0.4427,0.5573	-60.85
0.4453,0.5547	-61.06
0.5421,0.4579	-60.47
0.4149,0.5851	-61.31
0.8553,0.1447	-60.14
0.5700,0.4300	-60.63
0.4584,0.5416	-60.80
0.4360,0.5640	-60.88
0.5327,0.4673	-60.52
0.3820,0.6180	-61.14
0.8492,0.1508	-61.85
0.6102,0.3898	-60.21
0.4354,0.5646	-60.88
0.4902,0.5098	-60.76
0.6081,0.3919	-60.21
0.3671,0.6329	-61.78
0.8382,0.1618	-61.73
0.5857,0.4143	-60.29
0.4378,0.5622	-60.87
0.4745,0.5255	-60.86
0.6020,0.3980	-60.23
0.3728,0.6272	-61.72
0.8264,0.1736	-60.06
0.6155,0.3845	-60.66
0.4505,0.5495	-60.83
0.4676,0.5324	-60.77
0.6327,0.3673	-60.14
0.4071,0.5929	-61.01
0.8258,0.1742	-60.06
0.6424,0.3576	-60.11
0.3861,0.6139	-61.12
0.4111,0.5889	-61.35
0.6259,0.3741	-60.67
0.4167,0.5833	-61.30
0.8329,0.1671	-60.07
0.6449,0.3551	-60.11
0.3550,0.6450	-61.32
0.3672,0.6328	-61.24
0.6510,0.3490	-60.09
0.3883,0.6117	-61.11
0.8183,0.1817	-60.04
0.6680,0.3320	-60.06
0.3981,0.6019	-61.05
0.3932,0.6068	-61.08
0.6300,0.3700	-60.15
0.3925,0.6075	-61.52
0.8509,0.1491	-60.13
0.6917,0.3083	-60.83
0.4450,0.5550	-61.07
0.4072,0.5928	-61.01
0.6678,0.3322	-60.06
0.4265,0.5735	-60.92
0.8458,0.1542	-60.11
0.6559,0.3441	-60.08
0.5108,0.4892	-60.68
0.4601,0.5399	-60.80
0.6996,0.3004	-60.01
0.4474,0.5526	-60.84
0.8509,0.1491	-60.13
0.6862,0.3138	-60.03
0.4808,0.5192	-60.81
0.4993,0.5007	-60.70
0.7417,0.2583	-59.98
0.4197,0.5803	-60.95
0.8591,0.1409	-61.97
0.6799,0.3201	-60.79
0.4868,0.5132	-60.72
0.5363,0.4637	-60.65
0.7740,0.2260	-59.98
0.4327,0.5673	-60.89
0.8631,0.1369	-60.17
0.6438,0.3562	-60.11
0.4896,0.5104	-60.76
0.5459,0.4541	-60.46
0.7873,0.2127	-59.99
0.3959,0.6041	-61.06
0.8463,0.1537	-60.11
0.6336,0.3664	-60.68
0.5063,0.4937	-60.66
0.5668,0.4332	-60.63
0.7992,0.2008	-60.01
0.4598,0.5402	-60.96
0.8646,0.1354	-62.04
0.6242,0.3758	-60.16
0.4893,0.5107	-60.72
0.5552,0.4448	-60.63
0.7747,0.2253	-61.22
0.4749,0.5251	-60.85
0.8320,0.1680	-60.07
0.5875,0.4125	-60.28
0.4639,0.5361	-60.78
0.5541,0.4459	-60.42
0.7723,0.2277	-59.98
0.3998,0.6002	-61.04
0.8174,0.1826	-61.54
0.6825,0.3175	-60.03
0.4476,0.5524	-61.05
0.6105,0.3895	-60.20
0.7757,0.2243	-59.98
0.3786,0.6214	-61.16
0.8050,0.1950	-60.02
0.6337,0.3663	-60.14
0.4509,0.5491	-61.02
0.6274,0.3726	-60.68
0.7079,0.2921	-60.88
0.3771,0.6229	-61.68
0.8103,0.1897	-60.02
0.6065,0.3935	-60.22
0.4382,0.5618	-60.87
0.6316,0.3684	-60.14
0.7292,0.2708	-59.98
0.3974,0.6026	-61.06
0.8012,0.1988	-60.01
0.6259,0.3741	-60.16
0.4581,0.5419	-60.97
0.6308,0.3692	-60.14
0.6467,0.3533	-60.71
0.3775,0.6225	-61.17
0.7959,0.2041	-60.00
0.6827,0.3173	-60.03
0.5237,0.4763	-60.66
0.5945,0.4055	-60.26
0.6500,0.3500	-60.10
0.4403,0.5597	-61.10
0.7964,0.2036	-60.00
0.6281,0.3719	-60.68
0.5614,0.4386	-60.39
0.5775,0.4225	-60.63
0.6468,0.3532	-60.71
0.4833,0.5167	-60.80
0.8191,0.1809	-60.04
0.5930,0.4070	-60.64
0.5169,0.4831	-60.60
0.6592,0.3408	-60.74
0.7325,0.2675	-59.98
0.5273,0.4727	-60.55
0.8417,0.1583	-60.10
0.5254,0.4746	-60.66
0.5403,0.4597	-60.64
0.6350,0.3650	-60.69
0.6902,0.3098	-60.02
0.5476,0.4524	-60.45
0.8633,0.1367	-62.02
0.4898,0.5102	-60.72
0.5307,0.4693	-60.65
0.6757,0.3243	-60.78
0.7113,0.2887	-60.00
0.5979,0.4021	-60.25
0.8585,0.1415	-60.16
0.4496,0.5504	-60.83
0.5632,0.4368	-60.38
0.7123,0.2877	-60.90
0.7051,0.2949	-60.00
0.6115,0.3885	-60.20
0.8768,0.1232	-60.24
0.4848,0.5152	-60.79
0.6146,0.3854	-60.66
0.7525,0.2475	-59.98
0.6869,0.3131	-60.81
0.6228,0.3772	-60.17
0.8813,0.1187	-60.26
0.4332,0.5668	-60.89
0.6038,0.3962	-60.65
0.7918,0.2082	-60.00
0.6254,0.3746	-60.16
0.6313,0.3687	-60.68
0.8567,0.1433	-60.15
0.4261,0.5739	-61.22
0.6695,0.3305	-60.06
0.7630,0.2370	-59.98
0.5915,0.4085	-60.27
0.6350,0.3650	-60.13
0.8424,0.1576	-60.10
0.4337,0.5663	-60.89
0.7133,0.2867	-59.99
0.7111,0.2889	-60.00
0.5383,0.4617	-60.64
0.6219,0.3781	-60.17
0.8561,0.1439	-60.15
0.5277,0.4723	-60.54
0.7405,0.2595	-59.98
0.6844,0.3156	-60.03
0.5246,0.4754	-60.66
0.6502,0.3498	-60.10
0.8801,0.1199	-60.25
0.4980,0.5020	-60.71
0.6885,0.3115	-60.02
0.6953,0.3047	-60.84
0.5558,0.4442	-60.41
0.6297,0.3703	-60.15
0.8864,0.1136	-60.29
0.4670,0.5330	-60.91
0.6507,0.3493	-60.72
0.6864,0.3136	-60.03
0.5248,0.4752	-60.56
0.5972,0.4028	-60.25
0.8865,0.1135	-60.29
0.4690,0.5310	-60.89
0.5932,0.4068	-60.26
0.7208,0.2792	-59.99
0.5193,0.4807	-60.59
0.6031,0.3969	-60.23
0.8909,0.1091	-60.32
0.4524,0.5476	-60.82
0.6468,0.3532	-60.71
0.6829,0.3171	-60.80
0.5298,0.4702	-60.53
0.6086,0.3914	-60.65
0.8904,0.1096	-60.31
0.4273,0.5727	-61.21
0.6735,0.3265	-60.05
0.7284,0.2716	-59.98
0.5254,0.4746	-60.56
0.5810,0.4190	-60.31
0.8778,0.1222	-60.24
0.4509,0.5491	-60.82
0.6447,0.3553	-60.71
0.7543,0.2457	-61.10
0.4632,0.5368	-60.79
0.5743,0.4257	-60.33
0.8746,0.1254	-60.23
0.4957,0.5043	-60.72
0.6302,0.3698	-60.15
0.7773,0.2227	-61.24
0.5067,0.4933	-60.68
0.5271,0.4729	-60.55
0.8677,0.1323	-62.08
0.5317,0.4683	-60.65
0.6214,0.3786	-60.17
0.8285,0.1715	-60.06
0.4450,0.5550	-60.85
0.5241,0.4759	-60.66
0.8576,0.1424	-60.15
0.5456,0.4544	-60.64
0.6167,0.3833	-60.19
0.8275,0.1725	-60.06
0.4295,0.5705	-60.91
0.5389,0.4611	-60.49
0.8466,0.1534	-60.11
0.5210,0.4790	-60.58
0.6070,0.3930	-60.65
0.8442,0.1558	-60.11
0.4564,0.5436	-60.98
0.5094,0.4906	-60.64
0.8711,0.1289	-60.21
0.4830,0.5170	-60.80
0.5750,0.4250	-60.63
0.8405,0.1595	-60.10
0.3407,0.6593	-62.09
0.5255,0.4745	-60.66
0.8917,0.1083	-60.32
0.4661,0.5339	-60.91
0.5259,0.4741	-60.55
0.8430,0.1570	-60.10
0.4125,0.5875	-61.33
0.6200,0.3800	-60.66
0.9015,0.0985	-60.39
0.5572,0.4428	-60.40
0.4749,0.5251	-60.75
0.8230,0.1770	-60.05
0.3690,0.6310	-61.76
0.6750,0.3250	-60.78
0.9004,0.0996	-60.38
0.5490,0.4510	-60.64
0.5226,0.4774	-60.57
0.8329,0.1671	-60.07
0.4193,0.5807	-61.27
0.5650,0.4350	-60.37
0.9090,0.0910	-60.45
0.5117,0.4883	-60.63
0.5845,0.4155	-60.29
0.8198,0.1802	-60.04
0.4336,0.5664	-60.89
0.5921,0.4079	-60.27
0.8837,0.1163	-62.30
0.5306,0.4694	-60.53
0.5471,0.4529	-60.64
0.8285,0.1715	-60.06
0.4629,0.5371	-60.94
0.5666,0.4334	-60.63
0.8806,0.1194	-60.26
0.5382,0.4618	-60.49
0.5226,0.4774	-60.66
0.8262,0.1738	-60.06
0.5296,0.4704	-60.65
0.5680,0.4320	-60.63
0.8956,0.1044	-60.35
0.5709,0.4291	-60.63
0.4985,0.5015	-60.71
0.8668,0.1332	-60.19
0.5194,0.4806	-60.67
0.5275,0.4725	-60.66
0.8758,0.1242	-60.23
0.5777,0.4223	-60.32
0.4681,0.5319	-60.77
0.9047,0.0953	-60.41
0.5201,0.4799	-60.66
0.6219,0.3781	-60.17
0.8612,0.1388	-60.17
0.6010,0.3990	-60.64
0.4678,0.5322	-60.77
0.9062,0.0938	-60.42
0.5318,0.4682	-60.65
0.6571,0.3429	-60.08
0.8816,0.1184	-62.27
0.5407,0.4593	-60.48
0.4687,0.5313	-60.77
0.8871,0.1129	-60.29
0.4543,0.5457	-60.81
0.7113,0.2887	-60.00
0.8570,0.1430	-60.15
0.6446,0.3554	-60.11
0.4525,0.5475	-60.82
0.8777,0.1223	-60.24
0.4610,0.5390	-60.79
0.7404,0.2596	-59.98
0.8692,0.1308	-60.20
0.6145,0.3855	-60.19
0.4619,0.5381	-60.94
0.8354,0.1646	-60.08
0.4389,0.5611	-60.87
0.6921,0.3079	-60.02
0.8607,0.1393	-60.17
0.5601,0.4399	-60.63
0.4402,0.5598	-60.86
0.8166,0.1834	-60.04
0.5004,0.4996	-60.69
0.6588,0.3412	-60.74
0.8478,0.1522	-60.12
0.5955,0.4045	-60.64
0.4367,0.5633	-61.13
0.8607,0.1393	-61.99
0.5097,0.4903	-60.64
0.6062,0.3938	-60.22
0.8656,0.1344	-60.19
0.5825,0.4175	-60.30
0.4647,0.5353	-60.78
0.8624,0.1376	-60.17
0.4987,0.5013	-60.70
0.5857,0.4143	-60.29
0.8191,0.1809	-60.04
0.5634,0.4366	-60.38
0.4721,0.5279	-60.76
0.8556,0.1444	-60.15
0.5245,0.4755	-60.56
0.5786,0.4214	-60.63
0.8604,0.1396	-61.98
0.5877,0.4123	-60.28
0.4557,0.5443	-60.99
0.8737,0.1263	-62.16
0.5655,0.4345	-60.37
0.5740,0.4260	-60.33
0.8378,0.1622	-60.09
0.4844,0.5156	-60.79
0.4742,0.5258	-60.86
0.8696,0.1304	-60.20
0.5608,0.4392	-60.39
0.5433,0.4567	-60.47
0.8240,0.1760	-60.05
0.4669,0.5331	-60.78
0.4854,0.5146	-60.79
0.8652,0.1348	-60.18
0.5858,0.4142	-60.29
0.5169,0.4831	-60.67
0.7773,0.2227	-61.24
0.4432,0.5568	-60.85
0.4749,0.5251	-60.85
0.8599,0.1401	-60.16
0.5394,0.4606	-60.49
0.4869,0.5131	-60.78
0.7464,0.2536	-61.06
0.4173,0.5827	-61.29
0.4213,0.5787	-60.94
0.8856,0.1144	-60.28
0.4822,0.5178	-60.73
0.4675,0.5325	-60.90
0.7225,0.2775	-59.99
0.3644,0.6356	-61.81
0.4150,0.5850	-60.97
0.9031,0.0969	-60.40
0.4542,0.5458	-61.00
0.4199,0.5801	-61.27
0.7342,0.2658	-59.98
0.3858,0.6142	-61.59
0.4171,0.5829	-60.96
0.8988,0.1012	-60.37
0.4244,0.5756	-60.93
0.4333,0.5667	-61.16
0.7595,0.2405	-59.98
0.3523,0.6477	-61.34
0.4294,0.5706	-60.91
0.9093,0.0907	-60.45
0.4320,0.5680	-60.89
0.4206,0.5794	-60.94
0.7691,0.2309	-59.98
0.3806,0.6194	-61.15
0.4336,0.5664	-60.89
0.9309,0.0691	-60.66
0.4547,0.5453	-60.81
0.3874,0.6126	-61.57
0.7642,0.2358	-59.98
0.3946,0.6054	-61.07
0.4221,0.5779	-61.25
0.9244,0.0756	-60.59
0.4334,0.5666	-60.89
0.3946,0.6054	-61.07
0.7531,0.2469	-61.09
0.4145,0.5855	-61.32
0.3635,0.6365	-61.26
0.9253,0.0747	-60.60
0.4244,0.5756	-61.23
0.4871,0.5129	-60.77
0.7511,0.2489	-59.98
0.3492,0.6508	-61.99
0.3009,0.6991	-61.80
0.9339,0.0661	-63.34
0.3871,0.6129	-61.57
0.5420,0.4580	-60.64
0.7463,0.2537	-61.06
0.3821,0.6179	-61.62
0.3023,0.6977	-61.78
0.9391,0.0609	-60.76
0.3910,0.6090	-61.53
0.5685,0.4315	-60.63
0.7330,0.2670	-59.98
0.3787,0.6213	-61.66
0.3261,0.6739	-61.56
0.9306,0.0694	-60.66
0.3629,0.6371	-61.27
0.6053,0.3947	-60.22
0.7345,0.2655	-59.98
0.3732,0.6268	-61.20
0.3789,0.6211	-61.66
0.9356,0.0644	-60.72
0.4085,0.5915	-61.37
0.5884,0.4116	-60.64
0.7043,0.2957	-60.00
0.3746,0.6254	-61.19
0.3986,0.6014	-61.05
0.9308,0.0692	-60.66
0.3449,0.6551	-61.40
0.6045,0.3955	-60.22
0.7237,0.2763	-60.95
0.3533,0.6467	-61.94
0.4218,0.5782	-60.94
0.9310,0.0690	-60.66
0.4227,0.5773	-61.25
0.5663,0.4337	-60.37
0.7131,0.2869	-59.99
0.3353,0.6647	-62.16
0.4324,0.5676	-60.89
0.9255,0.0745	-60.60
0.3884,0.6116	-61.11
0.5403,0.4597	-60.64
0.7496,0.2504	-59.98
0.3200,0.6800	-61.61
0.4476,0.5524	-61.05
0.9081,0.0919	-60.44
0.3735,0.6265	-61.71
0.5459,0.4541	-60.64
0.6897,0.3103	-60.02
0.3570,0.6430	-61.31
0.4144,0.5856	-60.97
0.9048,0.0952	-60.41
0.3083,0.6917	-61.72
0.6009,0.3991	-60.64
0.6541,0.3459	-60.09
0.3312,0.6688	-62.21
0.3623,0.6377	-61.84
0.8925,0.1075	-60.33
0.3051,0.6949	-61.76
0.5668,0.4332	-60.36
0.6498,0.3502	-60.10
0.3309,0.6691	-62.22
0.3790,0.6210	-61.66
0.8879,0.1121	-60.30
0.3402,0.6598	-61.44
0.5893,0.4107	-60.28
0.6558,0.3442	-60.73
0.3519,0.6481	-61.96
0.3780,0.6220	-61.67
0.8609,0.1391	-60.17
0.3738,0.6262	-61.19
0.6241,0.3759	-60.67
0.6801,0.3199	-60.04
0.3300,0.6700	-62.23
0.3881,0.6119	-61.56
0.8622,0.1378	-60.17
0.4421,0.5579	-60.86
0.6312,0.3688	-60.14
0.6176,0.3824	-60.18
0.3209,0.6791	-62.35
0.3547,0.6453	-61.33
0.8880,0.1120	-60.30
0.4141,0.5859	-60.97
0.6731,0.3269	-60.05
0.6615,0.3385	-60.74
0.3287,0.6713	-61.53
0.3551,0.6449	-61.92
0.8939,0.1061	-62.47
0.4236,0.5764	-61.24
0.7376,0.2624	-59.98
0.6459,0.3541	-60.71
0.2916,0.7084	-62.79
0.2976,0.7024	-61.83
0.8893,0.1107	-60.31
0.5081,0.4919	-60.68
0.7012,0.2988	-60.01
0.6738,0.3262	-60.05
0.3396,0.6604	-61.44
0.2675,0.7325	-62.19
0.8593,0.1407	-60.16
0.4917,0.5083	-60.71
0.7385,0.2615	-61.02
0.7364,0.2636	-61.01
0.3281,0.6719	-61.54
0.2294,0.7706	-62.77
0.8755,0.1245	-60.23
0.4812,0.5188	-60.81
0.6549,0.3451	-60.09
0.7610,0.2390	-59.98
0.3472,0.6528	-62.01
0.2229,0.7771	-64.13
0.8959,0.1041	-60.35
0.4848,0.5152	-60.73
0.6779,0.3221	-60.04
0.7675,0.2325	-59.98
0.3428,0.6572	-61.42
0.2223,0.7777	-62.89
0.8885,0.1115	-60.30
0.4116,0.5884	-61.34
0.6799,0.3201	-60.04
0.7864,0.2136	-59.99
0.3451,0.6549	-61.40
0.2333,0.7667	-62.70
0.8959,0.1041	-60.35
0.4166,0.5834	-60.96
0.6297,0.3703	-60.15
0.7705,0.2295	-59.98
0.3928,0.6072	-61.52
0.2652,0.7348	-62.22
0.8775,0.1225	-60.24
0.4185,0.5815	-60.95
0.6179,0.3821	-60.18
0.6976,0.3024	-60.01
0.4350,0.5650	-60.88
0.2807,0.7193	-62.03
0.9034,0.0966	-60.40
0.4221,0.5779	-61.25
0.6511,0.3489	-60.09
0.7034,0.2966	-60.87
0.3938,0.6062	-61.08
0.2975,0.7025	-61.83
0.8789,0.1211	-60.25
0.4512,0.5488	-61.02
0.5868,0.4132	-60.29
0.7415,0.2585	-59.98
0.3609,0.6391	-61.85
0.3334,0.6666	-61.49
0.8520,0.1480	-60.13
0.3990,0.6010	-61.05
0.6155,0.3845	-60.19
0.7678,0.2322	-59.98
0.3897,0.6103	-61.10
0.3388,0.6612	-62.12
0.8522,0.1478	-60.13
0.3513,0.6487	-61.35
0.6863,0.3137	-60.03
0.7762,0.2238	-61.23
0.4199,0.5801	-60.95
0.3606,0.6394	-61.28
0.8594,0.1406	-60.16
0.3944,0.6056	-61.07
0.6836,0.3164	-60.80
0.8215,0.1785	-60.05
0.4277,0.5723	-61.20
0.4234,0.5766	-60.93
0.8337,0.1663	-60.08
0.3610,0.6390	-61.85
0.6401,0.3599	-60.12
0.7803,0.2197	-59.99
0.3957,0.6043	-61.49
0.4071,0.5929	-61.38
0.8779,0.1221	-62.22
0.3644,0.6356	-61.26
0.6835,0.3165	-60.03
0.7662,0.2338	-59.98
0.3933,0.6067	-61.08
0.4036,0.5964	-61.41
0.8693,0.1307	-62.10
0.3826,0.6174	-61.62
0.6988,0.3012	-60.01
0.7636,0.2364	-59.98
0.4996,0.5004	-60.70
0.4234,0.5766	-61.24
0.8589,0.1411	-60.16
0.4376,0.5624	-61.12
0.7097,0.2903	-60.89
0.7055,0.2945	-60.00
0.5351,0.4649	-60.51
0.4506,0.5494	-60.83
0.8426,0.1574	-60.10
0.3971,0.6029	-61.06
0.6992,0.3008	-60.85
0.7048,0.2952	-60.00
0.4840,0.5160	-60.79
0.4417,0.5583	-60.86
0.8509,0.1491	-60.13
0.3946,0.6054	-61.50
0.7365,0.2635	-61.01
0.7519,0.2481	-59.98
0.5183,0.4817	-60.67
0.5315,0.4685	-60.65
0.8495,0.1505	-60.12
0.3614,0.6386	-61.85
0.7563,0.2437	-59.98
0.7570,0.2430	-59.98
0.4998,0.5002	-60.70
0.5168,0.4832	-60.67
0.8759,0.1241	-60.23
0.4065,0.5935	-61.01
0.7137,0.2863	-59.99
0.7289,0.2711	-59.98
0.5549,0.4451	-60.64
0.4437,0.5563	-60.85
0.8901,0.1099	-60.31
0.4249,0.5751	-60.92
0.7107,0.2893	-60.00
0.6873,0.3127	-60.03
0.6171,0.3829	-60.18
0.3448,0.6552	-61.40
0.8917,0.1083	-60.32
0.4264,0.5736	-61.21
0.6930,0.3070	-60.83
0.7277,0.2723	-59.98
0.6105,0.3895	-60.20
0.3482,0.6518	-61.37
0.9026,0.0974	-60.40
0.3958,0.6042	-61.07
0.7229,0.2771	-60.95
0.7078,0.2922	-60.88
0.6155,0.3845	-60.66
0.3159,0.6841	-61.65
0.9132,0.0868	-60.48
0.4279,0.5721	-61.20
0.7561,0.2439	-59.98
0.7078,0.2922	-60.88
0.6073,0.3927	-60.21
0.3477,0.6523	-61.38
0.9144,0.0856	-60.49
0.3816,0.6184	-61.15
0.7340,0.2660	-61.00
0.7174,0.2826	-60.92
0.6197,0.3803	-60.18
0.3905,0.6095	-61.09
0.9059,0.0941	-60.42
0.3733,0.6267	-61.72
0.7350,0.2650	-61.00
0.7049,0.2951	-60.87
0.6745,0.3255	-60.78
0.4044,0.5956	-61.02
0.8906,0.1094	-60.31
0.4095,0.5905	-61.00
0.7324,0.2676	-59.98
0.6311,0.3689	-60.14
0.7027,0.2973	-60.87
0.4397,0.5603	-60.86
0.9010,0.0990	-60.38
0.3489,0.6511	-61.37
0.7555,0.2445	-61.10
0.6088,0.3912	-60.65
0.6833,0.3167	-60.03
0.4812,0.5188	-60.74
0.8902,0.1098	-60.31
0.3573,0.6427	-61.31
0.7268,0.2732	-59.98
0.6131,0.3869	-60.66
0.6709,0.3291	-60.05
0.4813,0.5187	-60.81
0.8951,0.1049	-60.34
0.3769,0.6231	-61.17
0.7233,0.2767	-59.99
0.5968,0.4032	-60.64
0.6920,0.3080	-60.02
0.4248,0.5752	-61.23
0.8971,0.1029	-60.36
0.4226,0.5774	-60.93
0.7039,0.2961	-60.00
0.5999,0.4001	-60.24
0.6380,0.3620	-60.13
0.4068,0.5932	-61.01
0.8888,0.1112	-60.30
0.4020,0.5980	-61.43
0.7099,0.2901	-60.89
0.6070,0.3930	-60.65
0.6235,0.3765	-60.17
0.4346,0.5654	-60.88
0.8623,0.1377	-62.01
0.3877,0.6123	-61.57
0.7198,0.2802	-59.99
0.5801,0.4199	-60.31
0.6928,0.3072	-60.83
0.4394,0.5606	-60.87
0.7949,0.2051	-60.00
0.4064,0.5936	-61.39
0.7764,0.2236	-61.23
0.6205,0.3795	-60.67
0.7092,0.2908	-60.89
0.4298,0.5702	-61.19
0.7917,0.2083	-61.33
0.3855,0.6145	-61.59
0.7496,0.2504	-61.07
0.6255,0.3745	-60.16
0.6784,0.3216	-60.04
0.4096,0.5904	-60.99
0.7899,0.2101	-60.00
0.3943,0.6057	-61.07
0.7597,0.2403	-59.98
0.6424,0.3576	-60.11
0.6563,0.3437	-60.73
0.3861,0.6139	-61.12
0.7407,0.2593	-61.03
0.4091,0.5909	-61.36
0.7442,0.2558	-59.98
0.6062,0.3938	-60.65
0.6908,0.3092	-60.02
0.3656,0.6344	-61.25
0.6766,0.3234	-60.04
0.4938,0.5062	-60.73
0.7274,0.2726	-59.98
0.7283,0.2717	-60.97
0.7011,0.2989	-60.01
0.3757,0.6243	-61.69
0.6402,0.3598	-60.12
0.4948,0.5052	-60.73
0.7164,0.2836	-59.99
0.7388,0.2612	-59.98
0.7474,0.2526	-59.98
0.3261,0.6739	-61.56
0.6305,0.3695	-60.15
0.5412,0.4588	-60.48
0.7230,0.2770	-60.95
0.7350,0.2650	-59.98
0.7154,0.2846	-60.91
0.3437,0.6563	-62.06
0.6218,0.3782	-60.17
0.5540,0.4460	-60.42
0.6537,0.3463	-60.09
0.7489,0.2511	-61.07
0.7079,0.2921	-60.00
0.3291,0.6709	-62.24
0.6648,0.3352	-60.06
0.5217,0.4783	-60.58
0.6982,0.3018	-60.85
0.7356,0.2644	-59.98
0.6257,0.3743	-60.16
0.3373,0.6627	-62.13
0.7037,0.2963	-60.87
0.5951,0.4049	-60.26
0.6781,0.3219	-60.04
0.7400,0.2600	-59.98
0.5878,0.4122	-60.28
0.3867,0.6133	-61.58
0.6963,0.3037	-60.84
0.5825,0.4175	-60.63
0.6844,0.3156	-60.03
0.7147,0.2853	-59.99
0.4973,0.5027	-60.71
0.3603,0.6397	-61.86
0.7255,0.2745	-60.96
0.6153,0.3847	-60.19
0.6932,0.3068	-60.02
0.7357,0.2643	-59.98
0.5118,0.4882	-60.68
0.4303,0.5697	-60.90
0.7511,0.2489	-59.98
0.6247,0.3753	-60.16
0.5979,0.4021	-60.64
0.7894,0.2106	-61.32
0.4767,0.5233	-60.84
0.4222,0.5778	-61.25
0.7247,0.2753	-59.99
0.6492,0.3508	-60.10
0.5945,0.4055	-60.64
0.7587,0.2413	-59.98
0.4303,0.5697	-61.18
0.4107,0.5893	-61.35
0.6795,0.3205	-60.79
0.6113,0.3887	-60.20
0.5796,0.4204	-60.31
0.7875,0.2125	-59.99
0.4023,0.5977	-61.43
0.4711,0.5289	-60.76
0.6421,0.3579	-60.70
0.6748,0.3252	-60.05
0.5327,0.4673	-60.65
0.7250,0.2750	-60.95
0.3231,0.6769	-61.58
0.4870,0.5130	-60.72
0.6280,0.3720	-60.68
0.6539,0.3461	-60.72
0.5858,0.4142	-60.29
0.7735,0.2265	-61.21
0.3092,0.6908	-61.71
0.4810,0.5190	-60.81
0.6281,0.3719	-60.15
0.6850,0.3150	-60.03
0.5652,0.4348	-60.37
0.7536,0.2464	-59.98
0.2988,0.7012	-61.82
0.5534,0.4466	-60.64
0.5953,0.4047	-60.25
0.7104,0.2896	-60.00
0.6064,0.3936	-60.65
0.8237,0.1763	-60.05
0.2691,0.7309	-63.17
0.4805,0.5195	-60.82
0.5740,0.4260	-60.33
0.7535,0.2465	-61.09
0.6178,0.3822	-60.66
0.8300,0.1700	-60.07
0.2798,0.7202	-62.04
0.5006,0.4994	-60.70
0.6715,0.3285	-60.05
0.7493,0.2507	-59.98
0.5934,0.4066	-60.26
0.8190,0.1810	-60.04
0.2889,0.7111	-61.93
0.4709,0.5291	-60.76
0.6255,0.3745	-60.67
0.7312,0.2688	-59.98
0.5693,0.4307	-60.35
0.8053,0.1947	-61.44
0.3233,0.6767	-62.32
0.3732,0.6268	-61.72
0.6500,0.3500	-60.72
0.7186,0.2814	-59.99
0.5751,0.4249	-60.33
0.8362,0.1638	-60.08
0.2552,0.7448	-62.36
0.4318,0.5682	-60.90
0.6312,0.3688	-60.14
0.6667,0.3333	-60.75
0.6026,0.3974	-60.23
0.8476,0.1524	-61.83
0.3017,0.6983	-61.79
0.4259,0.5741	-60.92
0.6784,0.3216	-60.79
0.7071,0.2929	-60.88
0.5759,0.4241	-60.33
0.8669,0.1331	-60.19
0.3313,0.6687	-61.51
0.4123,0.5877	-60.98
0.6911,0.3089	-60.83
0.7022,0.2978	-60.86
0.5548,0.4452	-60.41
0.8655,0.1345	-62.05
0.3925,0.6075	-61.08
0.3755,0.6245	-61.69
0.7088,0.2912	-60.89
0.7139,0.2861	-59.99
0.5169,0.4831	-60.67
0.8464,0.1536	-60.11
0.4227,0.5773	-60.93
0.4628,0.5372	-60.94
0.6996,0.3004	-60.01
0.7279,0.2721	-59.98
0.5281,0.4719	-60.54
0.8274,0.1726	-60.06
0.4567,0.5433	-60.81
0.5458,0.4542	-60.46
0.6639,0.3361	-60.07
0.7325,0.2675	-59.98
0.5326,0.4674	-60.65
0.8244,0.1756	-60.05
0.4626,0.5374	-60.79
0.4885,0.5115	-60.77
0.6599,0.3401	-60.07
0.7038,0.2962	-60.00
0.5206,0.4794	-60.66
0.8106,0.1894	-60.03
0.4829,0.5171	-60.80
0.4970,0.5030	-60.71
0.6223,0.3777	-60.67
0.6816,0.3184	-60.80
0.4777,0.5223	-60.75
0.8113,0.1887	-60.03
0.4519,0.5481	-60.82
0.5584,0.4416	-60.63
0.6404,0.3596	-60.12
0.6415,0.3585	-60.12
0.4118,0.5882	-60.98
0.7853,0.2147	-59.99
0.4979,0.5021	-60.70
0.5352,0.4648	-60.51
0.6687,0.3313	-60.06
0.6796,0.3204	-60.04
0.4288,0.5712	-60.91
0.8086,0.1914	-60.02
0.4806,0.5194	-60.82
0.5319,0.4681	-60.65
0.6734,0.3266	-60.77
0.6494,0.3506	-60.10
0.4532,0.5468	-60.82
0.8002,0.1998	-60.01
0.5560,0.4440	-60.41
0.5540,0.4460	-60.42
0.6221,0.3779	-60.17
0.6693,0.3307	-60.76
0.4834,0.5166	-60.80
0.8227,0.1773	-60.05
0.5562,0.4438	-60.63
0.5465,0.4535	-60.64
0.6715,0.3285	-60.05
0.7080,0.2920	-60.89
0.4829,0.5171	-60.80
0.8414,0.1586	-60.10
0.5535,0.4465	-60.42
0.5981,0.4019	-60.25
0.6628,0.3372	-60.74
0.7100,0.2900	-60.00
0.4824,0.5176	-60.73
0.8774,0.1226	-60.24
0.5465,0.4535	-60.64
0.6395,0.3605	-60.12
0.6423,0.3577	-60.12
0.6793,0.3207	-60.04
0.5084,0.4916	-60.68
0.8783,0.1217	-60.25
0.4660,0.5340	-60.78
0.6820,0.3180	-60.03
0.6526,0.3474	-60.09
0.6668,0.3332	-60.06
0.4615,0.5385	-60.95
0.8941,0.1059	-60.34
0.4241,0.5759	-60.93
0.7257,0.2743	-59.98
0.6307,0.3693	-60.68
0.6975,0.3025	-60.85
0.4631,0.5369	-60.93
0.8935,0.1065	-60.33
0.4109,0.5891	-61.35
0.7208,0.2792	-59.99
0.6027,0.3973	-60.65
0.7618,0.2382	-59.98
0.5009,0.4991	-60.69
0.9127,0.0873	-60.48
0.4020,0.5980	-61.03
0.7280,0.2720	-60.97
0.6283,0.3717	-60.15
0.7695,0.2305	-61.19
0.5086,0.4914	-60.68
0.9208,0.0792	-60.55
0.4024,0.5976	-61.43
0.6956,0.3044	-60.01
0.6655,0.3345	-60.75
0.7229,0.2771	-59.99
0.5602,0.4398	-60.63
0.9068,0.0932	-60.43
0.4005,0.5995	-61.44
0.7015,0.2985	-60.01
0.6830,0.3170	-60.80
0.7192,0.2808	-59.99
0.5723,0.4277	-60.34
0.9102,0.0898	-60.46
0.4433,0.5567	-60.85
0.7219,0.2781	-60.94
0.7058,0.2942	-60.88
0.7081,0.2919	-60.89
0.5260,0.4740	-60.66
0.9216,0.0784	-60.56
0.4909,0.5091	-60.71
0.6670,0.3330	-60.76
0.6967,0.3033	-60.84
0.7082,0.2918	-60.00
0.5544,0.4456	-60.64
0.9202,0.0798	-60.54
0.4497,0.5503	-60.83
0.6303,0.3697	-60.15
0.6299,0.3701	-60.15
0.6965,0.3035	-60.01
0.5442,0.4558	-60.64
0.9134,0.0866	-62.84
0.5256,0.4744	-60.66
0.6366,0.3634	-60.13
0.6169,0.3831	-60.18
0.7180,0.2820	-59.99
0.5676,0.4324	-60.36
0.9202,0.0798	-60.55
0.5482,0.4518	-60.44
0.6848,0.3152	-60.03
0.5858,0.4142	-60.29
0.7545,0.2455	-61.10
0.5856,0.4144	-60.64
0.9085,0.0915	-60.44
0.5256,0.4744	-60.55
0.7163,0.2837	-59.99
0.5543,0.4457	-60.42
0.7786,0.2214	-59.99
0.5743,0.4257	-60.33
0.8926,0.1074	-62.44
0.5254,0.4746	-60.66
0.7235,0.2765	-59.99
0.5388,0.4612	-60.49
0.7906,0.2094	-60.00
0.5652,0.4348	-60.37
0.8739,0.1261	-60.22
0.4455,0.5545	-60.84
0.6913,0.3087	-60.02
0.5070,0.4930	-60.68
0.7802,0.2198	-59.99
0.5339,0.4661	-60.65
0.8740,0.1260	-60.22
0.4129,0.5871	-60.98
0.6425,0.3575	-60.70
0.5280,0.4720	-60.54
0.7700,0.2300	-59.98
0.5211,0.4789	-60.58
0.8739,0.1261	-60.22
0.3678,0.6322	-61.23
0.6673,0.3327	-60.76
0.5000,0.5000	-60.70
0.7634,0.2366	-61.15
0.4914,0.5086	-60.71
0.8709,0.1291	-60.21
0.3891,0.6109	-61.10
0.6569,0.3431	-60.73
0.5329,0.4671	-60.52
0.7538,0.2462	-61.10
0.4863,0.5137	-60.73
0.8664,0.1336	-60.19
0.4063,0.5937	-61.01
0.6975,0.3025	-60.01
0.5701,0.4299	-60.35
0.7429,0.2571	-61.04
0.4670,0.5330	-60.91
0.8666,0.1334	-62.06
0.3815,0.6185	-61.15
0.7470,0.2530	-59.98
0.5572,0.4428	-60.40
0.7564,0.2436	-61.11
0.4361,0.5639	-61.14
0.8303,0.1697	-61.66
0.3852,0.6148	-61.12
0.6914,0.3086	-60.83
0.5137,0.4863	-60.62
0.7789,0.2211	-59.99
0.4331,0.5669	-61.16
0.8075,0.1925	-60.02
0.3424,0.6576	-62.07
0.6822,0.3178	-60.80
0.5137,0.4863	-60.62
0.7200,0.2800	-59.99
0.4618,0.5382	-60.94
0.8139,0.1861	-60.03
0.3670,0.6330	-61.78
0.7225,0.2775	-59.99
0.5065,0.4935	-60.66
0.7021,0.2979	-60.01
0.5121,0.4879	-60.63
0.8284,0.1716	-60.06
0.3720,0.6280	-61.21
0.7570,0.2430	-59.98
0.4974,0.5026	-60.71
0.6531,0.3469	-60.09
0.5252,0.4748	-60.56
0.8754,0.1246	-60.23
0.3072,0.6928	-62.55
0.7441,0.2559	-61.04
0.4890,0.5110	-60.72
0.6388,0.3612	-60.12
0.4897,0.5103	-60.76
0.8726,0.1274	-62.14
0.3068,0.6932	-62.55
0.7432,0.2568	-59.98
0.4364,0.5636	-61.13
0.6366,0.3634	-60.13
0.5242,0.4758	-60.56
0.8614,0.1386	-60.17
0.2892,0.7108	-62.83
0.7820,0.2180	-59.99
0.4401,0.5599	-61.10
0.5978,0.4022	-60.64
0.5519,0.4481	-60.43
0.8675,0.1325	-62.07
0.3121,0.6879	-61.69
0.7481,0.2519	-59.98
0.4342,0.5658	-60.89
0.6355,0.3645	-60.13
0.5736,0.4264	-60.34
0.8953,0.1047	-60.34
0.3152,0.6848	-62.43
0.7415,0.2585	-59.98
0.3910,0.6090	-61.09
0.5994,0.4006	-60.24
0.5483,0.4517	-60.44
0.9226,0.0774	-60.57
0.3756,0.6244	-61.18
0.7360,0.2640	-59.98
0.3749,0.6251	-61.19
0.5895,0.4105	-60.28
0.5570,0.4430	-60.63
0.9011,0.0989	-60.38
0.4379,0.5621	-60.87
0.6731,0.3269	-60.77
0.3844,0.6156	-61.13
0.6126,0.3874	-60.66
0.5803,0.4197	-60.31
0.8868,0.1132	-60.29
0.4167,0.5833	-60.96
0.6525,0.3475	-60.09
0.3644,0.6356	-61.81
0.6476,0.3524	-60.71
0.6303,0.3697	-60.68
0.8951,0.1049	-60.34
0.3750,0.6250	-61.19
0.6850,0.3150	-60.03
0.3322,0.6678	-62.20
0.6283,0.3717	-60.15
0.6154,0.3846	-60.66
0.8896,0.1104	-60.31
0.4087,0.5913	-61.37
0.6744,0.3256	-60.05
0.3727,0.6273	-61.20
0.6673,0.3327	-60.06
0.5942,0.4058	-60.26
0.9086,0.0914	-60.44
0.4103,0.5897	-61.35
0.5995,0.4005	-60.24
0.3690,0.6310	-61.76
0.6122,0.3878	-60.20
0.6057,0.3943	-60.22
0.9169,0.0831	-60.51
0.3801,0.6199	-61.16
0.5706,0.4294	-60.35
0.3751,0.6249	-61.19
0.6341,0.3659	-60.14
0.6158,0.3842	-60.19
0.9266,0.0734	-60.61
0.3450,0.6550	-61.40
0.5463,0.4537	-60.64
0.3302,0.6698	-61.52
0.5374,0.4626	-60.50
0.6475,0.3525	-60.10
0.9039,0.0961	-60.41
0.3517,0.6483	-61.35
0.5645,0.4355	-60.37
0.3161,0.6839	-61.65
0.5500,0.4500	-60.64
0.6096,0.3904	-60.21
0.9124,0.0876	-60.47
0.3518,0.6482	-61.35
0.5948,0.4052	-60.64
0.3615,0.6385	-61.28
0.4989,0.5011	-60.70
0.5332,0.4668	-60.65
0.9018,0.0982	-60.39
0.3173,0.6827	-61.64
0.4859,0.5141	-60.73
0.4295,0.5705	-60.91
0.4201,0.5799	-60.95
0.5390,0.4610	-60.64
0.8970,0.1030	-60.36
0.3525,0.6475	-61.34
0.4871,0.5129	-60.77
0.4202,0.5798	-60.94
0.4562,0.5438	-60.81
0.5458,0.4542	-60.64
0.9120,0.0880	-60.47
0.3765,0.6235	-61.18
0.4521,0.5479	-60.82
0.4461,0.5539	-60.84
0.4226,0.5774	-61.25
0.5460,0.4540	-60.64
0.8929,0.1071	-60.33
0.3720,0.6280	-61.73
0.4391,0.5609	-61.11
0.3964,0.6036	-61.06
0.3552,0.6448	-61.32
0.5760,0.4240	-60.33
0.9010,0.0990	-60.38
0.3454,0.6546	-62.03
0.4912,0.5088	-60.71
0.3460,0.6540	-62.03
0.3631,0.6369	-61.27
0.5586,0.4414	-60.63
0.9139,0.0861	-60.49
0.3687,0.6313	-61.23
0.5208,0.4792	-60.66
0.3225,0.6775	-62.33
0.3858,0.6142	-61.12
0.5654,0.4346	-60.37
0.9259,0.0741	-60.60
0.4177,0.5823	-60.96
0.5122,0.4878	-60.68
0.2993,0.7007	-62.67
0.4223,0.5777	-61.25
0.6271,0.3729	-60.16
0.9216,0.0784	-60.56
0.4347,0.5653	-61.15
0.5355,0.4645	-60.51
0.3325,0.6675	-61.50
0.3996,0.6004	-61.04
0.6043,0.3957	-60.22
0.9281,0.0719	-60.63
0.4279,0.5721	-60.91
0.4717,0.5283	-60.87
0.3696,0.6304	-61.76
0.3486,0.6514	-62.00
0.6077,0.3923	-60.21
0.9514,0.0486	-60.96
0.4436,0.5564	-60.85
0.5045,0.4955	-60.67
0.4111,0.5889	-61.35
0.3882,0.6118	-61.11
0.6175,0.3825	-60.18
0.9439,0.0561	-60.83
0.4574,0.5426	-60.80
0.4910,0.5090	-60.75
0.4013,0.5987	-61.44
0.4036,0.5964	-61.02
0.6724,0.3276	-60.05
0.9511,0.0489	-60.95
0.4220,0.5780	-60.94
0.5370,0.4630	-60.50
0.4215,0.5785	-60.94
0.4454,0.5546	-60.84
0.6818,0.3182	-60.03
0.9569,0.0431	-61.06
0.4918,0.5082	-60.71
0.5746,0.4254	-60.63
0.3846,0.6154	-61.60
0.5008,0.4992	-60.69
0.6456,0.3544	-60.71
0.9515,0.0485	-60.96
0.4003,0.5997	-61.04
0.5959,0.4041	-60.25
0.3805,0.6195	-61.64
0.5268,0.4732	-60.55
0.6598,0.3402	-60.08
0.9500,0.0500	-60.93
0.4406,0.5594	-61.10
0.5435,0.4565	-60.64
0.3982,0.6018	-61.05
0.4783,0.5217	-60.74
0.5896,0.4104	-60.27
0.9555,0.0445	-61.03
0.4541,0.5459	-60.81
0.5500,0.4500	-60.64
0.3930,0.6070	-61.52
0.4482,0.5518	-61.04
0.6056,0.3944	-60.65
0.9578,0.0422	-61.08
0.5233,0.4767	-60.66
0.5584,0.4416	-60.40
0.3486,0.6514	-61.37
0.4458,0.5542	-60.84
0.6330,0.3670	-60.14
0.9648,0.0352	-61.24
0.4995,0.5005	-60.70
0.5970,0.4030	-60.64
0.3896,0.6104	-61.10
0.4002,0.5998	-61.04
0.6131,0.3869	-60.20
0.9590,0.0410	-61.10
0.4103,0.5897	-61.35
0.4990,0.5010	-60.70
0.3199,0.6801	-61.61
0.3999,0.6001	-61.45
0.5950,0.4050	-60.26
0.9591,0.0409	-61.11
0.4521,0.5479	-60.82
0.5435,0.4565	-60.47
0.3178,0.6822	-61.63
0.4113,0.5887	-60.99
0.6495,0.3505	-60.71
0.9511,0.0489	-60.95
0.5174,0.4826	-60.60
0.5769,0.4231	-60.32
0.3066,0.6934	-61.74
0.4546,0.5454	-60.99
0.6015,0.3985	-60.23
0.9507,0.0493	-60.94
0.5018,0.4982	-60.69
0.5842,0.4158	-60.29
0.3042,0.6958	-61.76
0.4452,0.5548	-61.06
0.6601,0.3399	-60.07
0.9607,0.0393	-61.14
0.4942,0.5058	-60.73
0.6525,0.3475	-60.72
0.2921,0.7079	-62.78
0.4471,0.5529	-61.05
0.6757,0.3243	-60.78
0.9592,0.0408	-61.11
0.4329,0.5671	-60.89
0.6163,0.3837	-60.19
0.3911,0.6089	-61.53
0.4300,0.5700	-61.19
0.5907,0.4093	-60.27
0.9631,0.0369	-61.20
0.4695,0.5305	-60.89
0.6631,0.3369	-60.07
0.3556,0.6444	-61.32
0.4653,0.5347	-60.78
0.6192,0.3808	-60.66
0.9597,0.0403	-61.12
0.4916,0.5084	-60.75
0.6423,0.3577	-60.70
0.3892,0.6108	-61.10
0.5529,0.4471	-60.64
0.6440,0.3560	-60.70
0.9601,0.0399	-61.13
0.5317,0.4683	-60.52
0.6681,0.3319	-60.76
0.3536,0.6464	-61.33
0.5743,0.4257	-60.33
0.6083,0.3917	-60.21
0.9607,0.0393	-61.14
0.5177,0.4823	-60.60
0.6240,0.3760	-60.16
0.3406,0.6594	-61.43
0.5646,0.4354	-60.63
0.6822,0.3178	-60.03
0.9652,0.0348	-61.25
0.4745,0.5255	-60.86
0.7542,0.2458	-59.98
0.3555,0.6445	-61.91
0.5690,0.4310	-60.63
0.6660,0.3340	-60.06
0.9768,0.0232	-61.63
0.4830,0.5170	-60.80
0.7012,0.2988	-60.01
0.4713,0.5287	-60.88
0.6135,0.3865	-60.66
0.6543,0.3457	-60.72
0.9752,0.0248	-61.57
0.5410,0.4590	-60.64
0.6442,0.3558	-60.11
0.4616,0.5384	-60.79
0.6761,0.3239	-60.04
0.6839,0.3161	-60.03
0.9810,0.0190	-61.82
0.5553,0.4447	-60.63
0.6474,0.3526	-60.10
0.4299,0.5701	-61.19
0.6903,0.3097	-60.82
0.6783,0.3217	-60.04
0.9800,0.0200	-61.77
0.5180,0.4820	-60.67
0.6113,0.3887	-60.20
0.4428,0.5572	-60.85
0.7134,0.2866	-60.91
0.6464,0.3536	-60.11
0.9807,0.0193	-61.80
0.5290,0.4710	-60.54
0.6335,0.3665	-60.68
0.4783,0.5217	-60.83
0.6473,0.3527	-60.10
0.6589,0.3411	-60.74
0.9763,0.0237	-61.61
0.5187,0.4813	-60.67
0.6254,0.3746	-60.16
0.4745,0.5255	-60.86
0.6069,0.3931	-60.22
0.6376,0.3624	-60.13
0.9746,0.0254	-61.55
0.4476,0.5524	-60.84
0.6371,0.3629	-60.13
0.4204,0.5796	-61.27
0.6323,0.3677	-60.68
0.6052,0.3948	-60.22
0.9735,0.0265	-61.51
0.4219,0.5781	-60.94
0.5061,0.4939	-60.66
0.4076,0.5924	-61.00
0.6112,0.3888	-60.20
0.6309,0.3691	-60.68
0.9708,0.0292	-61.42
0.4228,0.5772	-61.24
0.4171,0.5829	-60.96
0.4252,0.5748	-60.92
0.6022,0.3978	-60.65
0.6113,0.3887	-60.65
0.9650,0.0350	-61.25
0.4114,0.5886	-61.34
0.3988,0.6012	-61.05
0.3758,0.6242	-61.69
0.6293,0.3707	-60.15
0.6031,0.3969	-60.65
0.9575,0.0425	-61.07
0.4666,0.5334	-60.91
0.3930,0.6070	-61.08
0.4051,0.5949	-61.40
0.6382,0.3618	-60.13
0.6112,0.3888	-60.20
0.9476,0.0524	-60.89
0.4536,0.5464	-61.00
0.3558,0.6442	-61.32
0.3888,0.6112	-61.10
0.6229,0.3771	-60.17
0.6066,0.3934	-60.65
0.9512,0.0488	-60.95
0.4830,0.5170	-60.73
0.4151,0.5849	-60.97
0.3797,0.6203	-61.16
0.5807,0.4193	-60.63
0.5677,0.4323	-60.36
0.9568,0.0432	-61.06
0.5238,0.4762	-60.56
0.4173,0.5827	-60.96
0.3884,0.6116	-61.56
0.6164,0.3836	-60.19
0.5430,0.4570	-60.64
0.9516,0.0484	-60.96
0.5089,0.4911	-60.68
0.4207,0.5793	-60.94
0.4139,0.5861	-60.97
0.6151,0.3849	-60.66
0.5820,0.4180	-60.30
0.9514,0.0486	-60.96
0.5349,0.4651	-60.65
0.4745,0.5255	-60.86
0.4134,0.5866	-61.33
0.6442,0.3558	-60.11
0.5509,0.4491	-60.43
0.9508,0.0492	-60.94
0.5253,0.4747	-60.66
0.4289,0.5711	-60.91
0.4660,0.5340	-60.91
0.6286,0.3714	-60.68
0.5672,0.4328	-60.63
0.9564,0.0436	-61.05
0.5841,0.4159	-60.63
0.4649,0.5351	-60.78
0.4886,0.5114	-60.72
0.5653,0.4347	-60.63
0.5708,0.4292	-60.35
0.9479,0.0521	-60.89
0.5727,0.4273	-60.63
0.4658,0.5342	-60.92
0.5146,0.4854	-60.67
0.5495,0.4505	-60.44
0.6037,0.3963	-60.23
0.9419,0.0581	-60.80
0.5476,0.4524	-60.45
0.5360,0.4640	-60.65
0.5467,0.4533	-60.45
0.6324,0.3676	-60.14
0.5837,0.4163	-60.30
0.9343,0.0657	-60.70
0.6408,0.3592	-60.12
0.4593,0.5407	-60.80
0.5881,0.4119	-60.28
0.6086,0.3914	-60.65
0.5216,0.4784	-60.66
0.9377,0.0623	-60.74
0.5559,0.4441	-60.41
0.4620,0.5380	-60.79
0.5621,0.4379	-60.63
0.6579,0.3421	-60.08
0.5237,0.4763	-60.57
0.9255,0.0745	-60.60
0.5066,0.4934	-60.66
0.4213,0.5787	-60.94
0.5185,0.4815	-60.59
0.6406,0.3594	-60.12
0.4928,0.5072	-60.74
0.9301,0.0699	-60.65
0.4830,0.5170	-60.80
0.4235,0.5765	-61.24
0.5752,0.4248	-60.63
0.6742,0.3258	-60.05
0.5151,0.4849	-60.61
0.9436,0.0564	-63.64
0.5203,0.4797	-60.58
0.4421,0.5579	-60.86
0.5770,0.4230	-60.63
0.6263,0.3737	-60.67
0.5218,0.4782	-60.58
0.9406,0.0594	-60.78
0.5057,0.4943	-60.66
0.4531,0.5469	-60.82
0.6340,0.3660	-60.14
0.6631,0.3369	-60.07
0.5169,0.4831	-60.60
0.9363,0.0637	-60.73
0.5168,0.4832	-60.60
0.4638,0.5362	-60.78
0.6535,0.3465	-60.09
0.6874,0.3126	-60.81
0.5224,0.4776	-60.66
0.9326,0.0674	-60.68
0.5040,0.4960	-60.67
0.4694,0.5306	-60.77
0.6262,0.3738	-60.16
0.6116,0.3884	-60.20
0.5240,0.4760	-60.56
0.9199,0.0801	-60.54
0.5057,0.4943	-60.66
0.5023,0.4977	-60.68
0.6191,0.3809	-60.66
0.5761,0.4239	-60.63
0.5076,0.4924	-60.68
0.9262,0.0738	-60.61
0.4728,0.5272	-60.87
0.5383,0.4617	-60.64
0.6260,0.3740	-60.16
0.5637,0.4363	-60.38
0.5485,0.4515	-60.64
0.9318,0.0682	-63.28
0.5052,0.4948	-60.69
0.5979,0.4021	-60.64
0.6175,0.3825	-60.18
0.5648,0.4352	-60.63
0.5587,0.4413	-60.40
0.9292,0.0708	-60.64
0.4825,0.5175	-60.73
0.6344,0.3656	-60.69
0.6164,0.3836	-60.19
0.6537,0.3463	-60.09
0.5854,0.4146	-60.29
0.9317,0.0683	-60.67
0.5092,0.4908	-60.64
0.6390,0.3610	-60.12
0.6254,0.3746	-60.67
0.6470,0.3530	-60.10
0.6906,0.3094	-60.02
0.9361,0.0639	-60.72
0.5387,0.4613	-60.64
0.6533,0.3467	-60.72
0.6197,0.3803	-60.66
0.6577,0.3423	-60.08
0.6395,0.3605	-60.12
0.9237,0.0763	-60.58
0.5864,0.4136	-60.29
0.6507,0.3493	-60.72
0.6082,0.3918	-60.21
0.6545,0.3455	-60.09
0.5952,0.4048	-60.25
0.9141,0.0859	-60.49
0.5548,0.4452	-60.42
0.5551,0.4449	-60.41
0.6823,0.3177	-60.03
0.6719,0.3281	-60.77
0.6160,0.3840	-60.19
0.9231,0.0769	-60.57
0.5530,0.4470	-60.42
0.6173,0.3827	-60.18
0.6461,0.3539	-60.11
0.6828,0.3172	-60.03
0.6578,0.3422	-60.73
0.9136,0.0864	-60.48
0.6199,0.3801	-60.18
0.6004,0.3996	-60.24
0.6424,0.3576	-60.11
0.7437,0.2563	-59.98
0.7035,0.2965	-60.00
0.9116,0.0884	-60.47
0.6116,0.3884	-60.65
0.5857,0.4143	-60.29
0.6197,0.3803	-60.18
0.7091,0.2909	-60.00
0.7255,0.2745	-60.96
0.9144,0.0856	-60.49
0.5496,0.4504	-60.44
0.5837,0.4163	-60.63
0.6205,0.3795	-60.67
0.6715,0.3285	-60.05
0.7557,0.2443	-59.98
0.9261,0.0739	-60.61
0.5171,0.4829	-60.60
0.5840,0.4160	-60.30
0.7028,0.2972	-60.01
0.6293,0.3707	-60.68
0.7795,0.2205	-59.99
0.9237,0.0763	-60.58
0.5355,0.4645	-60.51
0.5960,0.4040	-60.25
0.7021,0.2979	-60.01
0.6348,0.3652	-60.13
0.7846,0.2154	-59.99
0.9165,0.0835	-62.91
0.5741,0.4259	-60.33
0.6374,0.3626	-60.13
0.7212,0.2788	-59.99
0.6474,0.3526	-60.71
0.7674,0.2326	-59.98
0.8991,0.1009	-60.37
0.6323,0.3677	-60.14
0.6447,0.3553	-60.11
0.7368,0.2632	-59.98
0.6738,0.3262	-60.05
0.7445,0.2555	-59.98
0.8849,0.1151	-60.28
0.5961,0.4039	-60.64
0.5535,0.4465	-60.42
0.7443,0.2557	-59.98
0.6916,0.3084	-60.02
0.7503,0.2497	-59.98
0.8730,0.1270	-60.22
0.6312,0.3688	-60.14
0.5274,0.4726	-60.55
0.7945,0.2055	-60.00
0.6695,0.3305	-60.06
0.7767,0.2233	-59.98
0.8609,0.1391	-60.17
0.5896,0.4104	-60.28
0.4954,0.5046	-60.71
0.7524,0.2476	-59.98
0.6669,0.3331	-60.06
0.7682,0.2318	-59.98
0.8529,0.1471	-60.14
0.5970,0.4030	-60.25
0.4913,0.5087	-60.71
0.7892,0.2108	-60.00
0.6833,0.3167	-60.03
0.7458,0.2542	-59.98
0.8672,0.1328	-60.19
0.6325,0.3675	-60.68
0.5428,0.4572	-60.47
0.7367,0.2633	-59.98
0.6477,0.3523	-60.10
0.7699,0.2301	-61.19
0.8563,0.1437	-61.93
0.6275,0.3725	-60.68
0.5463,0.4537	-60.45
0.7306,0.2694	-59.98
0.6414,0.3586	-60.12
0.7456,0.2544	-61.05
0.8748,0.1252	-60.23
0.6121,0.3879	-60.66
0.6016,0.3984	-60.65
0.7292,0.2708	-60.97
0.6574,0.3426	-60.08
0.7399,0.2601	-61.02
0.8758,0.1242	-60.23
0.6204,0.3796	-60.67
0.5634,0.4366	-60.38
0.7557,0.2443	-59.98
0.6415,0.3585	-60.70
0.7581,0.2419	-61.12
0.8890,0.1110	-60.31
0.6147,0.3853	-60.19
0.5363,0.4637	-60.50
0.7698,0.2302	-61.19
0.6303,0.3697	-60.68
0.7894,0.2106	-60.00
0.8861,0.1139	-60.29
0.6046,0.3954	-60.65
0.5701,0.4299	-60.63
0.7649,0.2351	-59.98
0.5832,0.4168	-60.30
0.8145,0.1855	-60.03
0.8939,0.1061	-60.34
0.5753,0.4247	-60.33
0.6163,0.3837	-60.66
0.7860,0.2140	-59.99
0.6161,0.3839	-60.19
0.8153,0.1847	-60.03
0.8820,0.1180	-60.27
0.5876,0.4124	-60.28
0.6516,0.3484	-60.72
0.8101,0.1899	-60.02
0.5565,0.4435	-60.63
0.8405,0.1595	-60.10
0.8840,0.1160	-60.28
0.5328,0.4672	-60.65
0.6551,0.3449	-60.73
0.7725,0.2275	-59.98
0.4931,0.5069	-60.71
0.8262,0.1738	-60.06
0.8745,0.1255	-60.23
0.5484,0.4516	-60.64
0.6363,0.3637	-60.13
0.7905,0.2095	-60.00
0.4842,0.5158	-60.73
0.8013,0.1987	-60.01
0.9071,0.0929	-60.43
0.5645,0.4355	-60.37
0.6218,0.3782	-60.17
0.7749,0.2251	-59.98
0.5327,0.4673	-60.52
0.8086,0.1914	-60.02
0.9207,0.0793	-60.55
0.6009,0.3991	-60.64
0.6411,0.3589	-60.12
0.7868,0.2132	-59.99
0.5264,0.4736	-60.66
0.8147,0.1853	-61.51
0.9243,0.0757	-60.59
0.5710,0.4290	-60.63
0.6112,0.3888	-60.20
0.8048,0.1952	-60.02
0.5548,0.4452	-60.64
0.7839,0.2161	-59.99
0.9339,0.0661	-60.70
0.5954,0.4046	-60.64
0.6005,0.3995	-60.24
0.8278,0.1722	-61.63
0.5667,0.4333	-60.63
0.7918,0.2082	-61.33
0.9308,0.0692	-60.66
0.6517,0.3483	-60.72
0.6311,0.3689	-60.14
0.8360,0.1640	-60.08
0.5520,0.4480	-60.43
0.7940,0.2060	-60.00
0.9146,0.0854	-60.49
0.6404,0.3596	-60.12
0.7109,0.2891	-60.00
0.8288,0.1712	-60.06
0.4962,0.5038	-60.70
0.8199,0.1801	-60.04
0.9303,0.0697	-60.65
0.6507,0.3493	-60.09
0.6753,0.3247	-60.05
0.8380,0.1620	-60.09
0.4897,0.5103	-60.72
0.8492,0.1508	-61.85
0.9186,0.0814	-60.53
0.6503,0.3497	-60.72
0.6919,0.3081	-60.02
0.8458,0.1542	-60.11
0.4768,0.5232	-60.75
0.8685,0.1315	-60.20
0.9025,0.0975	-60.39
0.6340,0.3660	-60.69
0.7204,0.2796	-59.99
0.8757,0.1243	-60.23
0.5229,0.4771	-60.66
0.8567,0.1433	-60.15
0.9145,0.0855	-60.49
0.6589,0.3411	-60.74
0.7089,0.2911	-60.89
0.8575,0.1425	-60.15
0.5113,0.4887	-60.68
0.8640,0.1360	-60.18
0.9202,0.0798	-62.99
0.6611,0.3389	-60.07
0.6800,0.3200	-60.04
0.8513,0.1487	-60.13
0.5257,0.4743	-60.55
0.8504,0.1496	-61.86
0.9276,0.0724	-60.62
0.7202,0.2798	-60.93
0.7331,0.2669	-60.99
0.8645,0.1355	-62.03
0.5238,0.4762	-60.56
0.8648,0.1352	-60.18
0.9051,0.0949	-60.41
0.7473,0.2527	-61.06
0.7597,0.2403	-59.98
0.8754,0.1246	-60.23
0.4829,0.5171	-60.73
0.8639,0.1361	-60.18
0.9030,0.0970	-60.40
0.7286,0.2714	-59.98
0.8070,0.1930	-60.02
0.8868,0.1132	-62.35
0.4080,0.5920	-61.00
0.8532,0.1468	-60.14
0.9054,0.0946	-60.42
0.6881,0.3119	-60.82
0.7872,0.2128	-59.99
0.8761,0.1239	-60.23
0.3786,0.6214	-61.16
0.8543,0.1457	-61.91
0.9010,0.0990	-60.38
0.6171,0.3829	-60.66
0.8044,0.1956	-60.02
0.8946,0.1054	-60.34
0.4693,0.5307	-60.77
0.8505,0.1495	-60.13
0.8660,0.1340	-60.19
0.6047,0.3953	-60.22
0.7822,0.2178	-61.27
0.9113,0.0887	-60.46
0.4063,0.5937	-61.01
0.8599,0.1401	-60.16
0.8428,0.1572	-60.10
0.6205,0.3795	-60.17
0.8028,0.1972	-60.01
0.9155,0.0845	-60.50
0.3895,0.6105	-61.10
0.8421,0.1579	-60.10
0.8545,0.1455	-60.14
0.6466,0.3534	-60.71
0.8330,0.1670	-60.07
0.9021,0.0979	-60.39
0.4015,0.5985	-61.43
0.8361,0.1639	-60.08
0.8409,0.1591	-60.10
0.6688,0.3312	-60.06
0.8340,0.1660	-60.08
0.9095,0.0905	-60.45
0.3828,0.6172	-61.62
0.8397,0.1603	-60.09
0.8135,0.1865	-60.03
0.7232,0.2768	-60.95
0.8246,0.1754	-61.60
0.9095,0.0905	-62.76
0.4097,0.5903	-60.99
0.8556,0.1444	-60.15
0.8085,0.1915	-61.46
0.7744,0.2256	-61.22
0.7413,0.2587	-61.03
0.9328,0.0672	-60.68
0.4359,0.5641	-60.88
0.8331,0.1669	-60.07
0.7530,0.2470	-59.98
0.7515,0.2485	-59.98
0.7354,0.2646	-59.98
0.9133,0.0867	-60.48
0.3928,0.6072	-61.52
0.8313,0.1687	-60.07
0.7409,0.2591	-61.03
0.7629,0.2371	-59.98
0.7542,0.2458	-59.98
0.8789,0.1211	-60.25
0.4134,0.5866	-60.98
0.8123,0.1877	-60.03
0.7516,0.2484	-59.98
0.8035,0.1965	-61.42
0.7206,0.2794	-60.94
0.9012,0.0988	-60.39
0.3699,0.6301	-61.75
0.8117,0.1883	-60.03
0.7158,0.2842	-59.99
0.7885,0.2115	-61.31
0.6692,0.3308	-60.06
0.8908,0.1092	-62.42
0.3909,0.6091	-61.09
0.8353,0.1647	-60.08
0.7038,0.2962	-60.00
0.7456,0.2544	-59.98
0.6346,0.3654	-60.13
0.8958,0.1042	-60.35
0.3301,0.6699	-62.23
0.8137,0.1863	-60.03
0.7310,0.2690	-59.98
0.7316,0.2684	-60.98
0.6923,0.3077	-60.02
0.9192,0.0808	-60.54
0.3912,0.6088	-61.53
0.7945,0.2055	-60.00
0.7419,0.2581	-59.98
0.7930,0.2070	-60.00
0.7334,0.2666	-59.98
0.9156,0.0844	-60.50
0.4360,0.5640	-60.88
0.7947,0.2053	-60.00
0.6731,0.3269	-60.05
0.7665,0.2335	-59.98
0.7320,0.2680	-59.98
0.9091,0.0909	-60.45
0.3755,0.6245	-61.18
0.7946,0.2054	-60.00
0.6754,0.3246	-60.78
0.7765,0.2235	-59.98
0.6954,0.3046	-60.01
0.9231,0.0769	-60.57
0.3749,0.6251	-61.19
0.7650,0.2350	-59.98
0.6940,0.3060	-60.02
0.7725,0.2275	-59.98
0.7304,0.2696	-59.98
0.9306,0.0694	-60.66
0.4008,0.5992	-61.04
0.7531,0.2469	-59.98
0.6981,0.3019	-60.01
0.7729,0.2271	-59.98
0.7344,0.2656	-59.98
0.9342,0.0658	-63.35
0.3644,0.6356	-61.26
0.7575,0.2425	-59.98
0.7158,0.2842	-59.99
0.7890,0.2110	-60.00
0.7627,0.2373	-59.98
0.9130,0.0870	-60.48
0.3815,0.6185	-61.15
0.7808,0.2192	-59.99
0.7416,0.2584	-59.98
0.7556,0.2444	-59.98
0.7635,0.2365	-59.98
0.9183,0.0817	-60.53
0.4444,0.5556	-61.07
0.7922,0.2078	-60.00
0.7447,0.2553	-59.98
0.7147,0.2853	-59.99
0.7502,0.2498	-59.98
0.9120,0.0880	-60.47
0.4281,0.5719	-60.91
0.7997,0.2003	-61.39
0.7335,0.2665	-60.99
0.6872,0.3128	-60.81
0.7614,0.2386	-59.98
0.9091,0.0909	-60.45
0.4336,0.5664	-61.16
0.7728,0.2272	-59.98
0.7365,0.2635	-59.98
0.6061,0.3939	-60.22
0.7549,0.2451	-61.10
0.9230,0.0770	-60.57
0.5249,0.4751	-60.56
0.7784,0.2216	-59.99
0.7443,0.2557	-61.05
0.6417,0.3583	-60.70
0.7557,0.2443	-61.11
0.9226,0.0774	-60.57
0.5152,0.4848	-60.67
0.7964,0.2036	-60.00
0.7212,0.2788	-60.94
0.7294,0.2706	-59.98
0.7542,0.2458	-59.98
0.9139,0.0861	-60.49
0.5075,0.4925	-60.68
0.8031,0.1969	-60.01
0.6816,0.3184	-60.80
0.7548,0.2452	-59.98
0.6622,0.3378	-60.07
0.9059,0.0941	-60.42
0.5176,0.4824	-60.60
0.8224,0.1776	-60.05
0.6395,0.3605	-60.70
0.7349,0.2651	-61.00
0.6796,0.3204	-60.04
0.8886,0.1114	-60.30
0.5177,0.4823	-60.60
0.8116,0.1884	-60.03
0.5949,0.4051	-60.26
0.7097,0.2903	-60.00
0.7037,0.2963	-60.00
0.9039,0.0961	-60.41
0.4955,0.5045	-60.72
0.8356,0.1644	-60.08
0.6368,0.3632	-60.69
0.7322,0.2678	-60.99
0.7178,0.2822	-59.99
0.8921,0.1079	-62.44
0.5651,0.4349	-60.63
0.8046,0.1954	-60.02
0.6562,0.3438	-60.08
0.7708,0.2292	-59.98
0.7340,0.2660	-59.98
0.9044,0.0956	-60.41
0.5728,0.4272	-60.34
0.8145,0.1855	-60.03
0.6102,0.3898	-60.65
0.8165,0.1835	-60.04
0.7204,0.2796	-59.99
0.8983,0.1017	-62.54
0.5256,0.4744	-60.66
0.8184,0.1816	-60.04
0.6231,0.3769	-60.17
0.7890,0.2110	-61.31
0.7155,0.2845	-59.99
0.8973,0.1027	-60.36
0.5166,0.4834	-60.60
0.8369,0.1631	-61.72
0.6445,0.3555	-60.11
0.7652,0.2348	-59.98
0.7286,0.2714	-60.97
0.8844,0.1156	-60.28
0.5172,0.4828	-60.60
0.8596,0.1404	-61.97
0.6208,0.3792	-60.67
0.7983,0.2017	-60.01
0.7351,0.2649	-59.98
0.8800,0.1200	-60.25
0.4986,0.5014	-60.70
0.8635,0.1365	-60.18
0.6324,0.3676	-60.68
0.7774,0.2226	-59.99
0.7288,0.2712	-59.98
0.8688,0.1312	-60.20
0.4570,0.5430	-60.80
0.8839,0.1161	-60.28
0.6332,0.3668	-60.68
0.7433,0.2567	-59.98
0.7261,0.2739	-59.98
0.8603,0.1397	-61.98
0.4653,0.5347	-60.78
0.8974,0.1026	-60.36
0.5782,0.4218	-60.32
0.7013,0.2987	-60.01
0.7243,0.2757	-60.95
0.8459,0.1541	-61.81
0.4738,0.5262	-60.86
0.8769,0.1231	-60.24
0.5508,0.4492	-60.43
0.7355,0.2645	-59.98
0.7593,0.2407	-61.13
0.8126,0.1874	-61.50
0.5351,0.4649	-60.51
0.8773,0.1227	-60.24
0.5870,0.4130	-60.28
0.6752,0.3248	-60.05
0.7919,0.2081	-60.00
0.8302,0.1698	-60.07
0.5572,0.4428	-60.63
0.8565,0.1435	-60.15
0.5117,0.4883	-60.63
0.6941,0.3059	-60.02
0.7036,0.2964	-60.87
0.7855,0.2145	-59.99
0.5237,0.4763	-60.56
0.8728,0.1272	-60.22
0.5156,0.4844	-60.61
0.7204,0.2796	-59.99
0.6910,0.3090	-60.02
0.7780,0.2220	-61.24
0.5074,0.4926	-60.65
0.8697,0.1303	-62.10
0.4910,0.5090	-60.75
0.7374,0.2626	-61.01
0.6606,0.3394	-60.07
0.7723,0.2277	-61.20
0.4913,0.5087	-60.71
0.8797,0.1203	-60.25
0.4277,0.5723	-60.91
0.7458,0.2542	-59.98
0.7038,0.2962	-60.00
0.7608,0.2392	-61.13
0.5167,0.4833	-60.60
0.8889,0.1111	-60.30
0.4662,0.5338	-60.78
0.7015,0.2985	-60.01
0.7250,0.2750	-59.99
0.7523,0.2477	-59.98
0.5318,0.4682	-60.52
0.8927,0.1073	-60.33
0.4894,0.5106	-60.72
0.6997,0.3003	-60.01
0.7510,0.2490	-61.08
0.7451,0.2549	-59.98
0.5416,0.4584	-60.64
0.9182,0.0818	-62.94
0.5299,0.4701	-60.65
0.6867,0.3133	-60.81
0.7735,0.2265	-59.98
0.7672,0.2328	-59.98
0.5690,0.4310	-60.35
0.9078,0.0922	-60.44
0.4974,0.5026	-60.71
0.7504,0.2496	-59.98
0.7613,0.2387	-59.98
0.7736,0.2264	-59.98
0.5775,0.4225	-60.32
0.9120,0.0880	-60.47
0.4434,0.5566	-60.85
0.7458,0.2542	-61.05
0.7259,0.2741	-59.98
0.7905,0.2095	-60.00
0.5908,0.4092	-60.64
0.9131,0.0869	-60.48
0.4462,0.5538	-61.06
0.7455,0.2545	-59.98
0.7296,0.2704	-59.98
0.7991,0.2009	-61.39
0.5694,0.4306	-60.63
0.9327,0.0673	-60.68
0.5261,0.4739	-60.66
0.7209,0.2791	-59.99
0.7061,0.2939	-60.88
0.7802,0.2198	-59.99
0.5869,0.4131	-60.64
0.9211,0.0789	-60.55
0.5350,0.4650	-60.65
0.7028,0.2972	-60.01
0.6870,0.3130	-60.81
0.7534,0.2466	-61.09
0.5821,0.4179	-60.30
0.9169,0.0831	-60.51
0.5469,0.4531	-60.45
0.7125,0.2875	-60.00
0.7060,0.2940	-60.00
0.7588,0.2412	-59.98
0.5830,0.4170	-60.63
0.9106,0.0894	-60.46
0.5145,0.4855	-60.67
0.7438,0.2562	-59.98
0.7026,0.2974	-60.87
0.7749,0.2251	-59.98
0.5916,0.4084	-60.27
0.9187,0.0813	-60.53
0.5449,0.4551	-60.46
0.7477,0.2523	-59.98
0.6358,0.3642	-60.13
0.8323,0.1677	-61.67
0.6159,0.3841	-60.19
0.9290,0.0710	-60.64
0.5643,0.4357	-60.37
0.7015,0.2985	-60.86
0.6452,0.3548	-60.71
0.8549,0.1451	-60.14
0.6134,0.3866	-60.66
0.9302,0.0698	-60.65
0.5361,0.4639	-60.50
0.7200,0.2800	-59.99
0.5816,0.4184	-60.30
0.8513,0.1487	-60.13
0.6043,0.3957	-60.22
0.9146,0.0854	-60.49
0.5074,0.4926	-60.68
0.7345,0.2655	-59.98
0.6171,0.3829	-60.66
0.8629,0.1371	-60.17
0.5290,0.4710	-60.65
0.9256,0.0744	-60.60
0.5246,0.4754	-60.56
0.7131,0.2869	-60.90
0.5936,0.4064	-60.26
0.8425,0.1575	-60.10
0.5564,0.4436	-60.41
0.9269,0.0731	-60.61
0.5456,0.4544	-60.64
0.7042,0.2958	-60.87
0.5853,0.4147	-60.29
0.8438,0.1562	-60.10
0.5381,0.4619	-60.49
0.9284,0.0716	-60.63
0.5916,0.4084	-60.27
0.6962,0.3038	-60.01
0.6122,0.3878	-60.20
0.8555,0.1445	-61.92
0.5403,0.4597	-60.48
0.9348,0.0652	-60.71
0.6583,0.3417	-60.08
0.7008,0.2992	-60.01
0.5883,0.4117	-60.64
0.8633,0.1367	-60.18
0.5548,0.4452	-60.64
0.9148,0.0852	-60.49
0.6328,0.3672	-60.14
0.6715,0.3285	-60.05
0.6567,0.3433	-60.08
0.8755,0.1245	-60.23
0.6029,0.3971	-60.23
0.8954,0.1046	-62.49
0.5773,0.4227	-60.63
0.6580,0.3420	-60.73
0.6563,0.3437	-60.08
0.8840,0.1160	-60.28
0.5545,0.4455	-60.64
0.8578,0.1422	-60.15
0.5399,0.4601	-60.48
0.7391,0.2609	-61.02
0.6391,0.3609	-60.12
0.8929,0.1071	-62.45
0.5739,0.4261	-60.33
0.8487,0.1513	-60.12
0.5797,0.4203	-60.31
0.7648,0.2352	-61.16
0.5923,0.4077	-60.27
0.9038,0.0962	-60.40
0.6384,0.3616	-60.12
0.8540,0.1460	-60.14
0.5357,0.4643	-60.50
0.7401,0.2599	-61.02
0.5890,0.4110	-60.64
0.9244,0.0756	-60.59
0.5979,0.4021	-60.64
0.8801,0.1199	-60.25
0.5671,0.4329	-60.36
0.7310,0.2690	-59.98
0.6028,0.3972	-60.23
0.9182,0.0818	-60.53
0.6044,0.3956	-60.22
0.8597,0.1403	-60.16
0.5776,0.4224	-60.32
0.7722,0.2278	-59.98
0.5873,0.4127	-60.28
0.9250,0.0750	-60.59
0.5882,0.4118	-60.28
0.8674,0.1326	-60.19
0.6731,0.3269	-60.77
0.7886,0.2114	-61.31
0.5326,0.4674	-60.52
0.9304,0.0696	-60.65
0.6136,0.3864	-60.66
0.8487,0.1513	-60.12
0.6956,0.3044	-60.01
0.7684,0.2316	-59.98
0.4670,0.5330	-60.91
0.9301,0.0699	-60.65
0.6568,0.3432	-60.73
0.8262,0.1738	-60.06
0.7138,0.2862	-60.91
0.7507,0.2493	-59.98
0.5211,0.4789	-60.66
0.9469,0.0531	-60.88
0.6405,0.3595	-60.12
0.7809,0.2191	-59.99
0.7405,0.2595	-59.98
0.7429,0.2571	-59.98
0.5196,0.4804	-60.59
0.9540,0.0460	-61.00
0.6498,0.3502	-60.10
0.7611,0.2389	-59.98
0.7484,0.2516	-59.98
0.7121,0.2879	-60.00
0.5540,0.4460	-60.42
0.9483,0.0517	-60.90
0.5854,0.4146	-60.29
0.7295,0.2705	-59.98
0.7791,0.2209	-59.99
0.6987,0.3013	-60.01
0.4748,0.5252	-60.75
0.9479,0.0521	-60.90
0.5098,0.4902	-60.64
0.7895,0.2105	-60.00
0.8159,0.1841	-61.52
0.6758,0.3242	-60.04
0.5162,0.4838	-60.60
0.9426,0.0574	-60.81
0.5363,0.4637	-60.50
0.7642,0.2358	-61.15
0.8383,0.1617	-60.09
0.7212,0.2788	-60.94
0.4963,0.5037	-60.72
0.9354,0.0646	-60.71
0.5335,0.4665	-60.51
0.8416,0.1584	-60.10
0.8344,0.1656	-60.08
0.7064,0.2936	-60.88
0.5082,0.4918	-60.65
0.9261,0.0739	-60.60
0.5218,0.4782	-60.58
0.8194,0.1806	-60.04
0.8183,0.1817	-61.54
0.7373,0.2627	-59.98
0.5247,0.4753	-60.66
0.9024,0.0976	-60.39
0.5768,0.4232	-60.32
0.8213,0.1787	-60.05
0.8202,0.1798	-60.04
0.7581,0.2419	-61.12
0.5571,0.4429	-60.40
0.9255,0.0745	-60.60
0.5770,0.4230	-60.63
0.7896,0.2104	-60.00
0.8197,0.1803	-60.04
0.7769,0.2231	-59.98
0.5883,0.4117	-60.64
0.9050,0.0950	-62.67
0.6294,0.3706	-60.68
0.7393,0.2607	-59.98
0.8049,0.1951	-60.02
0.8177,0.1823	-61.54
0.5810,0.4190	-60.63
0.9044,0.0956	-60.41
0.5734,0.4266	-60.34
0.7508,0.2492	-59.98
0.7835,0.2165	-59.99
0.8650,0.1350	-60.18
0.5771,0.4229	-60.32
0.9161,0.0839	-60.51
0.5390,0.4610	-60.64
0.7967,0.2033	-60.00
0.7929,0.2071	-60.00
0.8679,0.1321	-60.20
0.6109,0.3891	-60.20
0.9152,0.0848	-60.50
0.5940,0.4060	-60.26
0.7731,0.2269	-61.21
0.8029,0.1971	-60.01
0.8633,0.1367	-60.18
0.5899,0.4101	-60.27
0.9177,0.0823	-60.52
0.5855,0.4145	-60.64
0.7609,0.2391	-59.98
0.8080,0.1920	-61.46
0.8465,0.1535	-61.82
0.6504,0.3496	-60.10
0.9202,0.0798	-60.54
0.5855,0.4145	-60.64
0.7253,0.2747	-59.99
0.7975,0.2025	-60.01
0.8562,0.1438	-60.15
0.6852,0.3148	-60.03
0.9270,0.0730	-60.62
0.5897,0.4103	-60.64
0.7258,0.2742	-60.96
0.8043,0.1957	-60.01
0.8491,0.1509	-60.12
0.7073,0.2927	-60.88
0.9403,0.0597	-63.54
0.5565,0.4435	-60.63
0.7394,0.2606	-59.98
0.8477,0.1523	-60.12
0.8388,0.1612	-60.09
0.6897,0.3103	-60.02
0.9409,0.0591	-60.79
0.5613,0.4387	-60.39
0.7040,0.2960	-60.00
0.8310,0.1690	-60.07
0.7857,0.2143	-59.99
0.6696,0.3304	-60.06
0.9532,0.0468	-60.99
0.5691,0.4309	-60.63
0.7262,0.2738	-59.98
0.8153,0.1847	-60.03
0.8167,0.1833	-60.04
0.6141,0.3859	-60.66
0.9415,0.0585	-60.80
0.4901,0.5099	-60.76
0.7308,0.2692	-60.98
0.7913,0.2087	-60.00
0.8276,0.1724	-61.63
0.6761,0.3239	-60.04
0.9289,0.0711	-60.64
0.4533,0.5467	-61.00
0.7754,0.2246	-59.98
0.7479,0.2521	-59.98
0.8198,0.1802	-60.04
0.6415,0.3585	-60.12
0.9271,0.0729	-60.62
0.3945,0.6055	-61.07
0.7391,0.2609	-61.02
0.7135,0.2865	-60.91
0.8070,0.1930	-61.45
0.6281,0.3719	-60.68
0.9320,0.0680	-60.67
0.4325,0.5675	-60.89
0.7211,0.2789	-59.99
0.7316,0.2684	-59.98
0.7591,0.2409	-59.98
0.6481,0.3519	-60.71
0.9334,0.0666	-60.69
0.3967,0.6033	-61.06
0.7383,0.2617	-59.98
0.7951,0.2049	-60.00
0.7721,0.2279	-61.20
0.6984,0.3016	-60.01
0.9453,0.0547	-60.85
0.3563,0.6437	-61.90
0.7404,0.2596	-59.98
0.7878,0.2122	-59.99
0.7781,0.2219	-59.99
0.6877,0.3123	-60.03
0.9439,0.0561	-60.83
0.3395,0.6605	-61.44
0.6862,0.3138	-60.03
0.7973,0.2027	-60.01
0.7864,0.2136	-59.99
0.7120,0.2880	-60.00
0.9418,0.0582	-60.80
0.3757,0.6243	-61.18
0.6725,0.3275	-60.05
0.7886,0.2114	-59.99
0.7827,0.2173	-59.99
0.7374,0.2626	-59.98
0.9253,0.0747	-60.60
0.3693,0.6307	-61.22
0.6227,0.3773	-60.67
0.8145,0.1855	-61.51
0.7522,0.2478	-59.98
0.7531,0.2469	-59.98
0.9275,0.0725	-60.62
0.4130,0.5870	-60.98
0.5510,0.4490	-60.43
0.8324,0.1676	-60.07
0.7657,0.2343	-61.16
0.7860,0.2140	-59.99
0.9324,0.0676	-63.30
0.3576,0.6424	-61.30
0.5950,0.4050	-60.64
0.8111,0.1889	-60.03
0.7192,0.2808	-59.99
0.7300,0.2700	-59.98
0.9402,0.0598	-60.78
0.3851,0.6149	-61.59
0.5612,0.4388	-60.63
0.7924,0.2076	-61.34
0.7489,0.2511	-59.98
0.7233,0.2767	-59.99
0.9423,0.0577	-60.81
0.3699,0.6301	-61.22
0.5168,0.4832	-60.60
0.7676,0.2324	-59.98
0.7805,0.2195	-59.99
0.7624,0.2376	-61.14
0.9278,0.0722	-60.62
0.3676,0.6324	-61.78
0.5365,0.4635	-60.65
0.7450,0.2550	-59.98
0.8153,0.1847	-60.03
0.7183,0.2817	-60.93
0.9392,0.0608	-60.76
0.4409,0.5591	-60.86
0.5970,0.4030	-60.25
0.7401,0.2599	-59.98
0.8198,0.1802	-61.56
0.7453,0.2547	-59.98
0.9228,0.0772	-60.57
0.4600,0.5400	-60.80
0.5818,0.4182	-60.30
0.6171,0.3829	-60.66
0.8137,0.1863	-61.51
0.7042,0.2958	-60.00
0.9340,0.0660	-60.70
0.4728,0.5272	-60.76
0.5395,0.4605	-60.64
0.6260,0.3740	-60.16
0.7846,0.2154	-59.99
0.7024,0.2976	-60.01
0.9253,0.0747	-60.60
0.4591,0.5409	-60.80
0.5590,0.4410	-60.40
0.5281,0.4719	-60.54
0.7601,0.2399	-59.98
0.7304,0.2696	-60.98
0.9333,0.0667	-60.69
0.4120,0.5880	-61.34
0.5554,0.4446	-60.63
0.5623,0.4377	-60.38
0.7554,0.2446	-59.98
0.7306,0.2694	-59.98
0.9327,0.0673	-60.68
0.4582,0.5418	-60.80
0.4635,0.5365	-60.93
0.5821,0.4179	-60.63
0.7512,0.2488	-59.98
0.7051,0.2949	-60.00
0.9388,0.0612	-60.76
0.4467,0.5533	-60.84
0.4908,0.5092	-60.75
0.5728,0.4272	-60.34
0.7200,0.2800	-60.93
0.7280,0.2720	-59.98
0.9360,0.0640	-60.72
0.3745,0.6255	-61.19
0.5072,0.4928	-60.66
0.5838,0.4162	-60.30
0.7018,0.2982	-60.01
0.7621,0.2379	-59.98
0.9316,0.0684	-60.67
0.3949,0.6051	-61.50
0.5340,0.4660	-60.51
0.5899,0.4101	-60.27
0.7246,0.2754	-59.99
0.7805,0.2195	-61.26
0.9424,0.0576	-60.81
0.4366,0.5634	-60.88
0.5346,0.4654	-60.51
0.5261,0.4739	-60.66
0.6528,0.3472	-60.09
0.7790,0.2210	-59.99
0.9430,0.0570	-60.82
0.4790,0.5210	-60.74
0.5556,0.4444	-60.63
0.5520,0.4480	-60.64
0.6865,0.3135	-60.03
0.7449,0.2551	-59.98
0.9408,0.0592	-60.79
0.4739,0.5261	-60.76
0.6028,0.3972	-60.23
0.5307,0.4693	-60.53
0.7325,0.2675	-60.99
0.7380,0.2620	-59.98
0.9423,0.0577	-60.81
0.5086,0.4914	-60.68
0.6692,0.3308	-60.06
0.5370,0.4630	-60.50
0.7102,0.2898	-60.00
0.7755,0.2245	-59.98
0.9548,0.0452	-61.02
0.5305,0.4695	-60.65
0.6411,0.3589	-60.12
0.4591,0.5409	-60.96
0.7181,0.2819	-59.99
0.7702,0.2298	-59.98
0.9578,0.0422	-61.08
0.5520,0.4480	-60.43
0.6089,0.3911	-60.21
0.4270,0.5730	-61.21
0.7015,0.2985	-60.86
0.7916,0.2084	-61.33
0.9549,0.0451	-61.02
0.5602,0.4398	-60.39
0.5714,0.4286	-60.34
0.4726,0.5274	-60.76
0.7364,0.2636	-59.98
0.8026,0.1974	-60.01
0.9449,0.0551	-60.85
0.4886,0.5114	-60.77
0.5978,0.4022	-60.25
0.4915,0.5085	-60.71
0.6579,0.3421	-60.08
0.7897,0.2103	-60.00
0.9366,0.0634	-63.42
0.5216,0.4784	-60.58
0.6288,0.3712	-60.15
0.5392,0.4608	-60.49
0.6744,0.3256	-60.78
0.7684,0.2316	-59.98
0.9315,0.0685	-60.67
0.5395,0.4605	-60.64
0.6372,0.3628	-60.13
0.5895,0.4105	-60.28
0.7146,0.2854	-59.99
0.7996,0.2004	-60.01
0.9273,0.0727	-60.62
0.5717,0.4283	-60.34
0.6345,0.3655	-60.13
0.5469,0.4531	-60.45
0.7445,0.2555	-59.98
0.7839,0.2161	-59.99
0.9262,0.0738	-60.61
0.5291,0.4709	-60.65
0.6354,0.3646	-60.13
0.5856,0.4144	-60.29
0.6823,0.3177	-60.03
0.7666,0.2334	-59.98
0.9316,0.0684	-60.67
0.5363,0.4637	-60.50
0.6137,0.3863	-60.66
0.5821,0.4179	-60.30
0.6980,0.3020	-60.85
0.7297,0.2703	-60.98
0.9379,0.0621	-60.75
0.5216,0.4784	-60.66
0.5602,0.4398	-60.39
0.6481,0.3519	-60.71
0.6803,0.3197	-60.79
0.7001,0.2999	-60.01
0.9387,0.0613	-60.76
0.5034,0.4966	-60.69
0.5542,0.4458	-60.42
0.6830,0.3170	-60.03
0.6111,0.3889	-60.65
0.6673,0.3327	-60.76
0.9278,0.0722	-60.62
0.4993,0.5007	-60.70
0.5948,0.4052	-60.26
0.7148,0.2852	-59.99
