#isoforms=['ENSG00000186575.SE.4.A.up_ENSG00000186575.SE.4.A.SE1_ENSG00000186575.SE.4.A.dn','ENSG00000186575.SE.4.B.up_ENSG00000186575.SE.4.B.dn']	exon_lens=('ENSG00000186575.SE.4.A.up',128),('ENSG00000186575.SE.4.A.SE1',163),('ENSG00000186575.SE.4.A.dn',3847),('ENSG00000186575.SE.4.B.up',128),('ENSG00000186575.SE.4.B.dn',194)	iters=5000	burn_in=500	lag=10	percent_accept=95.98	proposal_type=drift	counts=(0,0):16,(1,0):135,(1,1):16	assigned_counts=0:141,1:10	chrom=chr22	strand=+	mRNA_starts=29678196,29678196	mRNA_ends=29698598,29694945
sampled_psi	log_score
0.7709,0.2291	-1266.63
0.8017,0.1983	-1263.02
0.8478,0.1522	-1259.84
0.4878,0.5122	-1266.50
0.4657,0.5343	-1266.80
0.5300,0.4700	-1265.93
0.7863,0.2137	-1261.69
0.8343,0.1657	-1258.32
0.8777,0.1223	-1263.62
0.4826,0.5174	-1266.46
0.4701,0.5299	-1266.86
0.5153,0.4847	-1266.41
0.7579,0.2421	-1264.14
0.8465,0.1535	-1263.27
0.8865,0.1135	-1261.70
0.4703,0.5297	-1266.50
0.4106,0.5894	-1266.35
0.5347,0.4653	-1266.28
0.8077,0.1923	-1263.04
0.8480,0.1520	-1263.28
0.8836,0.1164	-1257.63
0.4998,0.5002	-1266.45
0.4822,0.5178	-1266.54
0.4942,0.5058	-1266.47
0.8366,0.1634	-1266.46
0.8493,0.1507	-1265.02
0.8704,0.1296	-1259.71
0.4819,0.5181	-1266.39
0.5296,0.4704	-1265.70
0.5918,0.4082	-1265.58
0.8273,0.1727	-1264.70
0.8427,0.1573	-1264.91
0.8871,0.1129	-1257.58
0.5707,0.4293	-1265.41
0.5502,0.4498	-1265.85
0.5765,0.4235	-1265.04
0.8296,0.1704	-1259.98
0.8627,0.1373	-1261.59
0.9085,0.0915	-1259.60
0.5407,0.4593	-1266.42
0.5960,0.4040	-1265.18
0.5677,0.4323	-1265.98
0.8143,0.1857	-1264.54
0.8290,0.1710	-1263.14
0.9026,0.0974	-1259.60
0.5602,0.4398	-1265.52
0.5887,0.4113	-1265.96
0.5948,0.4052	-1264.81
0.8023,0.1977	-1263.02
0.8610,0.1390	-1257.94
0.8907,0.1093	-1261.73
0.6025,0.3975	-1266.38
0.5911,0.4089	-1266.69
0.6034,0.3966	-1265.97
0.7832,0.2168	-1264.27
0.8712,0.1288	-1259.71
0.8816,0.1184	-1259.66
0.5863,0.4137	-1267.00
0.5806,0.4194	-1265.31
0.6006,0.3994	-1265.55
0.7989,0.2011	-1258.88
0.8753,0.1247	-1259.69
0.8718,0.1282	-1259.70
0.6237,0.3763	-1264.50
0.5671,0.4329	-1265.18
0.6305,0.3695	-1263.38
0.7610,0.2390	-1261.84
0.8500,0.1500	-1263.30
0.8770,0.1230	-1259.68
0.6265,0.3735	-1267.58
0.5748,0.4252	-1265.97
0.6067,0.3933	-1265.97
0.7399,0.2601	-1265.14
0.8782,0.1218	-1257.70
0.8716,0.1284	-1259.70
0.6283,0.3717	-1265.51
0.4785,0.5215	-1266.47
0.6018,0.3982	-1265.96
0.6820,0.3180	-1265.66
0.8893,0.1107	-1263.80
0.8616,0.1384	-1261.58
0.6135,0.3865	-1264.60
0.4925,0.5075	-1266.42
0.6363,0.3637	-1264.40
0.6555,0.3445	-1263.62
0.9050,0.0950	-1261.85
0.8509,0.1491	-1265.05
0.6414,0.3586	-1265.52
0.4745,0.5255	-1266.59
0.6653,0.3347	-1263.52
0.6793,0.3207	-1264.15
0.8948,0.1052	-1261.76
0.8457,0.1543	-1261.56
0.5524,0.4476	-1265.83
0.4682,0.5318	-1266.64
0.6063,0.3937	-1264.68
0.6243,0.3757	-1266.02
0.8825,0.1175	-1257.64
0.8459,0.1541	-1261.56
0.6464,0.3536	-1266.74
0.4493,0.5507	-1267.64
0.5971,0.4029	-1265.96
0.6023,0.3977	-1264.30
0.8949,0.1051	-1259.62
0.8399,0.1601	-1258.24
0.6286,0.3714	-1266.57
0.4332,0.5668	-1267.85
0.6427,0.3573	-1263.18
0.5866,0.4134	-1266.31
0.8929,0.1071	-1259.62
0.8507,0.1493	-1258.08
0.6178,0.3822	-1266.00
0.4969,0.5031	-1266.47
0.6374,0.3626	-1266.08
0.5409,0.4591	-1266.10
0.8950,0.1050	-1261.76
0.8502,0.1498	-1261.56
0.6367,0.3633	-1267.20
0.5654,0.4346	-1266.25
0.6078,0.3922	-1264.22
0.5247,0.4753	-1265.91
0.8887,0.1113	-1263.79
0.8224,0.1776	-1258.50
0.6312,0.3688	-1264.98
0.5586,0.4414	-1265.78
0.5805,0.4195	-1264.99
0.5126,0.4874	-1266.47
0.8612,0.1388	-1259.76
0.8114,0.1886	-1261.59
0.6169,0.3831	-1266.47
0.5720,0.4280	-1265.39
0.5609,0.4391	-1265.27
0.5064,0.4936	-1266.46
0.8599,0.1401	-1261.58
0.7915,0.2085	-1260.33
0.5715,0.4285	-1266.84
0.6191,0.3809	-1265.52
0.4982,0.5018	-1266.48
0.4946,0.5054	-1266.49
0.8716,0.1284	-1261.62
0.8208,0.1792	-1261.57
0.6258,0.3742	-1265.51
0.6372,0.3628	-1266.64
0.5344,0.4656	-1266.00
0.5329,0.4671	-1266.28
0.8749,0.1251	-1259.69
0.8192,0.1808	-1263.09
0.6332,0.3668	-1263.88
0.5802,0.4198	-1265.64
0.5883,0.4117	-1264.88
0.5449,0.4551	-1266.07
0.8820,0.1180	-1259.66
0.8021,0.1979	-1265.82
0.6861,0.3139	-1264.13
0.5772,0.4228	-1265.65
0.6000,0.4000	-1267.58
0.5094,0.4906	-1266.39
0.8694,0.1306	-1263.51
0.8130,0.1870	-1261.59
0.6560,0.3440	-1266.84
0.6225,0.3775	-1264.51
0.6250,0.3750	-1267.05
0.5555,0.4445	-1266.25
0.8769,0.1231	-1263.61
0.8045,0.1955	-1261.62
0.6272,0.3728	-1267.59
0.6291,0.3709	-1264.46
0.5746,0.4254	-1265.37
0.5976,0.4024	-1265.96
0.8788,0.1212	-1267.59
0.8061,0.1939	-1261.61
0.5749,0.4251	-1265.97
0.6128,0.3872	-1263.23
0.5575,0.4425	-1266.02
0.5721,0.4279	-1265.97
0.8537,0.1463	-1263.33
0.8325,0.1675	-1259.95
0.5629,0.4371	-1265.75
0.6213,0.3787	-1266.01
0.5530,0.4470	-1266.25
0.5760,0.4240	-1265.66
0.8741,0.1259	-1259.69
0.8260,0.1740	-1264.68
0.5395,0.4605	-1265.79
0.5799,0.4201	-1266.61
0.5121,0.4879	-1266.22
0.5515,0.4485	-1266.25
0.8645,0.1355	-1261.59
0.8255,0.1745	-1263.12
0.5160,0.4840	-1266.16
0.6878,0.3122	-1263.33
0.4919,0.5081	-1266.58
0.5547,0.4453	-1266.25
0.8766,0.1234	-1265.56
0.8216,0.1784	-1263.10
0.5560,0.4440	-1266.02
0.6830,0.3170	-1265.67
0.5315,0.4685	-1266.16
0.5571,0.4429	-1266.71
0.8799,0.1201	-1261.66
0.8194,0.1806	-1261.58
0.5878,0.4122	-1264.89
0.6137,0.3863	-1265.52
0.5656,0.4344	-1265.73
0.5269,0.4731	-1266.19
0.8813,0.1187	-1257.66
0.7931,0.2069	-1260.31
0.6020,0.3980	-1265.96
0.6133,0.3867	-1264.60
0.5510,0.4490	-1266.04
0.4711,0.5289	-1266.61
0.8760,0.1240	-1263.59
0.7712,0.2288	-1262.99
0.6459,0.3541	-1267.33
0.5946,0.4054	-1265.57
0.5499,0.4501	-1265.65
0.5540,0.4460	-1266.68
0.8590,0.1410	-1265.19
0.7207,0.2793	-1265.02
0.6120,0.3880	-1265.07
0.6104,0.3896	-1268.67
0.5177,0.4823	-1266.27
0.5751,0.4249	-1265.36
0.8792,0.1208	-1259.67
0.6827,0.3173	-1266.43
0.6431,0.3569	-1264.35
0.6307,0.3693	-1265.51
0.5403,0.4597	-1266.42
0.5640,0.4360	-1267.02
0.9018,0.0982	-1261.82
0.6789,0.3211	-1266.40
0.6951,0.3049	-1267.40
0.6664,0.3336	-1264.21
0.5563,0.4437	-1266.02
0.5935,0.4065	-1265.96
0.9098,0.0902	-1266.53
0.6751,0.3249	-1265.63
0.6488,0.3512	-1265.53
0.6707,0.3293	-1264.90
0.5271,0.4729	-1265.76
0.6017,0.3983	-1265.14
0.9055,0.0945	-1257.34
0.6816,0.3184	-1267.18
0.6403,0.3597	-1264.94
0.6596,0.3404	-1266.89
0.5699,0.4301	-1265.42
0.6636,0.3364	-1266.94
0.8998,0.1002	-1266.19
0.6787,0.3213	-1264.15
0.6641,0.3359	-1264.90
0.6646,0.3354	-1266.27
0.6083,0.3917	-1265.09
0.6855,0.3145	-1267.24
0.8948,0.1052	-1266.04
0.6624,0.3376	-1265.57
0.5861,0.4139	-1265.61
0.6326,0.3674	-1266.60
0.6806,0.3194	-1264.90
0.6822,0.3178	-1264.90
0.8457,0.1543	-1261.56
0.6489,0.3511	-1264.92
0.6461,0.3539	-1266.73
0.6572,0.3428	-1263.60
0.6578,0.3422	-1265.56
0.7099,0.2901	-1262.29
0.8660,0.1340	-1269.06
0.5879,0.4121	-1265.96
0.6583,0.3417	-1266.22
0.6207,0.3793	-1263.05
0.6905,0.3095	-1264.91
0.7288,0.2712	-1264.07
0.8524,0.1476	-1265.07
0.6187,0.3813	-1266.49
0.6448,0.3552	-1264.93
0.6232,0.3768	-1265.51
0.7243,0.2757	-1262.14
0.7256,0.2744	-1264.07
0.8699,0.1301	-1261.61
0.5807,0.4193	-1266.29
0.6749,0.3251	-1263.44
0.6134,0.3866	-1265.52
0.6648,0.3352	-1265.58
0.7638,0.2362	-1260.65
0.8591,0.1409	-1265.20
0.5936,0.4064	-1264.82
0.6635,0.3365	-1266.94
0.6466,0.3534	-1265.53
0.6748,0.3252	-1263.44
0.7401,0.2599	-1265.14
0.8588,0.1412	-1259.77
0.6208,0.3792	-1264.53
0.6402,0.3598	-1263.79
0.6270,0.3730	-1264.47
0.6702,0.3298	-1262.06
0.7331,0.2669	-1268.12
0.8355,0.1645	-1263.18
0.6524,0.3476	-1264.91
0.6356,0.3644	-1263.85
0.6252,0.3748	-1264.49
0.6333,0.3667	-1266.06
0.7144,0.2856	-1266.82
0.8335,0.1665	-1261.56
0.6423,0.3577	-1263.77
0.6373,0.3627	-1266.08
0.5890,0.4110	-1265.60
0.6437,0.3563	-1265.53
0.7049,0.2951	-1262.34
0.8271,0.1729	-1260.00
0.6112,0.3888	-1264.62
0.5843,0.4157	-1266.30
0.5689,0.4311	-1265.70
0.5977,0.4023	-1265.96
0.7004,0.2996	-1264.09
0.8120,0.1880	-1264.52
0.5750,0.4250	-1266.27
0.5739,0.4261	-1266.86
0.5502,0.4498	-1266.45
0.5633,0.4367	-1265.49
0.6983,0.3017	-1265.77
0.8322,0.1678	-1259.96
0.5942,0.4058	-1264.81
0.6075,0.3925	-1265.54
0.5613,0.4387	-1265.02
0.6626,0.3374	-1264.22
0.6594,0.3406	-1265.56
0.8501,0.1499	-1268.50
0.5851,0.4149	-1264.93
0.6640,0.3360	-1267.62
0.5832,0.4168	-1265.29
0.6159,0.3841	-1263.63
0.6727,0.3273	-1265.62
0.8342,0.1658	-1259.94
0.6051,0.3949	-1266.40
0.6151,0.3849	-1265.99
0.6379,0.3621	-1263.82
0.5822,0.4178	-1265.63
0.6584,0.3416	-1265.56
0.8161,0.1839	-1264.56
0.5541,0.4459	-1266.03
0.5448,0.4552	-1265.90
0.6147,0.3853	-1265.52
0.5426,0.4574	-1266.43
0.6011,0.3989	-1265.96
0.8042,0.1958	-1264.44
0.5344,0.4656	-1265.72
0.5869,0.4131	-1266.66
0.5721,0.4279	-1266.85
0.5386,0.4614	-1266.42
0.6356,0.3644	-1264.96
0.8282,0.1718	-1259.99
0.5270,0.4730	-1266.30
0.5754,0.4246	-1266.27
0.6049,0.3951	-1264.69
0.5546,0.4454	-1266.03
0.6698,0.3302	-1266.31
0.7940,0.2060	-1265.70
0.5128,0.4872	-1266.26
0.5705,0.4295	-1265.41
0.5522,0.4478	-1266.25
0.5492,0.4508	-1265.66
0.6764,0.3236	-1267.11
0.8077,0.1923	-1264.48
0.5354,0.4646	-1265.99
0.6122,0.3878	-1265.53
0.5529,0.4471	-1266.25
0.6470,0.3530	-1265.53
0.6752,0.3248	-1265.63
0.7872,0.2128	-1261.69
0.4729,0.5271	-1266.60
0.6423,0.3577	-1267.28
0.5348,0.4652	-1266.27
0.6062,0.3938	-1265.11
0.6221,0.3779	-1267.01
0.8102,0.1898	-1260.15
0.4262,0.5738	-1265.96
0.6438,0.3562	-1266.12
0.5592,0.4408	-1266.25
0.5385,0.4615	-1266.42
0.5741,0.4259	-1265.97
0.7914,0.2086	-1264.33
0.4459,0.5541	-1266.65
0.6451,0.3549	-1265.53
0.6210,0.3790	-1264.53
0.5359,0.4641	-1265.98
0.5920,0.4080	-1266.33
0.7722,0.2278	-1265.43
0.4585,0.5415	-1266.73
0.6932,0.3068	-1264.10
0.6040,0.3960	-1266.81
0.5228,0.4772	-1266.59
0.5251,0.4749	-1266.31
0.7501,0.2499	-1265.21
0.4205,0.5795	-1266.29
0.6988,0.3012	-1266.62
0.5878,0.4122	-1264.18
0.5047,0.4953	-1266.42
0.4746,0.5254	-1266.79
0.7263,0.2737	-1262.12
0.4747,0.5253	-1266.99
0.6773,0.3227	-1264.90
0.6215,0.3785	-1265.02
0.4999,0.5001	-1266.45
0.5029,0.4971	-1266.42
0.7208,0.2792	-1265.02
0.4094,0.5906	-1268.19
0.6799,0.3201	-1266.41
0.6525,0.3475	-1263.65
0.5214,0.4786	-1266.32
0.5193,0.4807	-1266.25
0.7324,0.2676	-1266.09
0.4469,0.5531	-1266.65
0.6719,0.3281	-1267.05
0.6242,0.3758	-1267.04
0.4965,0.5035	-1266.51
0.5324,0.4676	-1266.41
0.7513,0.2487	-1263.01
0.3998,0.6002	-1267.66
0.6692,0.3308	-1265.60
0.6032,0.3968	-1265.97
0.5035,0.4965	-1266.38
0.4743,0.5257	-1266.59
0.7570,0.2430	-1264.14
0.4231,0.5769	-1266.90
0.7099,0.2901	-1263.18
0.6166,0.3834	-1264.57
0.5241,0.4759	-1266.21
0.5118,0.4882	-1266.56
0.7564,0.2436	-1261.87
0.4320,0.5680	-1267.34
0.7172,0.2828	-1265.00
0.5903,0.4097	-1265.59
0.5293,0.4707	-1266.17
0.5683,0.4317	-1265.98
0.7801,0.2199	-1262.99
0.4713,0.5287	-1266.50
0.7471,0.2529	-1265.19
0.6108,0.3892	-1266.88
0.5298,0.4702	-1266.17
0.5551,0.4449	-1266.47
0.7728,0.2272	-1261.76
0.4591,0.5409	-1266.72
0.6986,0.3014	-1264.93
0.5741,0.4259	-1267.16
0.5598,0.4402	-1265.77
0.5553,0.4447	-1266.25
0.7285,0.2715	-1267.04
0.3837,0.6163	-1267.11
0.7062,0.2938	-1266.71
0.5691,0.4309	-1267.65
0.5394,0.4606	-1266.11
0.5716,0.4284	-1266.84
0.7511,0.2489	-1264.12
0.4096,0.5904	-1269.28
0.7054,0.2946	-1265.83
0.5536,0.4464	-1266.46
0.6028,0.3972	-1265.13
0.5135,0.4865	-1266.31
0.8120,0.1880	-1267.45
0.4368,0.5632	-1266.48
0.6575,0.3425	-1266.86
0.6356,0.3644	-1266.07
0.6441,0.3559	-1265.53
0.5786,0.4214	-1265.65
0.8432,0.1568	-1264.92
0.5137,0.4863	-1266.58
0.6153,0.3847	-1266.46
0.5896,0.4104	-1264.87
0.7159,0.2841	-1266.84
0.5528,0.4472	-1265.82
0.8502,0.1498	-1261.56
0.5368,0.4632	-1266.27
0.6075,0.3925	-1265.97
0.5899,0.4101	-1265.59
0.6822,0.3178	-1264.14
0.5373,0.4627	-1265.97
0.8669,0.1331	-1257.85
0.5330,0.4670	-1265.88
0.5913,0.4087	-1264.85
0.6131,0.3869	-1265.06
0.7079,0.2921	-1264.08
0.5669,0.4331	-1266.26
0.8595,0.1405	-1259.77
0.5740,0.4260	-1266.27
0.5406,0.4594	-1266.10
0.6416,0.3584	-1267.27
0.7226,0.2774	-1265.03
0.5160,0.4840	-1266.35
0.8361,0.1639	-1258.30
0.5737,0.4263	-1267.46
0.6055,0.3945	-1264.68
0.5929,0.4071	-1265.58
0.6834,0.3166	-1262.59
0.5875,0.4125	-1266.31
0.8394,0.1606	-1261.56
0.5752,0.4248	-1266.57
0.5634,0.4366	-1266.25
0.6263,0.3737	-1266.55
0.6492,0.3508	-1262.46
0.5745,0.4255	-1266.27
0.8315,0.1685	-1263.15
0.5295,0.4705	-1266.41
0.5326,0.4674	-1266.28
0.6359,0.3641	-1267.19
0.6597,0.3403	-1264.90
0.5158,0.4842	-1266.41
0.8337,0.1663	-1268.00
0.5559,0.4441	-1265.80
0.5230,0.4770	-1266.41
0.6693,0.3307	-1267.01
0.6662,0.3338	-1264.90
0.4547,0.5453	-1266.95
0.8262,0.1738	-1266.24
0.5593,0.4407	-1265.06
0.4949,0.5051	-1266.49
0.6572,0.3428	-1263.60
0.6543,0.3457	-1262.36
0.4332,0.5668	-1268.12
0.8475,0.1525	-1263.27
0.5742,0.4258	-1265.37
0.5105,0.4895	-1266.55
0.7033,0.2967	-1263.22
0.7043,0.2957	-1264.08
0.4609,0.5391	-1267.18
0.8478,0.1522	-1263.28
0.6478,0.3522	-1263.09
0.5555,0.4445	-1265.80
0.6950,0.3050	-1264.10
0.6898,0.3102	-1265.71
0.4712,0.5288	-1266.73
0.8416,0.1584	-1259.89
0.6394,0.3606	-1266.09
0.5789,0.4211	-1265.96
0.6673,0.3327	-1266.29
0.7088,0.2912	-1264.97
0.4700,0.5300	-1266.62
0.8457,0.1543	-1259.86
0.6047,0.3953	-1265.54
0.5708,0.4292	-1265.41
0.6752,0.3248	-1266.36
0.6833,0.3167	-1264.13
0.4984,0.5016	-1266.48
0.8663,0.1337	-1263.47
0.5921,0.4079	-1265.58
0.5185,0.4815	-1266.48
0.7136,0.2864	-1264.99
0.6685,0.3315	-1264.20
0.5371,0.4629	-1266.12
0.8969,0.1031	-1259.61
0.6157,0.3843	-1262.69
0.5616,0.4384	-1266.00
0.7055,0.2945	-1264.95
0.6824,0.3176	-1265.67
0.4973,0.5027	-1266.48
0.9161,0.0839	-1261.99
0.6250,0.3750	-1266.02
0.6095,0.3905	-1266.87
0.6939,0.3061	-1262.47
0.6439,0.3561	-1267.30
0.4383,0.5617	-1266.72
0.9155,0.0845	-1264.36
0.6386,0.3614	-1264.38
0.6379,0.3621	-1264.39
0.6956,0.3044	-1263.27
0.5555,0.4445	-1266.25
0.4295,0.5705	-1267.10
0.9270,0.0730	-1259.61
0.6148,0.3852	-1266.46
0.6028,0.3972	-1266.80
0.6715,0.3285	-1267.04
0.5782,0.4218	-1265.96
0.4510,0.5490	-1267.01
0.9258,0.0742	-1257.08
0.6087,0.3913	-1265.09
0.6069,0.3931	-1265.54
0.6881,0.3119	-1264.91
0.5863,0.4137	-1266.30
0.4611,0.5389	-1267.17
0.9203,0.0797	-1257.15
0.6087,0.3913	-1266.42
0.6006,0.3994	-1265.15
0.6537,0.3463	-1264.91
0.5189,0.4811	-1266.18
0.4239,0.5761	-1266.89
0.9260,0.0740	-1259.61
0.5139,0.4861	-1266.53
0.6012,0.3988	-1264.32
0.6798,0.3202	-1263.39
0.5298,0.4702	-1266.17
0.4705,0.5295	-1266.62
0.9305,0.0695	-1257.03
0.4718,0.5282	-1266.38
0.6147,0.3853	-1267.39
0.7232,0.2768	-1266.95
0.5556,0.4444	-1266.02
0.5164,0.4836	-1266.48
0.9439,0.0561	-1262.51
0.5352,0.4648	-1265.99
0.6197,0.3803	-1264.05
0.6795,0.3205	-1264.15
0.5998,0.4002	-1265.56
0.5120,0.4880	-1266.37
0.9342,0.0658	-1262.29
0.4873,0.5127	-1266.61
0.6215,0.3785	-1266.01
0.6757,0.3243	-1264.90
0.5958,0.4042	-1265.96
0.4913,0.5087	-1266.59
0.9179,0.0821	-1262.01
0.5115,0.4885	-1266.56
0.6210,0.3790	-1266.01
0.6841,0.3159	-1267.22
0.6096,0.3904	-1265.09
0.4711,0.5289	-1266.27
0.9032,0.0968	-1257.37
0.4251,0.5749	-1267.17
0.5622,0.4378	-1265.25
0.7242,0.2758	-1262.14
0.6102,0.3898	-1265.98
0.4852,0.5148	-1266.58
0.9038,0.0962	-1259.60
0.4727,0.5273	-1266.82
0.6055,0.3945	-1265.11
0.7089,0.2911	-1268.53
0.6230,0.3770	-1265.01
0.5222,0.4778	-1266.23
0.8840,0.1160	-1263.71
0.4775,0.5225	-1266.66
0.6230,0.3770	-1267.52
0.6857,0.3143	-1266.47
0.6414,0.3586	-1266.10
0.5635,0.4365	-1266.51
0.8942,0.1058	-1261.75
0.4776,0.5224	-1266.75
0.6347,0.3653	-1266.07
0.6488,0.3512	-1263.69
0.5939,0.4061	-1265.96
0.5463,0.4537	-1264.95
0.9049,0.0951	-1261.85
0.4203,0.5797	-1266.61
0.6251,0.3749	-1265.51
0.6383,0.3617	-1265.52
0.5568,0.4432	-1265.79
0.5504,0.4496	-1265.84
0.8784,0.1216	-1261.65
0.3721,0.6279	-1269.95
0.6151,0.3849	-1265.99
0.7391,0.2609	-1265.13
0.5975,0.4025	-1265.17
0.5763,0.4237	-1265.66
0.8954,0.1046	-1263.91
0.3927,0.6073	-1267.83
0.6943,0.3057	-1262.46
0.7449,0.2551	-1264.10
0.6159,0.3841	-1265.52
0.5387,0.4613	-1266.58
0.8960,0.1040	-1259.62
0.4246,0.5754	-1267.18
0.6913,0.3087	-1264.11
0.7429,0.2571	-1265.16
0.6604,0.3396	-1268.23
0.4558,0.5442	-1266.76
0.8726,0.1274	-1259.70
0.4118,0.5882	-1266.70
0.7071,0.2929	-1264.96
0.6998,0.3002	-1265.78
0.7054,0.2946	-1266.70
0.4759,0.5241	-1266.96
0.8763,0.1237	-1263.60
0.4137,0.5863	-1267.03
0.7299,0.2701	-1267.06
0.7320,0.2680	-1265.08
0.6557,0.3443	-1265.55
0.4982,0.5018	-1266.47
0.8898,0.1102	-1261.72
0.3888,0.6112	-1267.02
0.6791,0.3209	-1264.15
0.6962,0.3038	-1264.93
0.6468,0.3532	-1265.53
0.4695,0.5305	-1266.87
0.8989,0.1011	-1261.79
0.3988,0.6012	-1267.27
0.6900,0.3100	-1261.71
0.7405,0.2595	-1263.04
0.6584,0.3416	-1265.56
0.4572,0.5428	-1266.74
0.9142,0.0858	-1259.59
0.3987,0.6013	-1268.51
0.6772,0.3228	-1265.64
0.7518,0.2482	-1264.12
0.6563,0.3437	-1264.26
0.4342,0.5658	-1267.29
0.9106,0.0894	-1261.92
0.4114,0.5886	-1267.78
0.6689,0.3311	-1264.19
0.7539,0.2461	-1266.37
0.6807,0.3193	-1265.66
0.4191,0.5809	-1266.95
0.9080,0.0920	-1259.60
0.5036,0.4964	-1266.41
0.6474,0.3526	-1263.10
0.7148,0.2852	-1263.15
0.7170,0.2830	-1262.21
0.4624,0.5376	-1266.54
0.8976,0.1024	-1257.44
0.5717,0.4283	-1266.55
0.6140,0.3860	-1263.67
0.6881,0.3119	-1265.70
0.7346,0.2654	-1263.06
0.4854,0.5146	-1266.69
0.9195,0.0805	-1259.60
0.5355,0.4645	-1265.99
0.5616,0.4384	-1265.51
0.7279,0.2721	-1268.01
0.6350,0.3650	-1265.52
0.4429,0.5571	-1266.68
0.9203,0.0797	-1259.60
0.4940,0.5060	-1266.43
0.5754,0.4246	-1265.97
0.7265,0.2735	-1264.07
0.6575,0.3425	-1264.25
0.4533,0.5467	-1266.78
0.9162,0.0838	-1259.60
0.5156,0.4844	-1266.29
0.5702,0.4298	-1265.69
0.6754,0.3246	-1267.83
0.6645,0.3355	-1265.58
0.4573,0.5427	-1267.25
0.9398,0.0602	-1256.92
0.5021,0.4979	-1266.43
0.6361,0.3639	-1264.96
0.6730,0.3270	-1265.62
0.6610,0.3390	-1264.23
0.4962,0.5038	-1266.43
0.9453,0.0547	-1265.40
0.5082,0.4918	-1266.46
0.6073,0.3927	-1266.41
0.6723,0.3277	-1267.05
0.6126,0.3874	-1265.07
0.4959,0.5041	-1266.51
0.9488,0.0512	-1256.81
0.5418,0.4582	-1265.59
0.5856,0.4144	-1265.96
0.6500,0.3500	-1265.54
0.5119,0.4881	-1266.28
0.4827,0.5173	-1266.46
0.9386,0.0614	-1262.38
0.6161,0.3839	-1266.94
0.5800,0.4200	-1265.32
0.6250,0.3750	-1265.51
0.5262,0.4738	-1266.20
0.4882,0.5118	-1266.41
0.9320,0.0680	-1259.63
0.6089,0.3911	-1267.30
0.6638,0.3362	-1266.94
0.6531,0.3469	-1264.91
0.5292,0.4708	-1266.17
0.5290,0.4710	-1266.41
0.9271,0.0729	-1262.15
0.6200,0.3800	-1265.52
0.7086,0.2914	-1264.08
0.7002,0.2998	-1264.09
0.5408,0.4592	-1265.93
0.4919,0.5081	-1266.42
0.9262,0.0738	-1262.14
0.5769,0.4231	-1265.97
0.7343,0.2657	-1264.08
0.6978,0.3022	-1265.77
0.6125,0.3875	-1265.98
0.4861,0.5139	-1266.51
0.9087,0.0913	-1257.30
0.5100,0.4900	-1266.38
0.6620,0.3380	-1263.56
0.6658,0.3342	-1266.28
0.6046,0.3954	-1265.97
0.5213,0.4787	-1266.24
0.8979,0.1021	-1263.96
0.4864,0.5136	-1266.62
0.6949,0.3051	-1265.75
0.6598,0.3402	-1263.58
0.5433,0.4567	-1266.43
0.5724,0.4276	-1266.85
0.8627,0.1373	-1259.75
0.4776,0.5224	-1266.75
0.7108,0.2892	-1264.97
0.5900,0.4100	-1266.32
0.4818,0.5182	-1266.76
0.6168,0.3832	-1265.04
0.8773,0.1227	-1263.61
0.4268,0.5732	-1266.55
0.6398,0.3602	-1266.67
0.6444,0.3556	-1265.53
0.4520,0.5480	-1266.41
0.6626,0.3374	-1267.60
0.8920,0.1080	-1265.96
0.4321,0.5679	-1267.33
0.5832,0.4168	-1264.95
0.6755,0.3245	-1264.90
0.4810,0.5190	-1266.24
0.6126,0.3874	-1265.98
0.9338,0.0662	-1259.63
0.4202,0.5798	-1266.61
0.5769,0.4231	-1265.66
0.6657,0.3343	-1267.65
0.4975,0.5025	-1266.48
0.6114,0.3886	-1265.07
0.9349,0.0651	-1256.97
0.3913,0.6087	-1267.42
0.5492,0.4508	-1266.45
0.5820,0.4180	-1265.30
0.4991,0.5009	-1266.45
0.5660,0.4340	-1265.46
0.9209,0.0791	-1259.60
0.4544,0.5456	-1266.77
0.5583,0.4417	-1266.01
0.5782,0.4218	-1265.65
0.5556,0.4444	-1266.69
0.5929,0.4071	-1265.96
0.9134,0.0866	-1264.31
0.4517,0.5483	-1266.80
0.6123,0.3877	-1265.53
0.5411,0.4589	-1266.26
0.5413,0.4587	-1266.59
0.6511,0.3489	-1266.79
0.9198,0.0802	-1259.60
0.4433,0.5567	-1266.90
0.5709,0.4291	-1265.98
0.5162,0.4838	-1266.28
0.5594,0.4406	-1265.77
0.6762,0.3238	-1266.37
0.9155,0.0845	-1264.36
0.4643,0.5357	-1266.53
0.5307,0.4693	-1266.29
0.5497,0.4503	-1265.25
0.5679,0.4321	-1265.44
0.6815,0.3185	-1265.66
0.9118,0.0882	-1259.59
0.5173,0.4827	-1266.48
0.5641,0.4359	-1265.22
0.5406,0.4594	-1265.94
0.5641,0.4359	-1265.48
0.6517,0.3483	-1264.92
0.9142,0.0858	-1259.59
0.4799,0.5201	-1266.71
0.5016,0.4984	-1266.44
0.4805,0.5195	-1266.62
0.5936,0.4064	-1266.71
0.6778,0.3222	-1263.41
0.9160,0.0840	-1257.21
0.5211,0.4789	-1266.32
0.5377,0.4623	-1266.12
0.4769,0.5231	-1266.39
0.5607,0.4393	-1265.76
0.6468,0.3532	-1264.32
0.9242,0.0758	-1259.61
0.5513,0.4487	-1265.22
0.5106,0.4894	-1266.51
0.4938,0.5062	-1266.47
0.5303,0.4697	-1266.05
0.6558,0.3442	-1266.84
0.9110,0.0890	-1261.92
0.5685,0.4315	-1265.43
0.5214,0.4786	-1266.24
0.4756,0.5244	-1265.99
0.5560,0.4440	-1266.70
0.6936,0.3064	-1265.74
0.9186,0.0814	-1259.60
0.5733,0.4267	-1266.56
0.5328,0.4672	-1266.15
0.4990,0.5010	-1266.46
0.5248,0.4752	-1266.31
0.7081,0.2919	-1265.85
0.9145,0.0855	-1261.97
0.5700,0.4300	-1265.98
0.5433,0.4567	-1266.08
0.4794,0.5206	-1266.72
0.5363,0.4637	-1266.13
0.7492,0.2508	-1266.30
0.9231,0.0769	-1257.12
0.5707,0.4293	-1264.55
0.5279,0.4721	-1266.07
0.4986,0.5014	-1266.45
0.5456,0.4544	-1266.44
0.7491,0.2509	-1263.02
0.9243,0.0757	-1259.61
0.5288,0.4712	-1266.06
0.5024,0.4976	-1266.43
0.4613,0.5387	-1267.01
0.5044,0.4956	-1266.40
0.7615,0.2385	-1269.96
0.9265,0.0735	-1259.61
0.6006,0.3994	-1265.15
0.5032,0.4968	-1266.43
0.4253,0.5747	-1266.87
0.5473,0.4527	-1265.87
0.7582,0.2418	-1265.29
0.9176,0.0824	-1259.60
0.6050,0.3950	-1266.39
0.5874,0.4126	-1265.25
0.3858,0.6142	-1267.07
0.6049,0.3951	-1266.82
0.7594,0.2406	-1264.15
0.9294,0.0706	-1259.62
0.6667,0.3333	-1264.90
0.5708,0.4292	-1267.12
0.3631,0.6369	-1268.10
0.5990,0.4010	-1265.56
0.7375,0.2625	-1264.09
0.9081,0.0919	-1261.89
0.6596,0.3404	-1266.23
0.5624,0.4376	-1266.50
0.4115,0.5885	-1268.85
0.6062,0.3938	-1265.97
0.7670,0.2330	-1264.18
0.8907,0.1093	-1261.73
0.6764,0.3236	-1266.37
0.5408,0.4592	-1266.26
0.3985,0.6015	-1268.10
0.5641,0.4359	-1265.99
0.8149,0.1851	-1261.59
0.9027,0.0973	-1261.83
0.6903,0.3097	-1264.11
0.5455,0.4545	-1266.07
0.4297,0.5703	-1265.68
0.5833,0.4167	-1265.96
0.8097,0.1903	-1261.60
0.8822,0.1178	-1259.66
0.6775,0.3225	-1265.64
0.5540,0.4460	-1266.25
0.3643,0.6357	-1268.06
0.5683,0.4317	-1266.26
0.7861,0.2139	-1262.99
0.8801,0.1199	-1263.65
0.6348,0.3652	-1264.41
0.5270,0.4730	-1266.08
0.4160,0.5840	-1266.31
0.5570,0.4430	-1266.48
0.7698,0.2302	-1265.40
0.8936,0.1064	-1259.62
0.6001,0.3999	-1266.37
0.5888,0.4112	-1265.24
0.4380,0.5620	-1266.48
0.5884,0.4116	-1266.31
0.7437,0.2563	-1263.03
0.8865,0.1135	-1257.59
0.6353,0.3647	-1266.07
0.6348,0.3652	-1266.62
0.4477,0.5523	-1267.06
0.5743,0.4257	-1265.67
0.7886,0.2114	-1265.63
0.8887,0.1113	-1257.56
0.6117,0.3883	-1266.89
0.6712,0.3288	-1267.04
0.4637,0.5363	-1266.24
0.6355,0.3645	-1264.96
0.8076,0.1924	-1265.91
0.8641,0.1359	-1263.44
0.6460,0.3540	-1266.13
0.6713,0.3287	-1264.90
0.4471,0.5529	-1266.64
0.6217,0.3783	-1265.02
0.7844,0.2156	-1262.99
0.8683,0.1317	-1261.61
0.6382,0.3618	-1266.65
0.7440,0.2560	-1264.10
0.4597,0.5403	-1266.56
0.5779,0.4221	-1265.96
0.7781,0.2219	-1260.48
0.8859,0.1141	-1259.64
0.5883,0.4117	-1267.03
0.7191,0.2809	-1263.13
0.4216,0.5784	-1266.91
0.5585,0.4415	-1266.01
0.7990,0.2010	-1267.15
0.8991,0.1009	-1263.98
0.6620,0.3380	-1264.90
0.6929,0.3071	-1264.92
0.4192,0.5808	-1266.95
0.5597,0.4403	-1266.49
0.8130,0.1870	-1263.06
0.9086,0.0914	-1259.60
0.6065,0.3935	-1267.27
0.6808,0.3192	-1267.93
0.4459,0.5541	-1266.44
0.5549,0.4451	-1266.25
0.7921,0.2079	-1261.66
0.9197,0.0803	-1259.60
0.5822,0.4178	-1266.62
0.6897,0.3103	-1265.71
0.3771,0.6229	-1267.23
0.5426,0.4574	-1265.92
0.7792,0.2208	-1269.29
0.9313,0.0687	-1262.23
0.6351,0.3649	-1263.85
0.7145,0.2855	-1266.83
0.4050,0.5950	-1266.40
0.5727,0.4273	-1265.09
0.7920,0.2080	-1265.67
0.9399,0.0601	-1262.41
0.6469,0.3531	-1264.93
0.7212,0.2788	-1265.02
0.4232,0.5768	-1267.51
0.5368,0.4632	-1266.12
0.8019,0.1981	-1260.23
0.9465,0.0535	-1256.84
0.6547,0.3453	-1266.19
0.7316,0.2684	-1264.08
0.4555,0.5445	-1266.58
0.5440,0.4560	-1266.79
0.7760,0.2240	-1261.74
0.9511,0.0489	-1256.78
0.6538,0.3462	-1266.82
0.7016,0.2984	-1261.52
0.5163,0.4837	-1266.02
0.5346,0.4654	-1266.28
0.8121,0.1879	-1264.52
0.9535,0.0465	-1256.75
0.6536,0.3464	-1264.91
0.6945,0.3055	-1264.92
0.5394,0.4606	-1266.90
0.5699,0.4301	-1265.13
0.8431,0.1569	-1259.88
0.9448,0.0552	-1259.70
0.6187,0.3813	-1265.03
0.6678,0.3322	-1266.99
0.5372,0.4628	-1266.27
0.5580,0.4420	-1265.78
0.8441,0.1559	-1264.94
0.9513,0.0487	-1259.75
0.6060,0.3940	-1265.54
0.6935,0.3065	-1266.55
0.5318,0.4682	-1266.28
0.5869,0.4131	-1267.01
0.8780,0.1220	-1263.62
0.9496,0.0504	-1262.67
0.5757,0.4243	-1266.88
0.6908,0.3092	-1264.11
0.5708,0.4292	-1265.41
0.5286,0.4714	-1266.18
0.8920,0.1080	-1259.63
0.9493,0.0507	-1256.80
0.6158,0.3842	-1265.52
0.7192,0.2808	-1263.13
0.6227,0.3773	-1265.01
0.5887,0.4113	-1267.03
0.8681,0.1319	-1257.84
0.9489,0.0511	-1256.81
0.6548,0.3452	-1262.99
0.6591,0.3409	-1264.90
0.6501,0.3499	-1265.54
0.5872,0.4128	-1265.60
0.8354,0.1646	-1263.18
0.9423,0.0577	-1265.27
0.6633,0.3367	-1265.58
0.6221,0.3779	-1268.01
0.6461,0.3539	-1265.53
0.5274,0.4726	-1266.41
0.8477,0.1523	-1259.84
0.9312,0.0688	-1259.62
0.6264,0.3736	-1265.51
0.6830,0.3170	-1261.83
0.6352,0.3648	-1266.07
0.4747,0.5253	-1266.49
0.8742,0.1258	-1259.69
0.9322,0.0678	-1259.63
0.6120,0.3880	-1266.44
0.6803,0.3197	-1265.66
0.6171,0.3829	-1266.95
0.4972,0.5028	-1266.45
0.8518,0.1482	-1263.31
0.9266,0.0734	-1262.15
0.6001,0.3999	-1265.96
0.7013,0.2987	-1264.94
0.6228,0.3772	-1264.01
0.4941,0.5059	-1266.50
0.8235,0.1765	-1263.11
0.9332,0.0668	-1259.63
0.6298,0.3702	-1267.11
0.7287,0.2713	-1263.09
0.6299,0.3701	-1265.51
0.5130,0.4870	-1266.36
0.7738,0.2262	-1260.53
0.9445,0.0555	-1256.86
0.5984,0.4016	-1265.96
0.6727,0.3273	-1263.46
0.5453,0.4547	-1266.44
0.4908,0.5092	-1266.52
0.7855,0.2145	-1264.29
0.9384,0.0616	-1259.66
0.5490,0.4510	-1266.45
0.6910,0.3090	-1264.11
0.5471,0.4529	-1266.06
0.5010,0.4990	-1266.44
0.7615,0.2385	-1264.16
0.9315,0.0685	-1262.23
0.5613,0.4387	-1266.00
0.7043,0.2957	-1264.08
0.5616,0.4384	-1265.75
0.4809,0.5191	-1266.70
0.7909,0.2091	-1265.66
0.9186,0.0814	-1262.02
0.5508,0.4492	-1266.04
0.6909,0.3091	-1264.92
0.5257,0.4743	-1266.30
0.4857,0.5143	-1266.40
0.7919,0.2081	-1263.00
0.9099,0.0901	-1261.91
0.5764,0.4236	-1265.04
0.6902,0.3098	-1265.71
0.5634,0.4366	-1265.74
0.4855,0.5145	-1266.34
0.7860,0.2140	-1261.69
0.8725,0.1275	-1259.70
0.6084,0.3916	-1265.53
0.6889,0.3111	-1266.50
0.6155,0.3845	-1264.11
0.4828,0.5172	-1266.39
0.8225,0.1775	-1261.57
0.8722,0.1278	-1261.62
0.5715,0.4285	-1265.98
0.5999,0.4001	-1265.15
0.6343,0.3657	-1264.96
0.5173,0.4827	-1266.27
0.8344,0.1656	-1261.56
0.8676,0.1324	-1261.60
0.5989,0.4011	-1266.36
0.6096,0.3904	-1265.98
0.6152,0.3848	-1266.46
0.5363,0.4637	-1265.98
0.8234,0.1766	-1263.11
0.8249,0.1751	-1266.22
0.5946,0.4054	-1266.72
0.5292,0.4708	-1266.06
0.6601,0.3399	-1262.91
0.5897,0.4103	-1264.50
0.8285,0.1715	-1263.14
0.8058,0.1942	-1261.61
0.5477,0.4523	-1266.63
0.4871,0.5129	-1266.61
0.6570,0.3430	-1265.56
0.6578,0.3422	-1264.25
0.8501,0.1499	-1263.30
0.8103,0.1897	-1261.60
0.5664,0.4336	-1265.72
0.5097,0.4903	-1266.34
0.6503,0.3497	-1265.54
0.7103,0.2897	-1264.08
0.8416,0.1584	-1261.56
0.8019,0.1981	-1264.42
0.5068,0.4932	-1266.40
0.5358,0.4642	-1266.13
0.6054,0.3946	-1264.68
0.7349,0.2651	-1262.04
0.8380,0.1620	-1261.56
0.7858,0.2142	-1264.29
0.5245,0.4755	-1266.11
0.5198,0.4802	-1266.09
0.6881,0.3119	-1265.70
0.6929,0.3071	-1265.73
0.8215,0.1785	-1266.15
0.7900,0.2100	-1264.32
0.4781,0.5219	-1266.56
0.5498,0.4502	-1265.65
0.6929,0.3071	-1264.11
0.7418,0.2582	-1267.26
0.8264,0.1736	-1261.56
0.7805,0.2195	-1265.52
0.5227,0.4773	-1266.59
0.5472,0.4528	-1266.82
0.6864,0.3136	-1264.91
0.7400,0.2600	-1263.04
0.8057,0.1943	-1264.46
0.7742,0.2258	-1259.29
0.5306,0.4694	-1266.04
0.5714,0.4286	-1266.26
0.6967,0.3033	-1268.26
0.7515,0.2485	-1263.01
0.7879,0.2121	-1264.31
0.8334,0.1666	-1261.56
0.5340,0.4660	-1266.14
0.5531,0.4469	-1265.82
0.6215,0.3785	-1265.02
0.6979,0.3021	-1264.09
0.7984,0.2016	-1263.01
0.8336,0.1664	-1264.78
0.4938,0.5062	-1266.50
0.5697,0.4303	-1265.70
0.7113,0.2887	-1266.78
0.7231,0.2769	-1261.19
0.7445,0.2555	-1265.17
0.8435,0.1565	-1258.19
0.4594,0.5406	-1266.88
0.5725,0.4275	-1265.97
0.7310,0.2690	-1266.08
0.7307,0.2693	-1265.07
0.7623,0.2377	-1261.83
0.8529,0.1471	-1258.05
0.5173,0.4827	-1266.27
0.5970,0.4030	-1264.39
0.6969,0.3031	-1262.43
0.7385,0.2615	-1264.09
0.7587,0.2413	-1267.58
0.8335,0.1665	-1263.17
0.4763,0.5237	-1266.58
0.6395,0.3605	-1263.80
0.6445,0.3555	-1264.34
0.7466,0.2534	-1261.94
0.7691,0.2309	-1266.60
0.8201,0.1799	-1263.09
0.4837,0.5163	-1266.53
0.5536,0.4464	-1266.03
0.6797,0.3203	-1266.40
0.7337,0.2663	-1263.07
0.7201,0.2799	-1265.02
0.8287,0.1713	-1263.14
0.4807,0.5193	-1266.70
0.6021,0.3979	-1265.96
0.6803,0.3197	-1264.14
0.8000,0.2000	-1261.63
0.7495,0.2505	-1265.21
0.8179,0.1821	-1267.59
0.4924,0.5076	-1266.48
0.5747,0.4253	-1267.17
0.6570,0.3430	-1268.16
0.7869,0.2131	-1265.61
0.7732,0.2268	-1260.53
0.7837,0.2163	-1266.85
0.4554,0.5446	-1267.12
0.5375,0.4625	-1266.57
0.6976,0.3024	-1265.77
0.7687,0.2313	-1265.39
0.8113,0.1887	-1265.97
0.7635,0.2365	-1267.68
0.4758,0.5242	-1266.29
0.5037,0.4963	-1266.48
0.7496,0.2504	-1263.02
0.7745,0.2255	-1261.75
0.7991,0.2009	-1265.78
0.7478,0.2522	-1263.02
0.4626,0.5374	-1266.24
0.4243,0.5757	-1268.10
0.7757,0.2243	-1264.23
0.7253,0.2747	-1266.99
0.7786,0.2214	-1262.99
0.7400,0.2600	-1265.14
0.4929,0.5071	-1266.48
0.4160,0.5840	-1266.65
0.7530,0.2470	-1264.12
0.7224,0.2776	-1263.11
0.8011,0.1989	-1261.63
0.7407,0.2593	-1265.14
0.4731,0.5269	-1266.71
0.4189,0.5811	-1266.30
0.7024,0.2976	-1262.37
0.7902,0.2098	-1261.67
0.7650,0.2350	-1266.53
0.7641,0.2359	-1262.99
0.4222,0.5778	-1267.22
0.4601,0.5399	-1266.71
0.6760,0.3240	-1264.16
0.7426,0.2574	-1264.10
0.7614,0.2386	-1267.64
0.7823,0.2177	-1261.71
0.4579,0.5421	-1267.07
0.5023,0.4977	-1266.46
0.7122,0.2878	-1264.98
0.7194,0.2806	-1265.95
0.8170,0.1830	-1264.57
0.8047,0.1953	-1263.03
0.5246,0.4754	-1266.21
0.4338,0.5662	-1267.57
0.6625,0.3375	-1266.25
0.7038,0.2962	-1263.22
0.7907,0.2093	-1263.00
0.8043,0.1957	-1265.86
0.5852,0.4148	-1268.02
0.4954,0.5046	-1266.47
0.6064,0.3936	-1267.27
0.6958,0.3042	-1264.10
0.7502,0.2498	-1266.31
0.7840,0.2160	-1262.99
0.6450,0.3550	-1263.74
0.5112,0.4888	-1266.46
0.6734,0.3266	-1262.73
0.6179,0.3821	-1265.52
0.7222,0.2778	-1263.12
0.7509,0.2491	-1263.01
0.5974,0.4026	-1266.35
0.4736,0.5264	-1266.70
0.6937,0.3063	-1264.10
0.5803,0.4197	-1265.96
0.7046,0.2954	-1264.95
0.7530,0.2470	-1264.12
0.6050,0.3950	-1265.54
0.3821,0.6179	-1265.21
0.6869,0.3131	-1268.05
0.6420,0.3580	-1264.35
0.7006,0.2994	-1264.94
0.7671,0.2329	-1265.37
0.6179,0.3821	-1265.52
0.4654,0.5346	-1266.52
0.7190,0.2810	-1268.77
0.5779,0.4221	-1265.34
0.6379,0.3621	-1265.52
0.7645,0.2355	-1262.99
0.6438,0.3562	-1264.93
0.4532,0.5468	-1266.79
0.7192,0.2808	-1263.13
0.5171,0.4829	-1266.41
0.5897,0.4103	-1265.59
0.7299,0.2701	-1267.06
0.6676,0.3324	-1266.29
0.5045,0.4955	-1266.42
0.7596,0.2404	-1264.15
0.5214,0.4786	-1266.24
0.6643,0.3357	-1265.58
0.7294,0.2706	-1264.08
0.6074,0.3926	-1265.10
0.5092,0.4908	-1266.31
0.7677,0.2323	-1264.18
0.5368,0.4632	-1266.27
0.6957,0.3043	-1264.10
0.7470,0.2530	-1261.94
0.6595,0.3405	-1265.56
0.5349,0.4651	-1266.14
0.7829,0.2171	-1264.27
0.5709,0.4291	-1265.98
0.7169,0.2831	-1264.07
0.7701,0.2299	-1265.41
0.6837,0.3163	-1263.36
0.5145,0.4855	-1266.24
0.7604,0.2396	-1267.62
0.5425,0.4575	-1266.09
0.7324,0.2676	-1266.09
0.7799,0.2201	-1262.99
0.6876,0.3124	-1264.12
0.5631,0.4369	-1266.25
0.7429,0.2571	-1265.16
0.5798,0.4202	-1265.00
0.7318,0.2682	-1262.07
0.7897,0.2103	-1265.64
0.6812,0.3188	-1264.90
0.5776,0.4224	-1265.65
0.7527,0.2473	-1264.12
0.5717,0.4283	-1265.69
0.6883,0.3117	-1264.91
0.7523,0.2477	-1264.12
0.7551,0.2449	-1260.75
0.5837,0.4163	-1266.97
0.7370,0.2630	-1265.12
0.5343,0.4657	-1266.28
0.6522,0.3478	-1268.06
0.7641,0.2359	-1264.17
0.7391,0.2609	-1264.09
0.6069,0.3931	-1264.67
0.7493,0.2507	-1263.02
0.5177,0.4823	-1266.34
0.6447,0.3553	-1264.93
0.7828,0.2172	-1264.27
0.7327,0.2673	-1265.09
0.6118,0.3882	-1266.44
0.8243,0.1757	-1263.11
0.5251,0.4749	-1266.21
0.6060,0.3940	-1265.54
0.7873,0.2127	-1262.99
0.7528,0.2472	-1268.58
0.6802,0.3198	-1266.41
0.8027,0.1973	-1263.02
0.4968,0.5032	-1266.50
0.5540,0.4460	-1266.46
0.7983,0.2017	-1263.01
0.7469,0.2531	-1265.19
0.6944,0.3056	-1264.92
0.7791,0.2209	-1266.77
0.4982,0.5018	-1266.46
0.5557,0.4443	-1265.80
0.8243,0.1757	-1264.66
0.7835,0.2165	-1264.28
0.6941,0.3059	-1266.56
0.7474,0.2526	-1263.02
0.4786,0.5214	-1266.73
0.5335,0.4665	-1266.01
0.8116,0.1884	-1263.05
0.7698,0.2302	-1264.20
0.7074,0.2926	-1265.84
0.7457,0.2543	-1263.03
0.4881,0.5119	-1266.50
0.6172,0.3828	-1265.52
0.7857,0.2143	-1265.59
0.7366,0.2634	-1264.08
0.7392,0.2608	-1262.01
0.7416,0.2584	-1266.20
0.4815,0.5185	-1266.76
0.5844,0.4156	-1265.28
0.8161,0.1839	-1263.07
0.7063,0.2937	-1265.84
0.7275,0.2725	-1265.06
0.7120,0.2880	-1265.88
0.4519,0.5481	-1266.41
0.6184,0.3816	-1265.52
0.8375,0.1625	-1264.83
0.6983,0.3017	-1265.77
0.7205,0.2795	-1265.02
0.7198,0.2802	-1265.01
0.4588,0.5412	-1266.89
0.6135,0.3865	-1265.99
0.7742,0.2258	-1260.52
0.6916,0.3084	-1263.30
0.7394,0.2606	-1264.09
0.6990,0.3010	-1264.93
0.4779,0.5221	-1266.74
0.5460,0.4540	-1265.88
0.7719,0.2281	-1265.43
0.6622,0.3378	-1268.27
0.7520,0.2480	-1263.01
0.7498,0.2502	-1263.02
0.4141,0.5859	-1267.02
0.5553,0.4447	-1266.69
0.7809,0.2191	-1268.07
0.6777,0.3223	-1266.38
0.7512,0.2488	-1264.12
0.7896,0.2104	-1265.64
0.4290,0.5710	-1267.11
0.5446,0.4554	-1266.26
0.7717,0.2283	-1262.99
0.6752,0.3248	-1264.16
0.7399,0.2601	-1267.23
0.7790,0.2210	-1264.25
0.4505,0.5495	-1267.21
0.5432,0.4568	-1266.08
0.7561,0.2439	-1266.40
0.6764,0.3236	-1265.63
0.7548,0.2452	-1263.01
0.7669,0.2331	-1260.61
0.4049,0.5951	-1267.94
0.5533,0.4467	-1265.61
0.7381,0.2619	-1263.05
0.6380,0.3620	-1264.38
0.7699,0.2301	-1265.40
0.8183,0.1817	-1264.59
0.4007,0.5993	-1267.24
0.5493,0.4507	-1266.25
0.7176,0.2824	-1263.14
0.6278,0.3722	-1265.51
0.7768,0.2232	-1265.48
0.8058,0.1942	-1265.88
0.4037,0.5963	-1266.41
0.4701,0.5299	-1266.38
0.6905,0.3095	-1266.52
0.6388,0.3612	-1265.52
0.7495,0.2505	-1264.11
0.8082,0.1918	-1263.04
0.4484,0.5516	-1267.05
0.4640,0.5360	-1267.11
0.7085,0.2915	-1263.19
0.6725,0.3275	-1266.34
0.7866,0.2134	-1264.30
0.7952,0.2048	-1263.01
0.4378,0.5622	-1266.73
0.5168,0.4832	-1266.34
0.7083,0.2917	-1264.08
0.6507,0.3493	-1263.05
0.7522,0.2478	-1261.90
0.7837,0.2163	-1266.85
0.4230,0.5770	-1266.90
0.5069,0.4931	-1266.37
0.6750,0.3250	-1263.43
0.6070,0.3930	-1265.54
0.7530,0.2470	-1266.35
0.7834,0.2166	-1265.56
0.4766,0.5234	-1266.67
0.4914,0.5086	-1266.49
0.6714,0.3286	-1264.90
0.6044,0.3956	-1266.82
0.7394,0.2606	-1265.13
0.8303,0.1697	-1263.15
0.5290,0.4710	-1266.18
0.4725,0.5275	-1266.93
0.6617,0.3383	-1264.90
0.6638,0.3362	-1264.90
0.7227,0.2773	-1263.11
0.8258,0.1742	-1264.68
0.6042,0.3958	-1265.97
0.5187,0.4813	-1266.48
0.6767,0.3233	-1262.68
0.6217,0.3783	-1265.02
0.6957,0.3043	-1264.10
0.8169,0.1831	-1263.08
0.5496,0.4504	-1266.65
0.5256,0.4744	-1266.20
0.6591,0.3409	-1266.22
0.5804,0.4196	-1266.93
0.6815,0.3185	-1263.38
0.8609,0.1391	-1259.76
0.5401,0.4599	-1265.94
0.5423,0.4577	-1266.09
0.6973,0.3027	-1264.93
0.5984,0.4016	-1266.76
0.6923,0.3077	-1265.73
0.8824,0.1176	-1259.66
0.6141,0.3859	-1265.99
0.5226,0.4774	-1266.14
0.7377,0.2623	-1264.09
0.6387,0.3613	-1264.95
0.6715,0.3285	-1266.33
0.8662,0.1338	-1267.20
0.6780,0.3220	-1264.90
0.4677,0.5323	-1266.90
0.6979,0.3021	-1264.09
0.6446,0.3554	-1265.53
0.6845,0.3155	-1264.90
0.8640,0.1360	-1261.59
0.6760,0.3240	-1265.63
0.4942,0.5058	-1266.52
0.6842,0.3158	-1263.36
0.6027,0.3973	-1266.80
0.7089,0.2911	-1264.08
0.8670,0.1330	-1267.23
0.6484,0.3516	-1263.70
0.4609,0.5391	-1266.39
0.6901,0.3099	-1264.91
0.5902,0.4098	-1265.59
0.7010,0.2990	-1264.94
0.8371,0.1629	-1263.19
0.6812,0.3188	-1264.14
0.4095,0.5905	-1266.73
0.7127,0.2873	-1266.80
0.6072,0.3928	-1265.97
0.6862,0.3138	-1262.56
0.8340,0.1660	-1264.79
0.6873,0.3127	-1264.91
0.4164,0.5836	-1268.00
0.6963,0.3037	-1265.76
0.6181,0.3819	-1266.48
0.7229,0.2771	-1262.15
0.8480,0.1520	-1261.56
0.7081,0.2919	-1263.19
0.4888,0.5112	-1266.45
0.6594,0.3406	-1266.89
0.6535,0.3465	-1267.45
0.6988,0.3012	-1264.09
0.8521,0.1479	-1261.57
0.7009,0.2991	-1267.50
0.5629,0.4371	-1265.74
0.6557,0.3443	-1266.20
0.6098,0.3902	-1265.53
0.6773,0.3227	-1264.90
0.8416,0.1584	-1263.23
0.7562,0.2438	-1265.27
0.6267,0.3733	-1265.51
0.6225,0.3775	-1265.51
0.6612,0.3388	-1264.90
0.6930,0.3070	-1266.55
0.8532,0.1468	-1259.81
0.7878,0.2122	-1260.37
0.5901,0.4099	-1266.32
0.6321,0.3679	-1264.97
0.6654,0.3346	-1264.21
0.6867,0.3133	-1266.48
0.8392,0.1608	-1261.56
0.7886,0.2114	-1264.31
0.5461,0.4539	-1266.62
0.6366,0.3634	-1266.08
0.6988,0.3012	-1265.78
0.7292,0.2708	-1262.09
0.8023,0.1977	-1261.62
0.8038,0.1962	-1260.21
0.5492,0.4508	-1266.25
0.6613,0.3387	-1264.90
0.6669,0.3331	-1264.90
0.7581,0.2419	-1264.14
0.7922,0.2078	-1263.00
0.7969,0.2031	-1267.11
0.5950,0.4050	-1265.57
0.6238,0.3762	-1263.49
0.6189,0.3811	-1266.97
0.7784,0.2216	-1264.24
0.7749,0.2251	-1260.51
0.8068,0.1932	-1261.61
0.6242,0.3758	-1266.53
0.5623,0.4377	-1266.00
0.5437,0.4563	-1265.73
0.8167,0.1833	-1264.57
0.7551,0.2449	-1265.26
0.7620,0.2380	-1262.99
0.6066,0.3934	-1266.40
0.5293,0.4707	-1266.41
0.5176,0.4824	-1266.41
0.7935,0.2065	-1263.00
0.7658,0.2342	-1260.62
0.7533,0.2467	-1263.01
0.5997,0.4003	-1265.56
0.5191,0.4809	-1266.26
0.5015,0.4985	-1266.43
0.7586,0.2414	-1261.86
0.8147,0.1853	-1266.03
0.7260,0.2740	-1264.07
0.6299,0.3701	-1264.98
0.6183,0.3817	-1265.04
0.5257,0.4743	-1266.20
0.7925,0.2075	-1267.02
0.8229,0.1771	-1260.03
0.7305,0.2695	-1262.08
0.6753,0.3247	-1264.16
0.6372,0.3628	-1264.95
0.5138,0.4862	-1266.36
0.8113,0.1887	-1270.34
0.8194,0.1806	-1263.09
0.7065,0.2935	-1263.20
0.7002,0.2998	-1261.54
0.6528,0.3472	-1266.81
0.5042,0.4958	-1266.47
0.8263,0.1737	-1261.56
0.8541,0.1459	-1259.80
0.7243,0.2757	-1263.11
0.6747,0.3253	-1263.44
0.6173,0.3827	-1266.00
0.5601,0.4399	-1266.01
0.8107,0.1893	-1261.60
0.8383,0.1617	-1259.91
0.6642,0.3358	-1262.85
0.7090,0.2910	-1265.86
0.6170,0.3830	-1262.66
0.5613,0.4387	-1266.50
0.8380,0.1620	-1261.56
0.8448,0.1552	-1264.95
0.7175,0.2825	-1265.94
0.6638,0.3362	-1266.94
0.6530,0.3470	-1265.55
0.5768,0.4232	-1265.35
0.8173,0.1827	-1264.58
0.8396,0.1604	-1264.87
0.6940,0.3060	-1262.46
0.7139,0.2861	-1263.16
0.6742,0.3258	-1265.62
0.5776,0.4224	-1266.28
0.8238,0.1762	-1264.65
0.8198,0.1802	-1261.57
0.7359,0.2641	-1263.06
0.7391,0.2609	-1262.01
0.7244,0.2756	-1265.04
0.5440,0.4560	-1266.43
0.8578,0.1422	-1259.78
0.8165,0.1835	-1258.60
0.7518,0.2482	-1264.12
0.7170,0.2830	-1264.07
0.7223,0.2777	-1265.98
0.5799,0.4201	-1265.64
0.8685,0.1315	-1259.72
0.8300,0.1700	-1263.15
0.7866,0.2134	-1261.69
0.7000,0.3000	-1263.24
0.7209,0.2791	-1263.12
0.5834,0.4166	-1265.62
0.8680,0.1320	-1263.49
0.8282,0.1718	-1264.71
0.7875,0.2125	-1265.61
0.7102,0.2898	-1263.18
0.6967,0.3033	-1263.26
0.5474,0.4526	-1266.06
0.8534,0.1466	-1263.33
0.8404,0.1596	-1264.88
0.8189,0.1811	-1264.59
0.7535,0.2465	-1261.89
0.6606,0.3394	-1264.24
0.5655,0.4345	-1266.25
0.8445,0.1555	-1264.94
0.8485,0.1515	-1263.28
0.7661,0.2339	-1262.99
0.7796,0.2204	-1265.51
0.6176,0.3824	-1265.04
0.6182,0.3818	-1266.00
0.8335,0.1665	-1259.95
0.8244,0.1756	-1264.66
0.7384,0.2616	-1265.13
0.7499,0.2501	-1261.92
0.6199,0.3801	-1265.03
0.6005,0.3995	-1265.96
0.8239,0.1761	-1263.11
0.8423,0.1577	-1259.88
0.7427,0.2573	-1266.22
0.7219,0.2781	-1262.16
0.6027,0.3973	-1265.96
0.5882,0.4118	-1264.89
0.8361,0.1639	-1261.56
0.8081,0.1919	-1263.04
0.7558,0.2442	-1263.00
0.6969,0.3031	-1265.76
0.6260,0.3740	-1263.97
0.5541,0.4459	-1266.25
0.8615,0.1385	-1267.07
0.8219,0.1781	-1261.57
0.7504,0.2496	-1261.92
0.7074,0.2926	-1265.84
0.6506,0.3494	-1264.92
0.5357,0.4643	-1266.42
0.8396,0.1604	-1261.56
0.8264,0.1736	-1258.44
0.7235,0.2765	-1265.03
0.7209,0.2791	-1265.02
0.6379,0.3621	-1267.78
0.5390,0.4610	-1266.27
0.8363,0.1637	-1263.19
0.7970,0.2030	-1261.64
0.7232,0.2768	-1265.03
0.6564,0.3436	-1264.26
0.6494,0.3506	-1264.92
0.5813,0.4187	-1266.62
0.8301,0.1699	-1258.39
0.7597,0.2403	-1265.30
0.7147,0.2853	-1262.24
0.6576,0.3424	-1264.91
0.6149,0.3851	-1266.46
0.5513,0.4487	-1265.84
0.8354,0.1646	-1264.80
0.7809,0.2191	-1265.53
0.7184,0.2816	-1264.07
0.6260,0.3740	-1265.00
0.5954,0.4046	-1265.18
0.5807,0.4193	-1264.66
0.8132,0.1868	-1263.06
0.7445,0.2555	-1264.10
0.7133,0.2867	-1261.34
0.6166,0.3834	-1265.05
0.5945,0.4055	-1265.96
0.5337,0.4663	-1266.01
0.7989,0.2011	-1260.26
0.7426,0.2574	-1264.10
0.7029,0.2971	-1264.95
0.6409,0.3591	-1264.94
0.5861,0.4139	-1266.65
0.4497,0.5503	-1266.82
0.7979,0.2021	-1264.39
0.7058,0.2942	-1264.96
0.7572,0.2428	-1264.14
0.6841,0.3159	-1265.68
0.5770,0.4230	-1266.90
0.4244,0.5756	-1266.27
0.7187,0.2813	-1263.13
0.6553,0.3447	-1262.98
0.7583,0.2417	-1265.29
0.7489,0.2511	-1264.11
0.5225,0.4775	-1266.32
0.4262,0.5738	-1267.45
0.6915,0.3085	-1263.30
0.6507,0.3493	-1266.78
0.7875,0.2125	-1262.99
0.7958,0.2042	-1267.09
0.5181,0.4819	-1266.19
0.4607,0.5393	-1266.55
0.7015,0.2985	-1265.80
0.6611,0.3389	-1264.23
0.8460,0.1540	-1259.85
0.7811,0.2189	-1262.99
0.4665,0.5335	-1266.52
0.5408,0.4592	-1266.10
0.7053,0.2947	-1265.83
0.6055,0.3945	-1265.54
0.8684,0.1316	-1261.61
0.7719,0.2281	-1264.21
0.5177,0.4823	-1266.41
0.5711,0.4289	-1266.55
0.7503,0.2497	-1265.22
0.5545,0.4455	-1266.47
0.8761,0.1239	-1261.64
0.7656,0.2344	-1262.99
0.5266,0.4734	-1265.98
0.6184,0.3816	-1265.04
0.7379,0.2621	-1265.12
0.5175,0.4825	-1265.99
0.8684,0.1316	-1263.49
0.7492,0.2508	-1264.11
0.5883,0.4117	-1265.24
0.5746,0.4254	-1264.47
0.7174,0.2826	-1267.80
0.5247,0.4753	-1266.21
0.8763,0.1237	-1257.72
0.7774,0.2226	-1264.24
0.6231,0.3769	-1266.02
0.6426,0.3574	-1264.94
0.7527,0.2473	-1265.24
0.5375,0.4625	-1265.82
0.8912,0.1088	-1259.63
0.7612,0.2388	-1263.00
0.5992,0.4008	-1267.17
0.6196,0.3804	-1265.52
0.7557,0.2443	-1263.00
0.5562,0.4438	-1266.25
0.8822,0.1178	-1259.66
0.7283,0.2717	-1263.09
0.6026,0.3974	-1266.38
0.6438,0.3562	-1266.71
0.7569,0.2431	-1263.00
0.6008,0.3992	-1265.14
0.8914,0.1086	-1259.63
0.7243,0.2757	-1267.94
0.5835,0.4165	-1266.30
0.6211,0.3789	-1265.02
0.7211,0.2789	-1265.02
0.6130,0.3870	-1265.53
0.8639,0.1361	-1261.59
0.6832,0.3168	-1267.21
0.5664,0.4336	-1266.25
0.6552,0.3448	-1266.19
0.7625,0.2375	-1264.16
0.5714,0.4286	-1265.98
0.8525,0.1475	-1266.83
0.6890,0.3110	-1262.53
0.5620,0.4380	-1266.50
0.6008,0.3992	-1266.37
0.7138,0.2862	-1265.90
0.5896,0.4104	-1266.32
0.8632,0.1368	-1263.43
0.6825,0.3175	-1268.73
0.5665,0.4335	-1265.18
0.6120,0.3880	-1264.16
0.7079,0.2921	-1265.85
0.5935,0.4065	-1265.58
0.8033,0.1967	-1263.03
0.7292,0.2708	-1262.09
0.5692,0.4308	-1265.70
0.6906,0.3094	-1264.91
0.6968,0.3032	-1264.93
0.5801,0.4199	-1265.31
0.7994,0.2006	-1267.16
0.6970,0.3030	-1263.26
0.6025,0.3975	-1266.38
0.7037,0.2963	-1264.95
0.7087,0.2913	-1264.97
0.6273,0.3727	-1264.99
0.7199,0.2801	-1265.01
0.6968,0.3032	-1263.26
0.6026,0.3974	-1264.72
0.7020,0.2980	-1264.09
0.6989,0.3011	-1266.62
0.5958,0.4042	-1265.18
0.7104,0.2896	-1265.87
0.6648,0.3352	-1263.53
0.5634,0.4366	-1265.49
0.7396,0.2604	-1264.09
0.7053,0.2947	-1266.70
0.6503,0.3497	-1264.92
0.7106,0.2894	-1264.08
0.6542,0.3458	-1264.91
0.4898,0.5102	-1266.41
0.6945,0.3055	-1262.46
0.6941,0.3059	-1262.46
0.6330,0.3670	-1264.97
0.7247,0.2753	-1261.17
0.6829,0.3171	-1267.20
0.5686,0.4314	-1264.88
0.6692,0.3308	-1267.01
0.7413,0.2587	-1265.15
0.6731,0.3269	-1267.06
0.7444,0.2556	-1266.24
0.7150,0.2850	-1264.99
0.5475,0.4525	-1266.06
0.6503,0.3497	-1265.54
0.7299,0.2701	-1265.07
0.6176,0.3824	-1264.56
0.7156,0.2844	-1262.23
0.6906,0.3094	-1265.72
0.5122,0.4878	-1266.52
0.6940,0.3060	-1265.74
0.7101,0.2899	-1264.08
0.6147,0.3853	-1264.59
0.6937,0.3063	-1264.10
0.6894,0.3106	-1264.12
0.5014,0.4986	-1266.43
0.6264,0.3736	-1265.51
0.6621,0.3379	-1266.25
0.5919,0.4081	-1265.96
0.7145,0.2855	-1266.82
0.7097,0.2903	-1264.97
0.5068,0.4932	-1266.46
0.5790,0.4210	-1266.92
0.6510,0.3490	-1264.29
0.4641,0.5359	-1266.39
0.6940,0.3060	-1263.28
0.6973,0.3027	-1264.93
0.4973,0.5027	-1266.48
0.6071,0.3929	-1265.10
0.6446,0.3554	-1263.74
0.3901,0.6099	-1266.10
0.7056,0.2944	-1264.95
0.6840,0.3160	-1264.13
0.5660,0.4340	-1265.72
0.4874,0.5126	-1266.56
0.6265,0.3735	-1264.48
0.3851,0.6149	-1268.02
0.7011,0.2989	-1264.09
0.7154,0.2846	-1264.99
0.5454,0.4546	-1266.44
0.5350,0.4650	-1265.85
0.6331,0.3669	-1263.88
0.4549,0.5451	-1267.31
0.7590,0.2410	-1267.59
0.7216,0.2784	-1262.17
0.4970,0.5030	-1266.47
0.5573,0.4427	-1265.56
0.6431,0.3569	-1264.94
0.4726,0.5274	-1266.82
0.7399,0.2601	-1267.23
0.7675,0.2325	-1261.80
0.4911,0.5089	-1266.45
0.6294,0.3706	-1266.04
0.6318,0.3682	-1263.89
0.5049,0.4951	-1266.49
0.7156,0.2844	-1267.76
0.7698,0.2302	-1266.61
0.4543,0.5457	-1267.32
0.5926,0.4074	-1266.33
0.6082,0.3918	-1265.09
0.5400,0.4600	-1265.94
0.6927,0.3073	-1263.29
0.7950,0.2050	-1264.36
0.4573,0.5427	-1266.91
0.5498,0.4502	-1265.85
0.6083,0.3917	-1265.53
0.5050,0.4950	-1266.39
0.6814,0.3186	-1263.38
0.8236,0.1764	-1261.57
0.4451,0.5549	-1267.10
0.5543,0.4457	-1266.47
0.4892,0.5108	-1266.50
0.5011,0.4989	-1266.43
0.6746,0.3254	-1265.63
0.7920,0.2080	-1264.34
0.4299,0.5701	-1266.81
0.5531,0.4469	-1266.67
0.5357,0.4643	-1265.99
0.4506,0.5494	-1267.01
0.7211,0.2789	-1265.02
0.8176,0.1824	-1260.08
0.3793,0.6207	-1267.68
0.6186,0.3814	-1266.00
0.5025,0.4975	-1266.43
0.4411,0.5589	-1266.70
0.6770,0.3230	-1264.90
0.8444,0.1556	-1263.25
0.4243,0.5757	-1266.27
0.6288,0.3712	-1267.09
0.4588,0.5412	-1267.72
0.4782,0.5218	-1266.56
0.6405,0.3595	-1263.79
0.8197,0.1803	-1264.60
0.3847,0.6153	-1268.50
0.6173,0.3827	-1265.04
0.4882,0.5118	-1266.36
0.5175,0.4825	-1266.41
0.5755,0.4245	-1265.05
0.8173,0.1827	-1267.57
0.3753,0.6247	-1267.78
0.6201,0.3799	-1263.56
0.4093,0.5907	-1266.73
0.5022,0.4978	-1266.41
0.5911,0.4089	-1266.69
0.8508,0.1492	-1261.56
0.4089,0.5911	-1267.84
0.5706,0.4294	-1265.12
0.3830,0.6170	-1266.64
0.5194,0.4806	-1266.25
0.5656,0.4344	-1265.46
0.8704,0.1296	-1265.42
0.3780,0.6220	-1267.71
0.5748,0.4252	-1266.27
0.4178,0.5822	-1266.63
0.4502,0.5498	-1266.82
0.5493,0.4507	-1266.84
0.8630,0.1370	-1261.59
0.3942,0.6058	-1267.36
0.5444,0.4556	-1265.90
0.4242,0.5758	-1267.19
0.4429,0.5571	-1266.68
0.5815,0.4185	-1266.62
0.8613,0.1387	-1261.58
0.4051,0.5949	-1266.39
0.5213,0.4787	-1265.81
0.4340,0.5660	-1267.03
0.4819,0.5181	-1266.47
0.5814,0.4186	-1266.29
0.8552,0.1448	-1259.79
0.4421,0.5579	-1266.45
0.5095,0.4905	-1266.46
0.3929,0.6071	-1268.69
0.4355,0.5645	-1266.49
0.5358,0.4642	-1265.99
0.8504,0.1496	-1266.78
0.4263,0.5737	-1266.56
0.5260,0.4740	-1266.30
0.4058,0.5942	-1267.91
0.4122,0.5878	-1266.34
0.5258,0.4742	-1266.10
0.8536,0.1464	-1261.57
0.4196,0.5804	-1268.24
0.5243,0.4757	-1266.41
0.4407,0.5593	-1267.65
0.4285,0.5715	-1267.40
0.5095,0.4905	-1266.35
0.8544,0.1456	-1259.80
0.3941,0.6059	-1266.93
0.5327,0.4673	-1266.28
0.5113,0.4887	-1266.37
0.4604,0.5396	-1266.39
0.5614,0.4386	-1266.50
0.8471,0.1529	-1261.56
0.4029,0.5971	-1267.20
0.5756,0.4244	-1265.05
0.5755,0.4245	-1266.58
0.4574,0.5426	-1266.91
0.5669,0.4331	-1265.72
0.7892,0.2108	-1264.32
0.3688,0.6312	-1270.09
0.5528,0.4472	-1265.82
0.5438,0.4562	-1266.43
0.4558,0.5442	-1267.82
0.5941,0.4059	-1265.19
0.7672,0.2328	-1262.99
0.3762,0.6238	-1268.26
0.5552,0.4448	-1266.69
0.5656,0.4344	-1265.73
0.4821,0.5179	-1266.61
0.5889,0.4111	-1267.39
0.7665,0.2335	-1264.18
0.3884,0.6116	-1267.48
0.5309,0.4691	-1266.04
0.5160,0.4840	-1266.16
0.4320,0.5680	-1267.61
0.6073,0.3927	-1265.10
0.7718,0.2282	-1264.21
0.3689,0.6311	-1267.94
0.5484,0.4516	-1265.67
0.5415,0.4585	-1265.59
0.4045,0.5955	-1266.79
0.6567,0.3433	-1266.20
0.7750,0.2250	-1262.99
0.3605,0.6395	-1268.74
0.5202,0.4798	-1266.25
0.5104,0.4896	-1266.46
0.4253,0.5747	-1267.47
0.6739,0.3261	-1267.80
0.7814,0.2186	-1262.99
0.3676,0.6324	-1270.14
0.4739,0.5261	-1266.49
0.5255,0.4745	-1266.10
0.4422,0.5578	-1266.45
0.6834,0.3166	-1264.90
0.8097,0.1903	-1265.94
0.3544,0.6456	-1268.35
0.4688,0.5312	-1266.51
0.5094,0.4906	-1266.50
0.4335,0.5665	-1266.77
0.6346,0.3654	-1267.17
0.8005,0.1995	-1261.63
0.3262,0.6738	-1269.37
0.4198,0.5802	-1267.91
0.5951,0.4049	-1265.57
0.4372,0.5628	-1267.49
0.5924,0.4076	-1265.58
0.8307,0.1693	-1264.74
0.3602,0.6398	-1268.18
0.4473,0.5527	-1266.85
0.6280,0.3720	-1264.47
0.4856,0.5144	-1266.57
0.5551,0.4449	-1265.81
0.8571,0.1429	-1263.37
0.4286,0.5714	-1266.54
0.4082,0.5918	-1266.74
0.6954,0.3046	-1264.92
0.4061,0.5939	-1267.15
0.5522,0.4478	-1266.88
0.8004,0.1996	-1264.41
0.4451,0.5549	-1267.10
0.4092,0.5908	-1267.83
0.7318,0.2682	-1268.09
0.4096,0.5904	-1267.82
0.5501,0.4499	-1266.05
0.8290,0.1710	-1261.56
0.4825,0.5175	-1266.60
0.3794,0.6206	-1267.19
0.7510,0.2490	-1269.64
0.4250,0.5750	-1266.87
0.5338,0.4662	-1266.01
0.7972,0.2028	-1265.75
0.4880,0.5120	-1266.45
0.3356,0.6644	-1269.00
0.7555,0.2445	-1265.26
0.4437,0.5563	-1267.58
0.5361,0.4639	-1266.56
0.7298,0.2702	-1266.06
0.5145,0.4855	-1266.18
0.3439,0.6561	-1269.34
0.7884,0.2116	-1261.68
0.3776,0.6224	-1266.22
0.5361,0.4639	-1265.69
0.7148,0.2852	-1264.99
0.5606,0.4394	-1265.76
0.3404,0.6596	-1266.17
0.7981,0.2019	-1267.13
0.4033,0.5967	-1266.41
0.5863,0.4137	-1264.91
0.7166,0.2834	-1265.00
0.5726,0.4274	-1265.97
0.3618,0.6382	-1267.57
0.8058,0.1942	-1261.61
0.4523,0.5477	-1266.99
0.5541,0.4459	-1266.03
0.7115,0.2885	-1263.17
0.5948,0.4052	-1265.19
0.3392,0.6608	-1270.19
0.8099,0.1901	-1264.50
0.4644,0.5356	-1266.53
0.4703,0.5297	-1267.21
0.6820,0.3180	-1264.90
0.5758,0.4242	-1266.88
0.3898,0.6102	-1267.90
0.7867,0.2133	-1262.99
0.4253,0.5747	-1266.57
0.4492,0.5508	-1266.63
0.6956,0.3044	-1267.40
0.6055,0.3945	-1265.11
0.4050,0.5950	-1267.55
0.7847,0.2153	-1262.99
0.4965,0.5035	-1266.46
0.4352,0.5648	-1267.28
0.7041,0.2959	-1262.35
0.6641,0.3359	-1264.90
0.4529,0.5471	-1266.60
0.7941,0.2059	-1264.35
0.4557,0.5443	-1266.76
0.5121,0.4879	-1266.42
0.6399,0.3601	-1266.10
0.6495,0.3505	-1264.92
0.3973,0.6027	-1266.47
0.8288,0.1712	-1269.45
0.4226,0.5774	-1267.22
0.5488,0.4512	-1266.05
0.6690,0.3310	-1264.90
0.6740,0.3260	-1264.90
0.4066,0.5934	-1267.14
0.7981,0.2019	-1264.39
0.4622,0.5378	-1266.39
0.6260,0.3740	-1265.51
0.6465,0.3535	-1264.32
0.7227,0.2773	-1265.03
0.4233,0.5767	-1267.82
0.7740,0.2260	-1265.45
0.4967,0.5033	-1266.49
0.6078,0.3922	-1265.97
0.6883,0.3117	-1267.29
0.7539,0.2461	-1261.89
0.4757,0.5243	-1266.58
0.7515,0.2485	-1263.01
0.4895,0.5105	-1266.49
0.5550,0.4450	-1265.81
0.7307,0.2693	-1262.08
0.7645,0.2355	-1262.99
0.4407,0.5593	-1267.65
0.7340,0.2660	-1267.13
0.4800,0.5200	-1266.55
0.5394,0.4606	-1265.63
0.7267,0.2733	-1265.05
0.7812,0.2188	-1265.53
0.4505,0.5495	-1266.82
0.6840,0.3160	-1262.59
0.4928,0.5072	-1266.39
0.5387,0.4613	-1265.96
0.7274,0.2726	-1263.09
0.7927,0.2073	-1260.32
0.4001,0.5999	-1268.06
0.7096,0.2904	-1264.08
0.4596,0.5404	-1267.37
0.5857,0.4143	-1266.65
0.7436,0.2564	-1267.29
0.7540,0.2460	-1266.37
0.4502,0.5498	-1267.02
0.7130,0.2870	-1265.89
0.4840,0.5160	-1266.53
0.5918,0.4082	-1265.96
0.7499,0.2501	-1263.02
0.7085,0.2915	-1267.63
0.4169,0.5831	-1266.31
0.7630,0.2370	-1265.33
0.5051,0.4949	-1266.45
0.5577,0.4423	-1265.09
0.7696,0.2304	-1264.19
0.6882,0.3118	-1264.91
0.3795,0.6205	-1267.18
0.7177,0.2823	-1263.14
0.5080,0.4920	-1266.33
0.5359,0.4641	-1266.13
0.7458,0.2542	-1264.10
0.6795,0.3205	-1264.15
0.3714,0.6286	-1267.87
0.7454,0.2546	-1265.18
0.5119,0.4881	-1266.28
0.5396,0.4604	-1265.95
0.7183,0.2817	-1263.14
0.6885,0.3115	-1263.32
0.3943,0.6057	-1266.50
0.7712,0.2288	-1261.77
0.5048,0.4952	-1266.43
0.5311,0.4689	-1266.53
0.7041,0.2959	-1264.08
0.6651,0.3349	-1263.53
0.4125,0.5875	-1268.11
0.7984,0.2016	-1263.01
0.5419,0.4581	-1266.09
0.5585,0.4415	-1265.31
0.7211,0.2789	-1263.12
0.6368,0.3632	-1264.39
0.3945,0.6055	-1267.78
0.7975,0.2025	-1263.01
0.5815,0.4185	-1265.30
0.5861,0.4139	-1263.87
0.7080,0.2920	-1266.74
0.6338,0.3662	-1266.06
0.4260,0.5740	-1266.26
0.7573,0.2427	-1263.00
0.6325,0.3675	-1264.43
0.6066,0.3934	-1265.10
0.7137,0.2863	-1264.07
0.6444,0.3556	-1264.34
0.4262,0.5738	-1267.15
0.7548,0.2452	-1261.88
0.6627,0.3373	-1264.90
0.5923,0.4077	-1265.58
0.6883,0.3117	-1264.91
0.6653,0.3347	-1264.21
0.4620,0.5380	-1267.00
0.7450,0.2550	-1265.17
0.6235,0.3765	-1264.50
0.6030,0.3970	-1265.96
0.6359,0.3641	-1266.63
0.6683,0.3317	-1265.60
0.4260,0.5740	-1267.46
0.7115,0.2885	-1263.17
0.6305,0.3695	-1266.58
0.6345,0.3655	-1266.62
0.6259,0.3741	-1266.03
0.6653,0.3347	-1264.21
0.4454,0.5546	-1266.66
0.7135,0.2865	-1263.16
0.6440,0.3560	-1267.30
0.6328,0.3672	-1264.97
0.6484,0.3516	-1266.15
0.6709,0.3291	-1267.74
0.4620,0.5380	-1266.39
0.6191,0.3809	-1266.49
0.6094,0.3906	-1265.98
0.6539,0.3461	-1266.18
0.6966,0.3034	-1263.27
0.6557,0.3443	-1264.91
0.4708,0.5292	-1266.50
0.5892,0.4108	-1265.23
0.6203,0.3797	-1266.99
0.6039,0.3961	-1266.39
0.6998,0.3002	-1263.24
0.6414,0.3586	-1264.94
0.4312,0.5688	-1267.35
0.5927,0.4073	-1265.21
0.6368,0.3632	-1264.39
0.6393,0.3607	-1266.09
0.7145,0.2855	-1264.07
0.6664,0.3336	-1264.21
0.4308,0.5692	-1268.75
0.5886,0.4114	-1265.60
0.6332,0.3668	-1266.61
0.6080,0.3920	-1264.66
0.6874,0.3126	-1262.55
0.7008,0.2992	-1263.24
0.3880,0.6120	-1265.66
0.5729,0.4271	-1265.38
0.6249,0.3751	-1265.00
0.5819,0.4181	-1266.62
0.6879,0.3121	-1263.33
0.7412,0.2588	-1261.99
0.4121,0.5879	-1267.41
0.5420,0.4580	-1265.59
0.6715,0.3285	-1264.90
0.5077,0.4923	-1266.43
0.6950,0.3050	-1264.92
0.6828,0.3172	-1265.67
0.4287,0.5713	-1266.83
0.5176,0.4824	-1266.41
0.6793,0.3207	-1264.15
0.5307,0.4693	-1266.29
0.7392,0.2608	-1265.13
0.6994,0.3006	-1266.62
0.4680,0.5320	-1266.51
0.4963,0.5037	-1266.49
0.7163,0.2837	-1268.70
0.5138,0.4862	-1266.53
0.7578,0.2422	-1265.28
0.6877,0.3123	-1264.91
0.4803,0.5197	-1266.39
0.4464,0.5536	-1267.29
0.7245,0.2755	-1265.04
0.4825,0.5175	-1266.74
0.7374,0.2626	-1264.09
0.6815,0.3185	-1265.66
0.5686,0.4314	-1266.26
0.4272,0.5728	-1267.14
0.7420,0.2580	-1265.15
0.4500,0.5500	-1265.82
0.7209,0.2791	-1267.87
0.6992,0.3008	-1265.78
0.5614,0.4386	-1266.00
0.4446,0.5554	-1267.33
0.7322,0.2678	-1264.08
0.4531,0.5469	-1266.60
0.7405,0.2595	-1265.14
0.6969,0.3031	-1261.60
0.5433,0.4567	-1265.74
0.5241,0.4759	-1266.02
0.7072,0.2928	-1264.96
0.5142,0.4858	-1266.41
0.7384,0.2616	-1265.13
0.6859,0.3141	-1264.91
0.5469,0.4531	-1266.06
0.5077,0.4923	-1266.40
0.7166,0.2834	-1265.00
0.5464,0.4536	-1266.63
0.7173,0.2827	-1265.00
0.6905,0.3095	-1265.72
0.5771,0.4229	-1265.03
0.5129,0.4871	-1266.37
0.7114,0.2886	-1263.17
0.4948,0.5052	-1266.39
0.7460,0.2540	-1266.26
0.6323,0.3677	-1264.97
0.5936,0.4064	-1265.96
0.4788,0.5212	-1266.22
0.7118,0.2882	-1264.07
0.4742,0.5258	-1266.59
0.7683,0.2317	-1260.59
0.6252,0.3748	-1265.51
0.6239,0.3761	-1266.02
0.4631,0.5369	-1266.68
0.6909,0.3091	-1262.50
0.4886,0.5114	-1266.54
0.7886,0.2114	-1263.00
0.5818,0.4182	-1266.95
0.6440,0.3560	-1264.34
0.4531,0.5469	-1266.79
0.6986,0.3014	-1265.77
0.5552,0.4448	-1266.25
0.7938,0.2062	-1261.66
0.5591,0.4409	-1265.30
0.6252,0.3748	-1266.02
0.4678,0.5322	-1266.38
0.6742,0.3258	-1263.44
0.5418,0.4582	-1266.43
0.7683,0.2317	-1259.39
0.5008,0.4992	-1266.46
0.6675,0.3325	-1264.20
0.4432,0.5568	-1266.90
0.6828,0.3172	-1264.14
0.5946,0.4054	-1264.81
0.8134,0.1866	-1264.53
0.5220,0.4780	-1266.32
0.6297,0.3703	-1264.45
0.4710,0.5290	-1266.50
0.6904,0.3096	-1266.52
0.5814,0.4186	-1264.64
0.8561,0.1439	-1265.14
0.5319,0.4681	-1266.41
0.5851,0.4149	-1266.64
0.5320,0.4680	-1266.03
0.6641,0.3359	-1266.94
0.4835,0.5165	-1266.40
0.8205,0.1795	-1261.57
0.5548,0.4452	-1265.81
0.5773,0.4227	-1265.03
0.5404,0.4596	-1266.26
0.6919,0.3081	-1265.73
0.5305,0.4695	-1265.92
0.7875,0.2125	-1264.30
0.5154,0.4846	-1266.60
0.6033,0.3967	-1265.13
0.5268,0.4732	-1266.41
0.7409,0.2591	-1259.89
0.5527,0.4473	-1265.83
0.7223,0.2777	-1264.07
0.5202,0.4798	-1266.17
0.5611,0.4389	-1265.76
0.5227,0.4773	-1266.04
0.7370,0.2630	-1264.09
0.6003,0.3997	-1267.59
0.7254,0.2746	-1266.02
0.4847,0.5153	-1266.58
0.4477,0.5523	-1266.64
0.5522,0.4478	-1266.67
0.7160,0.2840	-1265.00
0.6363,0.3637	-1265.52
0.6866,0.3134	-1264.91
0.4646,0.5354	-1266.81
0.4469,0.5531	-1266.65
0.5799,0.4201	-1265.96
0.6720,0.3280	-1266.33
0.6330,0.3670	-1264.42
0.7037,0.2963	-1265.81
0.4688,0.5312	-1266.51
0.4200,0.5800	-1267.26
0.6281,0.3719	-1264.99
0.6803,0.3197	-1262.64
0.6264,0.3736	-1264.48
0.6720,0.3280	-1265.61
0.4874,0.5126	-1266.51
0.3912,0.6088	-1268.75
0.5963,0.4037	-1265.57
0.6828,0.3172	-1265.67
0.6255,0.3745	-1265.51
0.6304,0.3696	-1265.51
0.4535,0.5465	-1266.04
0.4006,0.5994	-1266.44
0.5511,0.4489	-1265.43
0.6157,0.3843	-1265.05
0.6120,0.3880	-1265.98
0.6983,0.3017	-1266.61
0.4212,0.5788	-1266.60
0.4487,0.5513	-1267.25
0.5299,0.4701	-1266.05
0.6270,0.3730	-1264.99
0.6267,0.3733	-1266.55
0.6910,0.3090	-1264.92
0.4096,0.5904	-1267.82
0.4551,0.5449	-1266.76
0.4805,0.5195	-1266.70
0.6413,0.3587	-1266.10
0.5979,0.4021	-1265.56
0.7182,0.2818	-1264.07
0.3902,0.6098	-1267.89
0.4193,0.5807	-1267.27
0.4588,0.5412	-1267.22
0.5887,0.4113	-1265.96
0.5800,0.4200	-1265.96
0.7215,0.2785	-1264.07
0.4260,0.5740	-1268.05
0.4392,0.5608	-1267.20
0.5088,0.4912	-1266.42
0.5561,0.4439	-1265.12
0.6306,0.3694	-1265.51
0.7241,0.2759	-1264.07
0.3939,0.6061	-1266.94
0.4395,0.5605	-1266.71
0.4923,0.5077	-1266.48
0.5586,0.4414	-1266.25
0.5923,0.4077	-1265.58
0.7304,0.2696	-1265.07
0.4587,0.5413	-1266.73
0.4350,0.5650	-1267.28
0.4966,0.5034	-1266.46
0.5437,0.4563	-1265.91
0.5424,0.4576	-1265.92
0.6909,0.3091	-1263.31
0.4363,0.5637	-1267.00
0.4215,0.5785	-1267.23
0.5296,0.4704	-1266.17
0.5675,0.4325	-1265.98
0.5201,0.4799	-1266.33
0.6392,0.3608	-1266.09
0.4566,0.5434	-1266.92
0.4900,0.5100	-1266.53
0.5206,0.4794	-1266.41
0.5109,0.4891	-1266.33
0.5402,0.4598	-1266.26
0.6387,0.3613	-1266.09
0.4699,0.5301	-1266.38
0.5057,0.4943	-1266.43
0.5295,0.4705	-1266.17
0.4990,0.5010	-1266.46
0.5733,0.4267	-1265.97
0.5968,0.4032	-1267.13
0.5183,0.4817	-1266.26
0.4925,0.5075	-1266.57
0.5468,0.4532	-1265.88
0.4661,0.5339	-1266.25
0.5922,0.4078	-1268.20
0.5811,0.4189	-1264.98
0.4870,0.5130	-1266.56
0.4914,0.5086	-1266.66
0.5845,0.4155	-1265.96
0.4558,0.5442	-1266.23
0.5217,0.4783	-1266.49
0.6197,0.3803	-1265.03
0.5120,0.4880	-1266.37
0.4733,0.5267	-1266.38
0.6173,0.3827	-1265.52
0.5075,0.4925	-1266.43
0.5307,0.4693	-1266.16
0.5765,0.4235	-1265.97
0.5032,0.4968	-1266.43
0.4326,0.5674	-1266.51
0.6391,0.3609	-1264.95
0.5132,0.4868	-1266.36
0.5461,0.4539	-1266.62
0.5926,0.4074	-1266.33
0.4899,0.5101	-1266.61
0.4565,0.5435	-1266.58
0.6313,0.3687	-1264.98
0.5145,0.4855	-1266.30
0.5680,0.4320	-1266.80
0.5550,0.4450	-1266.47
0.5273,0.4727	-1266.41
0.4746,0.5254	-1266.38
0.6105,0.3895	-1266.43
0.5555,0.4445	-1265.58
0.5492,0.4508	-1266.45
0.5027,0.4973	-1266.41
0.5575,0.4425	-1266.71
0.5006,0.4994	-1266.45
0.6352,0.3648	-1263.85
0.6105,0.3895	-1264.18
0.5550,0.4450	-1264.70
0.5656,0.4344	-1265.46
0.5190,0.4810	-1266.33
0.5252,0.4748	-1266.41
0.6052,0.3948	-1266.40
0.5759,0.4241	-1266.58
0.4798,0.5202	-1266.71
0.5543,0.4457	-1266.03
0.4774,0.5226	-1266.84
0.6021,0.3979	-1265.96
0.5765,0.4235	-1265.04
0.5935,0.4065	-1264.44
0.4734,0.5266	-1266.81
0.5248,0.4752	-1266.80
0.4959,0.5041	-1266.43
0.5751,0.4249	-1265.67
0.5734,0.4266	-1265.68
0.6057,0.3943	-1264.68
0.5386,0.4614	-1266.27
0.5647,0.4353	-1266.25
0.5297,0.4703	-1266.53
0.6131,0.3869	-1266.45
0.6198,0.3802	-1266.49
0.6235,0.3765	-1266.02
0.4458,0.5542	-1266.87
0.5776,0.4224	-1265.96
0.5266,0.4734	-1266.30
0.5757,0.4243	-1265.66
0.5905,0.4095	-1264.86
0.6280,0.3720	-1263.94
0.5056,0.4944	-1266.39
0.5536,0.4464	-1266.68
0.5478,0.4522	-1266.06
0.5948,0.4052	-1265.19
0.5362,0.4638	-1266.42
0.6214,0.3786	-1266.01
0.4605,0.5395	-1267.02
0.5696,0.4304	-1265.42
0.5906,0.4094	-1265.96
0.6034,0.3966	-1265.55
0.5214,0.4786	-1266.24
0.5831,0.4169	-1265.62
0.4797,0.5203	-1266.88
0.6091,0.3909	-1267.31
0.5656,0.4344	-1265.99
0.5475,0.4525	-1266.06
0.5138,0.4862	-1266.31
0.6092,0.3908	-1265.09
0.4952,0.5048	-1266.49
0.6527,0.3473	-1265.54
0.6477,0.3523	-1263.71
0.5742,0.4258	-1265.97
0.5402,0.4598	-1265.62
0.6280,0.3720	-1267.08
0.4955,0.5045	-1266.52
0.6575,0.3425	-1266.21
0.6503,0.3497	-1265.54
0.5997,0.4003	-1266.37
0.5103,0.4897	-1266.38
0.6218,0.3782	-1265.52
0.5700,0.4300	-1265.98
0.6742,0.3258	-1262.71
0.6607,0.3393	-1265.57
0.6428,0.3572	-1264.35
0.5153,0.4847	-1266.47
0.6110,0.3890	-1264.63
0.5783,0.4217	-1266.59
0.6815,0.3185	-1265.66
0.6156,0.3844	-1266.93
0.6989,0.3011	-1264.09
0.4561,0.5439	-1266.75
0.6514,0.3486	-1264.29
0.4933,0.5067	-1266.53
0.6434,0.3566	-1264.93
0.6606,0.3394	-1265.57
0.7079,0.2921	-1262.31
0.4165,0.5835	-1267.32
0.6547,0.3453	-1263.63
0.4351,0.5649	-1267.28
0.5908,0.4092	-1265.96
0.5862,0.4138	-1264.91
0.6839,0.3161	-1264.13
0.4445,0.5555	-1267.33
0.7297,0.2703	-1263.08
0.4879,0.5121	-1266.45
0.5775,0.4225	-1265.65
0.5405,0.4595	-1266.10
0.6613,0.3387	-1264.23
0.5210,0.4790	-1266.58
0.7359,0.2641	-1266.13
0.5488,0.4512	-1265.66
0.6101,0.3899	-1263.29
0.5171,0.4829	-1266.34
0.6852,0.3148	-1264.91
0.5162,0.4838	-1266.41
0.7246,0.2754	-1263.10
0.5865,0.4135	-1265.61
0.5939,0.4061	-1265.58
0.4955,0.5045	-1266.41
0.6367,0.3633	-1264.96
0.6054,0.3946	-1266.40
0.7049,0.2951	-1263.21
0.5616,0.4384	-1266.00
0.6133,0.3867	-1265.06
0.5096,0.4904	-1266.38
0.6271,0.3729	-1267.59
0.5820,0.4180	-1265.30
0.6909,0.3091	-1264.11
0.5678,0.4322	-1266.80
0.6021,0.3979	-1266.38
0.5185,0.4815	-1266.34
0.6931,0.3069	-1262.48
0.5529,0.4471	-1265.61
0.7103,0.2897	-1264.08
0.5558,0.4442	-1265.58
0.5891,0.4109	-1265.23
0.5045,0.4955	-1266.40
0.6774,0.3226	-1267.87
0.5892,0.4108	-1265.96
0.7764,0.2236	-1265.48
0.5302,0.4698	-1266.17
0.5699,0.4301	-1265.70
0.4975,0.5025	-1266.50
0.6466,0.3534	-1264.93
0.5030,0.4970	-1266.42
0.7643,0.2357	-1264.17
0.4961,0.5039	-1266.43
0.5393,0.4607	-1266.11
0.4862,0.5138	-1266.46
0.7020,0.2980	-1264.94
0.4762,0.5238	-1266.58
0.7741,0.2259	-1262.99
0.4982,0.5018	-1266.46
0.6000,0.4000	-1266.37
0.4304,0.5696	-1266.25
0.6928,0.3072	-1266.55
0.4530,0.5470	-1267.16
0.7327,0.2673	-1265.09
0.5212,0.4788	-1266.32
0.5626,0.4374	-1266.25
0.4673,0.5327	-1267.17
0.6760,0.3240	-1267.10
0.5070,0.4930	-1266.37
0.6790,0.3210	-1265.65
0.5052,0.4948	-1266.37
0.5625,0.4375	-1265.25
0.4900,0.5100	-1266.57
0.6642,0.3358	-1264.90
0.5293,0.4707	-1265.94
0.6645,0.3355	-1264.90
0.5583,0.4417	-1266.48
0.6133,0.3867	-1266.45
0.4418,0.5582	-1266.46
0.6795,0.3205	-1265.65
0.4772,0.5228	-1266.93
0.6551,0.3449	-1266.19
0.5830,0.4170	-1265.29
0.6565,0.3435	-1262.96
0.4688,0.5312	-1266.76
0.6780,0.3220	-1262.66
0.5376,0.4624	-1266.12
0.6132,0.3868	-1266.45
0.5497,0.4503	-1266.65
0.6405,0.3595	-1263.21
0.5065,0.4935	-1266.46
0.6790,0.3210	-1267.15
0.5180,0.4820	-1266.48
0.6001,0.3999	-1263.93
0.5592,0.4408	-1265.77
0.5875,0.4125	-1266.66
0.4870,0.5130	-1266.46
0.6348,0.3652	-1262.75
0.4620,0.5380	-1267.00
0.6081,0.3919	-1265.53
0.6056,0.3944	-1264.25
0.5916,0.4084	-1266.33
0.5063,0.4937	-1266.43
0.6344,0.3656	-1264.96
0.4833,0.5167	-1266.60
0.6433,0.3567	-1267.29
0.5523,0.4477	-1266.25
0.6082,0.3918	-1266.41
0.4574,0.5426	-1267.08
0.5911,0.4089	-1266.32
0.4792,0.5208	-1266.80
0.5592,0.4408	-1265.77
0.5594,0.4406	-1266.49
