#isoforms=['ENSG00000110080.SE.2.A.up_ENSG00000110080.SE.2.A.SE1_ENSG00000110080.SE.2.A.dn','ENSG00000110080.SE.2.B.up_ENSG00000110080.SE.2.B.dn']	exon_lens=('ENSG00000110080.SE.2.A.up',61),('ENSG00000110080.SE.2.A.SE1',96),('ENSG00000110080.SE.2.A.dn',190),('ENSG00000110080.SE.2.B.up',61),('ENSG00000110080.SE.2.B.dn',190)	iters=5000	burn_in=500	lag=10	percent_accept=92.57	proposal_type=drift	counts=(0,0):66,(0,1):1,(1,0):67,(1,1):132	assigned_counts=0:197,1:3	chrom=chr11	strand=+	mRNA_starts=126407574,126407574	mRNA_ends=126408496,126408496
sampled_psi	log_score
0.7769,0.2231	-1212.42
0.7798,0.2202	-1208.59
0.8123,0.1877	-1208.08
0.8142,0.1858	-1205.12
0.8283,0.1717	-1189.32
0.7342,0.2658	-1227.00
0.7920,0.2080	-1201.60
0.7831,0.2169	-1213.63
0.8375,0.1625	-1192.01
0.8384,0.1616	-1200.20
0.8178,0.1822	-1202.08
0.7293,0.2707	-1218.00
0.7961,0.2039	-1217.75
0.7513,0.2487	-1214.18
0.8416,0.1584	-1191.82
0.8331,0.1669	-1185.78
0.8018,0.1982	-1212.33
0.7035,0.2965	-1218.19
0.7941,0.2059	-1216.34
0.7459,0.2541	-1227.27
0.8283,0.1717	-1205.06
0.8345,0.1655	-1192.15
0.7553,0.2447	-1215.19
0.6828,0.3172	-1227.14
0.7944,0.2056	-1216.35
0.7607,0.2393	-1216.24
0.7830,0.2170	-1220.05
0.8382,0.1618	-1203.49
0.7549,0.2451	-1218.57
0.6975,0.3025	-1221.87
0.8054,0.1946	-1201.00
0.7529,0.2471	-1220.82
0.7595,0.2405	-1217.41
0.8471,0.1529	-1201.88
0.7675,0.2325	-1219.76
0.7009,0.2991	-1219.19
0.7899,0.2101	-1208.33
0.7887,0.2113	-1205.72
0.7793,0.2207	-1219.96
0.8867,0.1133	-1191.01
0.7541,0.2459	-1211.86
0.7083,0.2917	-1219.71
0.7431,0.2569	-1224.01
0.7842,0.2158	-1203.30
0.8154,0.1846	-1197.68
0.8889,0.1111	-1178.56
0.7524,0.2476	-1227.48
0.7311,0.2689	-1212.94
0.7073,0.2927	-1225.93
0.7389,0.2611	-1215.65
0.8469,0.1531	-1195.04
0.8909,0.1091	-1186.87
0.8105,0.1895	-1196.45
0.7205,0.2795	-1222.09
0.7332,0.2668	-1212.83
0.7520,0.2480	-1217.49
0.8347,0.1653	-1197.00
0.8814,0.1186	-1190.97
0.8088,0.1912	-1203.76
0.7090,0.2910	-1225.02
0.7406,0.2594	-1222.94
0.7767,0.2233	-1204.95
0.8146,0.1854	-1205.12
0.8987,0.1013	-1175.97
0.8086,0.1914	-1208.09
0.7438,0.2562	-1216.56
0.7873,0.2127	-1213.62
0.8015,0.1985	-1210.93
0.7961,0.2039	-1205.49
0.9006,0.0994	-1178.09
0.8116,0.1884	-1206.62
0.7098,0.2902	-1223.23
0.7685,0.2315	-1208.98
0.7900,0.2100	-1213.63
0.8129,0.1871	-1199.26
0.8962,0.1038	-1178.25
0.7617,0.2383	-1217.39
0.7919,0.2081	-1217.64
0.7642,0.2358	-1211.50
0.7925,0.2075	-1206.94
0.8387,0.1613	-1195.25
0.8905,0.1095	-1184.77
0.7723,0.2277	-1213.72
0.8187,0.1813	-1208.09
0.8065,0.1935	-1205.24
0.8174,0.1826	-1208.09
0.8205,0.1795	-1206.59
0.8950,0.1050	-1178.29
0.7894,0.2106	-1214.95
0.8070,0.1930	-1209.52
0.8221,0.1779	-1211.18
0.8263,0.1737	-1200.37
0.8158,0.1842	-1211.06
0.8916,0.1084	-1184.76
0.7700,0.2300	-1212.54
0.7935,0.2065	-1204.22
0.7979,0.2021	-1206.81
0.8379,0.1621	-1193.63
0.8253,0.1747	-1198.84
0.8854,0.1146	-1205.31
0.8006,0.1994	-1199.81
0.7827,0.2173	-1216.19
0.7893,0.2107	-1208.34
0.8296,0.1704	-1197.14
0.8526,0.1474	-1201.95
0.8594,0.1406	-1198.47
0.8025,0.1975	-1188.50
0.7599,0.2401	-1219.71
0.7240,0.2760	-1219.14
0.8394,0.1606	-1195.23
0.8324,0.1676	-1203.47
0.8788,0.1212	-1190.97
0.8052,0.1948	-1206.69
0.7960,0.2040	-1208.21
0.7500,0.2500	-1214.22
0.8056,0.1944	-1199.57
0.8203,0.1797	-1197.48
0.8676,0.1324	-1191.06
0.8405,0.1595	-1205.17
0.8092,0.1908	-1203.75
0.7309,0.2691	-1220.95
0.8268,0.1732	-1201.93
0.8259,0.1741	-1215.95
0.8722,0.1278	-1198.69
0.8537,0.1463	-1212.55
0.8117,0.1883	-1200.77
0.6957,0.3043	-1224.43
0.8219,0.1781	-1200.47
0.8280,0.1720	-1203.48
0.8700,0.1300	-1194.83
0.8519,0.1481	-1194.94
0.7999,0.2001	-1202.62
0.7259,0.2741	-1218.11
0.8528,0.1472	-1203.71
0.8106,0.1894	-1202.26
0.8552,0.1448	-1198.44
0.8495,0.1505	-1215.75
0.8021,0.1979	-1206.73
0.6846,0.3154	-1222.45
0.8505,0.1495	-1207.14
0.8097,0.1903	-1216.77
0.8675,0.1325	-1200.46
0.8363,0.1637	-1196.95
0.7888,0.2112	-1204.40
0.7131,0.2869	-1224.98
0.8548,0.1452	-1189.58
0.8028,0.1972	-1206.72
0.8480,0.1520	-1193.29
0.8276,0.1724	-1197.21
0.7919,0.2081	-1209.62
0.7007,0.2993	-1223.45
0.8463,0.1537	-1208.70
0.8178,0.1822	-1211.09
0.8691,0.1309	-1191.04
0.8095,0.1905	-1210.98
0.7874,0.2126	-1208.38
0.7637,0.2363	-1226.77
0.8556,0.1444	-1198.45
0.8200,0.1800	-1206.59
0.8592,0.1408	-1194.85
0.7953,0.2047	-1204.15
0.8171,0.1829	-1209.58
0.8060,0.1940	-1202.40
0.8638,0.1362	-1202.21
0.8446,0.1554	-1200.17
0.8569,0.1431	-1205.61
0.7885,0.2115	-1205.73
0.8405,0.1595	-1205.17
0.8345,0.1655	-1216.42
0.8717,0.1283	-1196.76
0.8504,0.1496	-1194.97
0.8761,0.1239	-1192.94
0.7905,0.2095	-1212.30
0.8665,0.1335	-1194.82
0.8397,0.1603	-1215.09
0.8577,0.1423	-1200.25
0.8417,0.1583	-1193.49
0.8669,0.1331	-1183.58
0.7737,0.2263	-1216.16
0.8410,0.1590	-1201.85
0.8240,0.1760	-1206.60
0.8763,0.1237	-1190.98
0.8468,0.1532	-1189.91
0.8693,0.1307	-1194.83
0.7690,0.2310	-1219.78
0.8356,0.1644	-1198.60
0.7670,0.2330	-1220.95
0.8762,0.1238	-1198.81
0.8674,0.1326	-1192.95
0.8708,0.1292	-1196.75
0.7415,0.2585	-1219.78
0.8272,0.1728	-1211.32
0.7328,0.2672	-1222.94
0.8551,0.1449	-1189.57
0.8420,0.1580	-1196.83
0.8550,0.1450	-1193.12
0.7876,0.2124	-1229.35
0.7998,0.2002	-1210.93
0.7237,0.2763	-1220.11
0.8487,0.1513	-1196.72
0.8232,0.1768	-1194.29
0.8687,0.1313	-1185.38
0.7939,0.2061	-1217.69
0.7916,0.2084	-1204.29
0.7344,0.2656	-1224.97
0.8480,0.1520	-1198.45
0.8271,0.1729	-1201.92
0.8832,0.1168	-1182.89
0.7734,0.2266	-1212.48
0.8195,0.1805	-1200.54
0.7370,0.2630	-1215.72
0.8413,0.1587	-1208.52
0.8261,0.1739	-1203.49
0.8949,0.1051	-1171.87
0.7459,0.2541	-1215.43
0.8275,0.1725	-1205.05
0.7791,0.2209	-1204.83
0.8600,0.1400	-1194.84
0.8210,0.1790	-1205.07
0.8704,0.1296	-1191.03
0.7760,0.2240	-1208.71
0.8485,0.1515	-1193.28
0.7879,0.2121	-1211.00
0.8553,0.1447	-1194.89
0.8494,0.1506	-1196.72
0.8995,0.1005	-1175.93
0.7888,0.2112	-1212.31
0.8397,0.1603	-1196.88
0.8068,0.1932	-1199.52
0.8799,0.1201	-1181.01
0.8349,0.1651	-1195.37
0.9003,0.0997	-1182.50
0.8147,0.1853	-1214.00
0.8473,0.1527	-1198.46
0.8232,0.1768	-1221.98
0.8841,0.1159	-1197.08
0.8676,0.1324	-1183.54
0.9080,0.0920	-1187.04
0.7945,0.2055	-1204.18
0.8435,0.1565	-1190.06
0.8498,0.1502	-1198.44
0.8923,0.1077	-1188.98
0.8678,0.1322	-1200.47
0.9097,0.0903	-1203.26
0.7787,0.2213	-1216.17
0.8355,0.1645	-1201.85
0.8691,0.1309	-1185.36
0.8776,0.1224	-1189.00
0.9004,0.0996	-1189.11
0.9078,0.0922	-1180.18
0.7484,0.2516	-1219.72
0.8360,0.1640	-1201.85
0.8686,0.1314	-1189.16
0.8824,0.1176	-1201.06
0.9018,0.0982	-1184.71
0.9101,0.0899	-1182.47
0.7832,0.2168	-1214.91
0.8502,0.1498	-1196.71
0.8784,0.1216	-1196.90
0.8699,0.1301	-1185.33
0.9145,0.0855	-1184.89
0.9181,0.0819	-1170.50
0.7496,0.2504	-1228.49
0.8686,0.1314	-1196.72
0.8907,0.1093	-1186.87
0.8526,0.1474	-1214.23
0.9252,0.0748	-1180.27
0.8862,0.1138	-1201.27
0.7431,0.2569	-1213.39
0.8807,0.1193	-1182.98
0.8816,0.1184	-1186.96
0.8242,0.1758	-1191.14
0.9360,0.0640	-1172.62
0.8843,0.1157	-1182.85
0.7893,0.2107	-1209.66
0.8564,0.1436	-1194.88
0.8749,0.1251	-1196.82
0.7976,0.2024	-1199.96
0.9402,0.0598	-1180.92
0.8815,0.1185	-1184.96
0.7825,0.2175	-1200.83
0.8649,0.1351	-1192.97
0.8371,0.1629	-1193.66
0.7712,0.2288	-1205.23
0.9428,0.0572	-1167.10
0.8645,0.1355	-1202.24
0.7613,0.2387	-1223.20
0.8757,0.1243	-1190.98
0.8304,0.1696	-1205.06
0.7080,0.2920	-1227.69
0.9456,0.0544	-1175.62
0.8883,0.1117	-1178.59
0.7854,0.2146	-1216.22
0.8575,0.1425	-1203.84
0.8293,0.1707	-1198.74
0.7120,0.2880	-1215.94
0.9487,0.0513	-1158.29
0.8963,0.1037	-1189.03
0.8071,0.1929	-1212.39
0.8428,0.1572	-1198.49
0.8132,0.1868	-1202.19
0.7405,0.2595	-1215.60
0.9504,0.0496	-1175.90
0.8943,0.1057	-1203.95
0.8027,0.1973	-1199.71
0.8401,0.1599	-1196.87
0.8270,0.1730	-1212.87
0.7606,0.2394	-1222.02
0.9472,0.0528	-1172.82
0.8895,0.1105	-1205.65
0.7753,0.2247	-1212.45
0.8693,0.1307	-1198.62
0.8133,0.1867	-1203.66
0.7632,0.2368	-1217.39
0.9464,0.0536	-1161.31
0.8795,0.1205	-1206.87
0.7797,0.2203	-1206.06
0.8837,0.1163	-1178.82
0.8044,0.1956	-1208.11
0.7728,0.2272	-1221.06
0.9427,0.0573	-1167.10
0.8852,0.1148	-1186.91
0.7980,0.2020	-1210.93
0.8648,0.1352	-1192.97
0.7855,0.2145	-1214.92
0.8330,0.1670	-1203.47
0.9407,0.0593	-1172.66
0.8992,0.1008	-1175.95
0.7719,0.2281	-1213.73
0.8951,0.1049	-1189.01
0.7868,0.2132	-1209.70
0.8679,0.1321	-1192.94
0.9488,0.0512	-1169.96
0.9063,0.0937	-1173.39
0.7575,0.2425	-1217.42
0.8662,0.1338	-1192.95
0.7807,0.2193	-1200.94
0.8545,0.1455	-1198.44
0.9656,0.0344	-1164.20
0.9122,0.0878	-1177.81
0.8044,0.1956	-1201.04
0.8686,0.1314	-1196.72
0.8188,0.1812	-1205.08
0.8720,0.1280	-1200.60
0.9615,0.0385	-1160.86
0.9185,0.0815	-1185.01
0.8360,0.1640	-1201.85
0.8667,0.1333	-1204.18
0.8598,0.1402	-1194.85
0.8742,0.1258	-1183.23
0.9596,0.0404	-1179.89
0.9347,0.0653	-1169.96
0.8231,0.1769	-1194.29
0.8597,0.1403	-1187.60
0.8719,0.1281	-1192.93
0.8502,0.1498	-1210.60
0.9519,0.0481	-1176.01
0.9298,0.0702	-1162.32
0.8282,0.1718	-1205.05
0.8453,0.1547	-1186.58
0.8509,0.1491	-1189.73
0.8460,0.1540	-1206.98
0.9483,0.0517	-1164.13
0.9212,0.0788	-1177.74
0.8480,0.1520	-1201.89
0.8166,0.1834	-1202.11
0.8320,0.1680	-1206.67
0.8542,0.1458	-1200.21
0.9469,0.0531	-1161.28
0.9346,0.0654	-1180.60
0.8548,0.1452	-1212.62
0.8273,0.1727	-1214.45
0.8128,0.1872	-1196.33
0.8383,0.1617	-1203.49
0.9505,0.0495	-1164.09
0.9371,0.0629	-1167.23
0.8523,0.1477	-1184.42
0.8121,0.1879	-1203.69
0.8336,0.1664	-1211.53
0.8490,0.1510	-1201.90
0.9430,0.0570	-1167.09
0.9462,0.0538	-1155.59
0.8699,0.1301	-1206.23
0.8229,0.1771	-1208.13
0.8538,0.1462	-1194.91
0.8485,0.1515	-1188.11
0.9421,0.0579	-1172.69
0.9493,0.0507	-1158.25
0.8752,0.1248	-1200.72
0.8282,0.1718	-1208.20
0.8400,0.1600	-1205.16
0.8442,0.1558	-1200.17
0.9428,0.0572	-1167.09
0.9414,0.0586	-1178.23
0.8461,0.1539	-1186.53
0.8535,0.1465	-1201.97
0.8476,0.1524	-1198.45
0.8015,0.1985	-1199.77
0.9316,0.0684	-1183.08
0.9217,0.0783	-1175.27
0.7710,0.2290	-1219.81
0.8504,0.1496	-1175.85
0.8059,0.1941	-1205.25
0.7898,0.2102	-1213.63
0.9279,0.0721	-1165.01
0.9112,0.0888	-1189.47
0.7340,0.2660	-1219.89
0.8517,0.1483	-1210.68
0.7813,0.2187	-1199.63
0.7855,0.2145	-1209.73
0.9390,0.0610	-1175.38
0.9214,0.0786	-1180.20
0.7293,0.2707	-1224.94
0.8317,0.1683	-1200.28
0.7611,0.2389	-1209.29
0.7785,0.2215	-1209.89
0.9469,0.0531	-1172.81
0.9395,0.0605	-1172.65
0.7522,0.2478	-1216.37
0.8276,0.1724	-1201.92
0.7805,0.2195	-1209.84
0.7064,0.2936	-1223.30
0.9487,0.0513	-1187.46
0.9394,0.0606	-1167.16
0.7515,0.2485	-1207.53
0.8325,0.1675	-1195.46
0.7771,0.2229	-1206.18
0.7694,0.2306	-1220.99
0.9476,0.0524	-1178.62
0.9214,0.0786	-1167.89
0.7436,0.2564	-1218.69
0.8495,0.1505	-1203.64
0.7609,0.2391	-1219.71
0.7354,0.2646	-1223.96
0.9494,0.0506	-1164.11
0.8989,0.1011	-1186.89
0.7053,0.2947	-1224.20
0.8259,0.1741	-1205.05
0.7805,0.2195	-1221.25
0.7136,0.2864	-1223.15
0.9424,0.0576	-1169.90
0.8900,0.1100	-1182.69
0.7158,0.2842	-1221.26
0.8145,0.1855	-1211.04
0.7730,0.2270	-1214.94
0.7405,0.2595	-1221.89
0.9462,0.0538	-1158.45
0.8603,0.1397	-1194.84
0.7025,0.2975	-1221.68
0.8391,0.1609	-1208.45
0.7887,0.2113	-1205.72
0.7297,0.2703	-1224.94
0.9432,0.0568	-1169.90
0.8710,0.1290	-1194.84
0.7034,0.2966	-1226.83
0.8256,0.1744	-1201.94
0.7785,0.2215	-1214.91
0.7163,0.2837	-1230.51
0.9316,0.0684	-1175.25
0.8427,0.1573	-1201.85
0.6875,0.3125	-1219.95
0.8122,0.1878	-1208.08
0.7937,0.2063	-1216.34
0.7206,0.2794	-1224.93
0.9312,0.0688	-1159.61
0.8414,0.1586	-1201.85
0.7054,0.2946	-1228.57
0.8217,0.1783	-1206.59
0.8173,0.1827	-1215.58
0.7419,0.2581	-1211.33
0.9281,0.0719	-1180.35
0.8227,0.1773	-1218.87
0.7289,0.2711	-1225.93
0.8541,0.1459	-1191.37
0.8202,0.1798	-1206.59
0.7403,0.2597	-1221.89
0.9258,0.0742	-1167.67
0.8181,0.1819	-1203.58
0.6640,0.3360	-1229.05
0.8567,0.1433	-1196.66
0.8405,0.1595	-1195.20
0.7278,0.2722	-1216.08
0.9301,0.0699	-1180.42
0.8121,0.1879	-1202.22
0.7029,0.2971	-1220.81
0.8407,0.1593	-1198.52
0.8537,0.1463	-1196.68
0.7108,0.2892	-1225.00
0.9464,0.0536	-1172.79
0.8435,0.1565	-1200.17
0.7045,0.2955	-1221.61
0.8472,0.1528	-1207.02
0.8511,0.1489	-1198.44
0.7236,0.2764	-1223.00
0.9509,0.0491	-1167.04
0.8608,0.1392	-1202.13
0.6913,0.3087	-1218.11
0.8517,0.1483	-1191.45
0.8205,0.1795	-1205.07
0.7435,0.2565	-1222.95
0.9528,0.0472	-1164.05
0.8835,0.1165	-1197.06
0.7037,0.2963	-1223.37
0.8313,0.1687	-1184.33
0.7885,0.2115	-1210.99
0.7147,0.2853	-1213.03
0.9575,0.0425	-1160.92
0.8846,0.1154	-1188.95
0.7142,0.2858	-1227.72
0.8122,0.1878	-1208.08
0.7856,0.2144	-1208.43
0.6390,0.3610	-1235.67
0.9452,0.0548	-1172.76
0.8728,0.1272	-1189.07
0.7262,0.2738	-1220.05
0.8253,0.1747	-1192.63
0.7683,0.2317	-1216.18
0.6162,0.3838	-1227.37
0.9386,0.0614	-1183.54
0.8516,0.1484	-1200.19
0.7670,0.2330	-1213.80
0.8164,0.1836	-1209.58
0.7180,0.2820	-1216.53
0.6157,0.3843	-1236.85
0.9461,0.0539	-1169.92
0.8582,0.1418	-1191.26
0.7850,0.2150	-1223.99
0.8099,0.1901	-1203.73
0.7263,0.2737	-1218.10
0.6854,0.3146	-1220.08
0.9477,0.0523	-1167.04
0.8686,0.1314	-1189.16
0.7449,0.2551	-1215.46
0.7943,0.2057	-1208.24
0.6921,0.3079	-1217.24
0.6718,0.3282	-1218.84
0.9459,0.0541	-1167.06
0.8947,0.1053	-1176.17
0.7540,0.2460	-1205.14
0.8169,0.1831	-1202.10
0.6748,0.3252	-1227.34
0.6656,0.3344	-1223.50
0.9428,0.0572	-1175.50
0.8919,0.1081	-1191.08
0.7541,0.2459	-1220.82
0.7716,0.2284	-1213.73
0.6414,0.3586	-1231.02
0.6973,0.3027	-1217.71
0.9474,0.0526	-1175.72
0.9123,0.0877	-1177.81
0.7784,0.2216	-1209.89
0.7877,0.2123	-1204.44
0.6711,0.3289	-1228.17
0.6987,0.3013	-1220.99
0.9526,0.0474	-1158.06
0.9037,0.0963	-1193.67
0.7808,0.2192	-1213.64
0.7657,0.2343	-1216.19
0.6262,0.3738	-1230.59
0.7526,0.2474	-1219.70
0.9483,0.0517	-1167.04
0.8974,0.1026	-1178.20
0.7714,0.2286	-1207.65
0.7396,0.2604	-1225.02
0.6209,0.3791	-1234.83
0.7815,0.2185	-1225.11
0.9370,0.0630	-1164.53
0.8867,0.1133	-1180.72
0.7619,0.2381	-1210.41
0.7932,0.2068	-1213.64
0.6474,0.3526	-1232.04
0.8136,0.1864	-1199.24
0.9259,0.0741	-1182.81
0.8893,0.1107	-1186.87
0.7732,0.2268	-1213.71
0.8064,0.1936	-1198.11
0.6807,0.3193	-1227.19
0.8031,0.1969	-1206.72
0.9149,0.0851	-1175.40
0.8559,0.1441	-1212.70
0.7824,0.2176	-1218.75
0.7957,0.2043	-1209.58
0.6870,0.3130	-1219.97
0.7828,0.2172	-1218.76
0.9043,0.0957	-1189.21
0.8642,0.1358	-1194.82
0.7468,0.2532	-1221.89
0.7954,0.2046	-1205.51
0.7175,0.2825	-1217.49
0.7695,0.2305	-1216.17
0.8894,0.1106	-1182.70
0.8650,0.1350	-1204.11
0.7525,0.2475	-1216.37
0.7998,0.2002	-1209.55
0.7438,0.2562	-1226.15
0.7704,0.2296	-1218.59
0.8965,0.1035	-1180.40
0.8666,0.1334	-1200.44
0.7453,0.2547	-1225.11
0.8184,0.1816	-1205.08
0.7442,0.2558	-1209.07
0.8028,0.1972	-1202.51
0.8865,0.1135	-1195.12
0.8189,0.1811	-1209.60
0.7426,0.2574	-1222.95
0.8104,0.1896	-1205.17
0.7424,0.2576	-1221.89
0.7812,0.2188	-1208.55
0.8908,0.1092	-1180.57
0.8251,0.1749	-1212.81
0.7343,0.2657	-1219.89
0.7688,0.2312	-1214.97
0.7382,0.2618	-1214.64
0.7801,0.2199	-1211.11
0.8973,0.1027	-1171.71
0.8268,0.1732	-1195.67
0.7836,0.2164	-1213.63
0.7418,0.2582	-1216.61
0.8137,0.1863	-1209.55
0.7559,0.2441	-1210.66
0.9112,0.0888	-1177.82
0.8448,0.1552	-1200.17
0.8159,0.1841	-1211.06
0.7150,0.2850	-1230.48
0.8482,0.1518	-1200.17
0.7516,0.2484	-1218.60
0.9132,0.0868	-1180.15
0.8395,0.1605	-1191.92
0.8238,0.1762	-1214.31
0.6998,0.3002	-1226.86
0.8584,0.1416	-1184.05
0.7086,0.2914	-1222.36
0.9128,0.0872	-1180.15
0.8424,0.1576	-1196.82
0.8215,0.1785	-1203.54
0.6915,0.3085	-1223.74
0.8648,0.1352	-1202.25
0.6846,0.3154	-1227.87
0.9157,0.0843	-1175.38
0.8511,0.1489	-1203.67
0.8337,0.1663	-1201.86
0.6947,0.3053	-1234.32
0.8896,0.1104	-1180.61
0.7217,0.2783	-1223.98
0.9116,0.0884	-1177.82
0.8441,0.1559	-1200.17
0.8162,0.1838	-1197.65
0.7387,0.2613	-1218.78
0.9184,0.0816	-1185.01
0.7796,0.2204	-1212.38
0.9068,0.0932	-1175.64
0.8710,0.1290	-1192.93
0.8088,0.1912	-1213.85
0.7778,0.2222	-1209.90
0.9136,0.0864	-1182.50
0.7838,0.2162	-1213.63
0.9028,0.0972	-1195.85
0.8436,0.1564	-1203.54
0.7849,0.2151	-1209.74
0.8276,0.1724	-1200.35
0.8944,0.1056	-1186.86
0.8001,0.1999	-1209.54
0.9140,0.0860	-1177.78
0.8624,0.1376	-1189.32
0.7654,0.2346	-1220.93
0.8100,0.1900	-1202.28
0.8938,0.1062	-1193.25
0.7823,0.2177	-1214.91
0.9067,0.0933	-1191.56
0.8821,0.1179	-1188.96
0.7594,0.2406	-1208.21
0.7706,0.2294	-1217.38
0.8929,0.1071	-1197.47
0.7992,0.2008	-1216.46
0.9099,0.0901	-1173.22
0.8753,0.1247	-1190.98
0.7921,0.2079	-1210.96
0.7658,0.2342	-1219.75
0.8752,0.1248	-1198.78
0.8318,0.1682	-1211.47
0.9087,0.0913	-1175.57
0.8547,0.1453	-1189.58
0.8192,0.1808	-1203.56
0.7641,0.2359	-1211.51
0.8594,0.1406	-1194.85
0.8339,0.1661	-1197.02
0.9199,0.0801	-1167.97
0.8770,0.1230	-1187.05
0.8066,0.1934	-1213.81
0.7619,0.2381	-1215.07
0.8422,0.1578	-1206.87
0.7938,0.2062	-1202.86
0.9259,0.0741	-1175.24
0.8707,0.1293	-1202.47
0.8108,0.1892	-1203.71
0.7377,0.2623	-1218.80
0.7805,0.2195	-1212.37
0.8089,0.1911	-1212.41
0.9069,0.0931	-1180.19
0.8630,0.1370	-1189.31
0.8229,0.1771	-1195.84
0.7503,0.2497	-1227.41
0.8180,0.1820	-1209.59
0.8443,0.1557	-1215.38
0.8963,0.1037	-1193.34
0.8948,0.1052	-1191.15
0.8160,0.1840	-1211.06
0.7499,0.2501	-1210.93
0.8238,0.1762	-1206.60
0.8538,0.1462	-1196.68
0.8904,0.1096	-1178.49
0.9035,0.0965	-1180.24
0.8096,0.1904	-1209.53
0.7253,0.2747	-1222.99
0.8093,0.1907	-1208.08
0.8510,0.1490	-1207.15
0.8895,0.1105	-1178.53
0.8888,0.1112	-1184.80
0.7866,0.2134	-1216.23
0.7252,0.2748	-1223.96
0.8178,0.1822	-1200.58
0.8434,0.1566	-1191.75
0.8662,0.1338	-1187.35
0.8897,0.1103	-1186.87
0.7600,0.2400	-1217.40
0.7639,0.2361	-1212.69
0.8332,0.1668	-1201.86
0.8508,0.1492	-1208.89
0.8816,0.1184	-1201.01
0.8576,0.1424	-1193.07
0.7170,0.2830	-1223.09
0.7680,0.2320	-1207.80
0.8100,0.1900	-1205.18
0.8648,0.1352	-1192.97
0.8770,0.1230	-1196.87
0.8752,0.1248	-1189.04
0.7476,0.2524	-1218.64
0.8225,0.1775	-1198.93
0.8043,0.1957	-1205.29
0.8727,0.1273	-1198.70
0.8590,0.1410	-1209.31
0.8890,0.1110	-1188.96
0.7868,0.2132	-1220.15
0.7980,0.2020	-1205.44
0.8086,0.1914	-1199.44
0.8725,0.1275	-1194.85
0.8492,0.1508	-1196.72
0.8796,0.1204	-1186.99
0.7916,0.2084	-1216.30
0.7747,0.2253	-1221.10
0.8036,0.1964	-1212.35
0.8546,0.1454	-1196.67
0.8276,0.1724	-1203.48
0.8696,0.1304	-1185.34
0.7841,0.2159	-1216.21
0.7855,0.2145	-1208.43
0.7838,0.2162	-1223.93
0.8557,0.1443	-1198.45
0.8151,0.1849	-1199.18
0.8759,0.1241	-1183.16
0.8127,0.1873	-1209.54
0.8140,0.1860	-1208.08
0.7588,0.2412	-1225.43
0.8466,0.1534	-1218.96
0.8222,0.1778	-1209.65
0.8655,0.1345	-1185.52
0.7874,0.2126	-1211.00
0.7795,0.2205	-1212.39
0.7764,0.2236	-1212.43
0.8506,0.1494	-1193.22
0.8009,0.1991	-1208.15
0.8772,0.1228	-1179.18
0.8208,0.1792	-1218.76
0.7898,0.2102	-1207.01
0.7394,0.2606	-1217.72
0.8581,0.1419	-1198.46
0.8124,0.1876	-1203.68
0.8775,0.1225	-1189.00
0.8294,0.1706	-1195.57
0.7934,0.2066	-1204.22
0.7333,0.2667	-1215.86
0.8823,0.1177	-1192.99
0.8507,0.1493	-1201.92
0.8725,0.1275	-1202.54
0.8628,0.1372	-1192.99
0.8071,0.1929	-1210.96
0.7677,0.2323	-1220.96
0.8774,0.1226	-1192.94
0.8613,0.1387	-1193.01
0.8835,0.1165	-1203.14
0.8667,0.1333	-1202.31
0.7975,0.2025	-1210.93
0.7501,0.2499	-1213.12
0.8933,0.1067	-1195.36
0.8412,0.1588	-1198.51
0.8637,0.1363	-1187.44
0.8743,0.1257	-1198.75
0.8030,0.1970	-1209.53
0.7063,0.2937	-1222.43
0.9098,0.0902	-1177.85
0.8425,0.1575	-1201.85
0.8628,0.1372	-1191.15
0.8925,0.1075	-1180.51
0.7641,0.2359	-1216.21
0.7192,0.2808	-1225.88
0.9028,0.0972	-1184.71
0.8350,0.1650	-1198.61
0.8931,0.1069	-1178.37
0.8881,0.1119	-1186.88
0.7535,0.2465	-1218.58
0.7093,0.2907	-1219.67
0.8962,0.1038	-1204.12
0.8671,0.1329	-1194.82
0.8837,0.1163	-1207.20
0.8652,0.1348	-1187.39
0.7520,0.2480	-1224.14
0.7394,0.2606	-1225.02
0.9057,0.0943	-1198.31
0.8437,0.1563	-1191.74
0.8761,0.1239	-1179.24
0.8677,0.1323	-1207.99
0.7742,0.2258	-1208.77
0.7167,0.2833	-1214.74
0.8924,0.1076	-1188.98
0.8457,0.1543	-1195.06
0.8558,0.1442	-1194.89
0.8736,0.1264	-1190.99
0.7885,0.2115	-1207.04
0.7542,0.2458	-1207.37
0.8986,0.1014	-1175.98
0.8472,0.1528	-1193.32
0.8422,0.1578	-1216.92
0.8811,0.1189	-1184.97
0.8006,0.1994	-1209.54
0.7813,0.2187	-1209.82
0.9086,0.0914	-1175.58
0.8693,0.1307	-1196.72
0.8065,0.1935	-1212.38
0.8726,0.1274	-1196.78
0.8190,0.1810	-1206.59
0.8240,0.1760	-1208.14
0.9161,0.0839	-1175.37
0.8533,0.1467	-1186.12
0.8162,0.1838	-1206.59
0.8448,0.1552	-1212.03
0.7768,0.2232	-1208.68
0.8037,0.1963	-1213.76
0.9092,0.0908	-1170.95
0.8680,0.1320	-1198.59
0.8028,0.1972	-1195.49
0.8658,0.1342	-1196.69
0.7678,0.2322	-1220.96
0.7846,0.2154	-1200.70
0.8805,0.1195	-1188.97
0.8727,0.1273	-1185.23
0.8411,0.1589	-1195.18
0.8596,0.1404	-1194.85
0.7681,0.2319	-1218.57
0.8172,0.1828	-1203.59
0.8848,0.1152	-1190.99
0.8651,0.1349	-1196.68
0.8117,0.1883	-1193.47
0.8421,0.1579	-1198.50
0.7888,0.2112	-1224.16
0.8211,0.1789	-1214.21
0.8774,0.1226	-1196.88
0.8348,0.1652	-1192.14
0.7858,0.2142	-1224.02
0.8140,0.1860	-1213.98
0.7748,0.2252	-1223.57
0.7803,0.2197	-1199.70
0.8658,0.1342	-1194.82
0.8244,0.1756	-1194.23
0.7789,0.2211	-1218.69
0.8353,0.1647	-1196.98
0.7886,0.2114	-1200.46
0.8243,0.1757	-1206.60
0.8517,0.1483	-1200.19
0.8425,0.1575	-1203.53
0.7035,0.2965	-1225.97
0.8651,0.1349	-1176.24
0.8199,0.1801	-1200.52
0.8217,0.1783	-1198.95
0.8518,0.1482	-1193.19
0.8460,0.1540	-1203.57
0.7215,0.2785	-1220.17
0.8708,0.1292	-1198.65
0.8450,0.1550	-1191.69
0.8299,0.1701	-1203.48
0.8611,0.1389	-1205.78
0.8232,0.1768	-1198.90
0.6802,0.3198	-1227.20
0.8691,0.1309	-1191.04
0.8347,0.1653	-1195.38
0.8232,0.1768	-1205.06
0.8677,0.1323	-1191.06
0.8057,0.1943	-1200.99
0.6186,0.3814	-1236.82
0.8589,0.1411	-1196.66
0.7835,0.2165	-1202.05
0.7614,0.2386	-1212.75
0.8836,0.1164	-1182.88
0.8077,0.1923	-1200.92
0.6518,0.3482	-1231.32
0.8625,0.1375	-1196.67
0.8025,0.1975	-1222.15
0.7087,0.2913	-1234.81
0.8549,0.1451	-1196.67
0.8091,0.1909	-1208.08
0.6432,0.3568	-1233.31
0.8689,0.1311	-1198.61
0.8305,0.1695	-1211.42
0.7316,0.2684	-1223.95
0.8504,0.1496	-1203.65
0.8034,0.1966	-1219.38
0.6990,0.3010	-1221.81
0.8719,0.1281	-1185.25
0.8344,0.1656	-1203.47
0.6579,0.3421	-1228.58
0.8878,0.1122	-1199.30
0.8036,0.1964	-1215.16
0.6933,0.3067	-1225.31
0.8839,0.1161	-1193.02
0.8100,0.1900	-1202.28
0.6459,0.3541	-1229.66
0.9020,0.0980	-1198.02
0.7999,0.2001	-1205.39
0.7352,0.2648	-1216.81
0.8740,0.1260	-1175.49
0.7484,0.2516	-1221.90
0.6381,0.3619	-1235.10
0.9117,0.0883	-1175.48
0.8014,0.1986	-1205.35
0.7512,0.2488	-1220.81
0.8645,0.1355	-1194.82
0.7532,0.2468	-1211.89
0.6288,0.3712	-1228.87
0.9099,0.0901	-1189.41
0.8059,0.1941	-1209.52
0.7767,0.2233	-1208.68
0.8473,0.1527	-1191.60
0.7352,0.2648	-1217.83
0.6207,0.3793	-1236.81
0.9218,0.0782	-1177.74
0.8387,0.1613	-1205.14
0.7904,0.2096	-1203.01
0.8255,0.1745	-1201.94
0.7052,0.2948	-1226.82
0.6058,0.3942	-1235.70
0.9271,0.0729	-1177.78
0.8715,0.1285	-1189.10
0.7811,0.2189	-1212.37
0.8008,0.1992	-1206.76
0.7352,0.2648	-1227.02
0.5578,0.4422	-1236.58
0.9129,0.0871	-1184.85
0.8638,0.1362	-1183.74
0.7899,0.2101	-1208.33
0.7972,0.2028	-1216.41
0.7244,0.2756	-1216.23
0.5710,0.4290	-1236.90
0.9215,0.0785	-1172.81
0.8665,0.1335	-1194.82
0.7351,0.2649	-1214.77
0.8279,0.1721	-1198.77
0.7109,0.2891	-1225.90
0.5426,0.4574	-1240.75
0.9067,0.0933	-1182.47
0.8909,0.1091	-1186.87
0.7382,0.2618	-1218.79
0.8289,0.1711	-1200.32
0.6984,0.3016	-1226.04
0.5820,0.4180	-1238.28
0.9229,0.0771	-1170.29
0.8931,0.1069	-1184.74
0.7549,0.2451	-1210.70
0.8173,0.1827	-1208.09
0.7302,0.2698	-1222.95
0.6341,0.3659	-1236.79
0.9196,0.0804	-1194.79
0.8834,0.1166	-1190.98
0.7218,0.2782	-1229.70
0.8473,0.1527	-1193.31
0.7611,0.2389	-1212.76
0.6521,0.3479	-1228.80
0.9199,0.0801	-1180.18
0.8867,0.1133	-1184.84
0.7601,0.2399	-1218.56
0.7849,0.2151	-1208.45
0.7780,0.2220	-1214.91
0.6946,0.3054	-1232.68
0.9000,0.1000	-1189.10
0.8834,0.1166	-1188.96
0.7438,0.2562	-1221.89
0.7361,0.2639	-1224.98
0.7718,0.2282	-1210.07
0.6859,0.3141	-1223.95
0.9041,0.0959	-1191.45
0.8828,0.1172	-1195.02
0.7594,0.2406	-1215.11
0.7596,0.2404	-1224.31
0.8012,0.1988	-1213.72
0.7308,0.2692	-1224.94
0.8844,0.1156	-1182.85
0.8940,0.1060	-1174.07
0.7490,0.2510	-1230.65
0.7195,0.2805	-1220.23
0.8112,0.1888	-1203.70
0.7216,0.2784	-1219.22
0.8789,0.1211	-1190.97
0.8382,0.1618	-1196.91
0.7739,0.2261	-1210.01
0.6966,0.3034	-1222.74
0.8220,0.1780	-1208.12
0.7771,0.2229	-1209.92
0.9006,0.0994	-1180.30
0.8650,0.1350	-1215.26
0.7471,0.2529	-1214.31
0.7398,0.2602	-1223.98
0.8045,0.1955	-1212.36
0.8168,0.1832	-1208.08
0.8979,0.1021	-1176.01
0.8878,0.1122	-1182.75
0.7805,0.2195	-1207.30
0.7200,0.2800	-1223.05
0.8023,0.1977	-1203.93
0.8165,0.1835	-1215.55
0.9047,0.0953	-1177.97
0.8785,0.1215	-1192.95
0.7868,0.2132	-1208.40
0.6907,0.3093	-1229.39
0.8369,0.1631	-1198.58
0.7953,0.2047	-1206.87
0.8944,0.1056	-1193.27
0.8955,0.1045	-1189.02
0.7468,0.2532	-1221.89
0.7232,0.2768	-1216.29
0.8504,0.1496	-1196.70
0.8300,0.1700	-1192.38
0.9050,0.0950	-1191.49
0.9014,0.0986	-1182.49
0.7274,0.2726	-1222.97
0.6798,0.3202	-1226.46
0.8330,0.1670	-1195.44
0.8202,0.1798	-1209.62
0.9109,0.0891	-1189.45
0.8975,0.1025	-1199.90
0.7662,0.2338	-1215.00
0.7099,0.2901	-1214.28
0.8009,0.1991	-1215.11
0.8249,0.1751	-1209.70
0.9074,0.0926	-1177.90
0.8793,0.1207	-1198.91
0.7227,0.2773	-1229.72
0.6810,0.3190	-1230.21
0.8159,0.1841	-1212.55
0.7870,0.2130	-1213.62
0.9168,0.0832	-1165.75
0.8802,0.1198	-1192.97
0.7315,0.2685	-1223.95
0.6703,0.3297	-1225.35
0.8356,0.1644	-1203.48
0.7619,0.2381	-1217.39
0.9377,0.0623	-1172.63
0.8566,0.1434	-1194.88
0.7715,0.2285	-1216.16
0.6905,0.3095	-1224.58
0.8624,0.1376	-1207.68
0.7830,0.2170	-1207.21
0.9362,0.0638	-1172.63
0.8330,0.1670	-1185.79
0.7913,0.2087	-1217.63
0.6775,0.3225	-1227.27
0.8508,0.1492	-1193.22
0.7516,0.2484	-1210.85
0.9176,0.0824	-1182.57
0.8253,0.1747	-1205.05
0.7902,0.2098	-1210.97
0.6758,0.3242	-1223.64
0.8600,0.1400	-1189.40
0.7315,0.2685	-1216.93
0.9143,0.0857	-1173.04
0.8075,0.1925	-1226.73
0.7848,0.2152	-1212.33
0.6616,0.3384	-1220.40
0.8278,0.1722	-1200.34
0.7438,0.2562	-1215.49
0.9247,0.0753	-1172.74
0.8015,0.1985	-1203.95
0.7767,0.2233	-1208.69
0.6723,0.3277	-1231.01
0.8100,0.1900	-1203.73
0.7245,0.2755	-1220.09
0.9190,0.0810	-1199.60
0.8261,0.1739	-1206.61
0.7924,0.2076	-1212.30
0.7313,0.2687	-1222.95
0.7864,0.2136	-1218.84
0.7788,0.2212	-1204.84
0.9291,0.0709	-1159.79
0.8429,0.1571	-1203.53
0.8124,0.1876	-1206.61
0.7147,0.2853	-1223.13
0.7828,0.2172	-1221.32
0.8073,0.1927	-1206.66
0.9114,0.0886	-1180.15
0.8563,0.1437	-1196.66
0.7976,0.2024	-1221.91
0.7535,0.2465	-1216.35
0.7084,0.2916	-1219.70
0.8212,0.1788	-1200.49
0.9182,0.0818	-1175.33
0.8048,0.1952	-1203.86
0.7566,0.2434	-1218.57
0.7246,0.2754	-1215.25
0.7052,0.2948	-1217.22
0.8127,0.1873	-1205.14
0.9113,0.0887	-1189.47
0.7895,0.2105	-1214.95
0.7958,0.2042	-1219.10
0.7372,0.2628	-1228.09
0.6310,0.3690	-1231.95
0.8058,0.1942	-1210.95
0.9194,0.0806	-1185.04
0.7901,0.2099	-1214.95
0.7949,0.2051	-1220.42
0.7638,0.2362	-1223.25
0.6564,0.3436	-1231.22
0.7859,0.2141	-1209.72
0.9059,0.0941	-1180.20
0.7796,0.2204	-1228.81
0.7909,0.2091	-1208.31
0.7310,0.2690	-1222.95
0.6707,0.3293	-1231.73
0.7590,0.2410	-1223.15
0.8953,0.1047	-1195.45
0.8235,0.1765	-1197.35
0.7496,0.2504	-1219.71
0.7623,0.2377	-1223.22
0.6697,0.3303	-1233.15
0.7471,0.2529	-1214.31
0.8907,0.1093	-1182.67
0.7909,0.2091	-1217.62
0.8136,0.1864	-1216.92
0.7633,0.2367	-1212.70
0.6606,0.3394	-1226.49
0.7252,0.2748	-1220.08
0.8805,0.1195	-1178.99
0.8149,0.1851	-1208.08
0.8080,0.1920	-1206.65
0.7597,0.2403	-1212.80
0.6558,0.3442	-1230.59
0.7786,0.2214	-1203.59
0.8881,0.1119	-1184.81
0.8288,0.1712	-1212.94
0.8123,0.1877	-1212.47
0.7844,0.2156	-1209.75
0.6881,0.3119	-1226.24
0.7610,0.2390	-1225.51
0.8776,0.1224	-1185.06
0.8066,0.1934	-1199.53
0.7613,0.2387	-1215.08
0.7479,0.2521	-1217.55
0.6737,0.3263	-1228.10
0.7806,0.2194	-1211.10
0.8941,0.1059	-1180.46
0.8159,0.1841	-1197.66
0.7490,0.2510	-1210.97
0.7739,0.2261	-1216.16
0.6696,0.3304	-1222.56
0.7659,0.2341	-1199.60
0.8888,0.1112	-1176.48
0.8305,0.1695	-1208.24
0.7288,0.2712	-1218.02
0.7929,0.2071	-1209.61
0.6929,0.3071	-1224.51
0.7893,0.2107	-1222.87
0.8737,0.1263	-1179.39
0.8284,0.1716	-1200.33
0.7672,0.2328	-1210.22
0.8075,0.1925	-1199.49
0.7087,0.2913	-1219.69
0.7434,0.2566	-1219.76
0.8891,0.1109	-1188.96
0.8345,0.1655	-1193.77
0.7589,0.2411	-1226.59
0.8135,0.1865	-1212.50
0.7266,0.2734	-1219.07
0.7430,0.2570	-1214.45
0.8818,0.1182	-1188.97
0.8330,0.1670	-1203.47
0.7686,0.2314	-1208.97
0.8236,0.1764	-1214.30
0.7157,0.2843	-1228.65
0.7355,0.2645	-1217.82
0.8990,0.1010	-1191.26
0.8091,0.1909	-1200.86
0.7687,0.2313	-1213.77
0.7966,0.2034	-1208.21
0.7092,0.2908	-1226.80
0.7571,0.2429	-1214.02
0.9167,0.0833	-1184.95
0.7958,0.2042	-1210.94
0.8249,0.1751	-1205.05
0.8084,0.1916	-1195.13
0.7377,0.2623	-1223.97
0.7316,0.2684	-1221.94
0.9170,0.0830	-1182.56
0.8036,0.1964	-1209.53
0.8223,0.1777	-1208.12
0.8288,0.1712	-1205.06
0.7405,0.2595	-1216.65
0.7555,0.2445	-1226.47
0.9230,0.0770	-1195.13
0.7778,0.2222	-1212.41
0.8222,0.1778	-1192.81
0.8352,0.1648	-1200.23
0.7839,0.2161	-1216.20
0.7545,0.2455	-1212.96
0.9252,0.0748	-1187.81
0.7841,0.2159	-1213.63
0.8230,0.1770	-1206.59
0.7962,0.2038	-1204.12
0.8301,0.1699	-1200.30
0.7670,0.2330	-1228.10
0.9229,0.0771	-1172.78
0.7563,0.2437	-1209.51
0.8395,0.1605	-1198.54
0.7811,0.2189	-1218.73
0.8148,0.1852	-1212.52
0.7829,0.2171	-1214.91
0.9171,0.0829	-1194.58
0.7791,0.2209	-1212.39
0.8269,0.1731	-1198.80
0.7907,0.2093	-1206.98
0.8388,0.1612	-1201.84
0.8069,0.1931	-1206.66
0.9177,0.0823	-1170.51
0.7392,0.2608	-1218.77
0.8367,0.1633	-1192.05
0.7899,0.2101	-1204.36
0.8589,0.1411	-1198.47
0.8326,0.1674	-1192.24
0.9361,0.0639	-1172.62
0.7231,0.2769	-1219.17
0.8336,0.1664	-1197.03
0.7608,0.2392	-1217.40
0.8403,0.1597	-1191.88
0.8409,0.1591	-1191.85
0.9315,0.0685	-1167.42
0.6895,0.3105	-1225.41
0.8117,0.1883	-1193.47
0.7785,0.2215	-1209.88
0.8295,0.1705	-1198.73
0.8398,0.1602	-1193.56
0.9363,0.0637	-1175.31
0.6912,0.3088	-1222.95
0.8113,0.1887	-1202.24
0.8057,0.1943	-1205.26
0.7977,0.2023	-1212.30
0.8361,0.1639	-1203.48
0.9237,0.0763	-1182.73
0.7090,0.2910	-1218.79
0.8047,0.1953	-1201.03
0.8084,0.1916	-1205.21
0.7933,0.2067	-1213.64
0.8002,0.1998	-1205.38
0.9287,0.0713	-1172.67
0.7213,0.2787	-1222.08
0.7836,0.2164	-1220.06
0.8136,0.1864	-1202.18
0.7677,0.2323	-1213.79
0.7449,0.2551	-1218.67
0.9415,0.0585	-1167.12
0.6870,0.3130	-1222.33
0.7644,0.2356	-1206.79
0.8099,0.1901	-1199.38
0.7475,0.2525	-1208.87
0.7260,0.2740	-1221.03
0.9379,0.0621	-1188.92
0.6882,0.3118	-1221.48
0.7724,0.2276	-1206.39
0.8074,0.1926	-1213.82
0.7544,0.2456	-1211.85
0.7694,0.2306	-1213.76
0.9377,0.0623	-1180.77
0.6953,0.3047	-1221.14
0.8032,0.1968	-1212.34
0.8101,0.1899	-1206.63
0.7840,0.2160	-1203.31
0.7302,0.2698	-1223.95
0.9329,0.0671	-1177.89
0.6889,0.3111	-1219.06
0.7856,0.2144	-1217.52
0.7900,0.2100	-1203.03
0.8330,0.1670	-1213.11
0.7376,0.2624	-1219.83
0.9389,0.0611	-1178.11
0.7267,0.2733	-1216.13
0.7798,0.2202	-1207.32
0.7897,0.2103	-1220.24
0.8228,0.1772	-1205.06
0.7470,0.2530	-1229.47
0.9437,0.0563	-1164.26
0.7159,0.2841	-1214.79
0.7792,0.2208	-1217.43
0.7707,0.2293	-1210.11
0.8036,0.1964	-1212.35
0.7511,0.2489	-1216.39
0.9426,0.0574	-1169.90
0.7165,0.2835	-1224.03
0.7421,0.2579	-1226.12
0.7819,0.2181	-1217.46
0.8074,0.1926	-1215.26
0.7732,0.2268	-1216.16
0.9343,0.0657	-1156.69
0.7967,0.2033	-1204.11
0.7436,0.2564	-1221.89
0.7983,0.2017	-1220.56
0.8030,0.1970	-1203.91
0.7807,0.2193	-1219.99
0.9307,0.0693	-1180.44
0.8195,0.1805	-1206.59
0.7930,0.2070	-1194.83
0.8015,0.1985	-1205.35
0.8343,0.1657	-1192.16
0.7999,0.2001	-1208.16
0.9304,0.0696	-1162.28
0.8394,0.1606	-1188.61
0.8063,0.1937	-1195.26
0.7906,0.2094	-1206.99
0.8378,0.1622	-1193.64
0.8147,0.1853	-1200.67
0.9185,0.0815	-1175.32
0.8537,0.1463	-1201.97
0.8179,0.1821	-1197.58
0.7954,0.2046	-1208.22
0.8529,0.1471	-1198.44
0.8407,0.1593	-1193.53
0.9297,0.0703	-1182.98
0.8414,0.1586	-1188.50
0.8252,0.1748	-1214.36
0.7647,0.2353	-1216.20
0.8217,0.1783	-1203.53
0.8375,0.1625	-1201.85
0.9179,0.0821	-1182.57
0.8410,0.1590	-1195.18
0.8201,0.1799	-1218.73
0.7392,0.2608	-1216.69
0.8243,0.1757	-1198.87
0.8333,0.1667	-1205.08
0.9243,0.0757	-1185.25
0.8394,0.1606	-1203.50
0.8722,0.1278	-1189.09
0.7148,0.2852	-1221.29
0.8283,0.1717	-1209.78
0.8227,0.1773	-1217.33
0.9180,0.0820	-1180.16
0.8257,0.1743	-1198.83
0.8763,0.1237	-1181.19
0.6885,0.3115	-1227.81
0.8092,0.1908	-1209.53
0.8173,0.1827	-1194.61
0.9133,0.0867	-1166.02
0.8379,0.1621	-1213.35
0.9031,0.0969	-1189.17
0.6512,0.3488	-1231.34
0.8076,0.1924	-1203.79
0.7977,0.2023	-1213.68
0.8959,0.1041	-1186.87
0.8191,0.1809	-1200.55
0.8716,0.1284	-1183.35
0.6893,0.3107	-1227.01
0.8108,0.1892	-1202.26
0.8217,0.1783	-1209.65
0.9029,0.0971	-1193.63
0.7909,0.2091	-1205.65
0.8719,0.1281	-1185.26
0.7206,0.2794	-1214.51
0.7941,0.2059	-1212.30
0.8424,0.1576	-1201.85
0.9202,0.0798	-1165.51
0.7872,0.2128	-1209.70
0.8734,0.1266	-1191.00
0.7039,0.2961	-1222.50
0.7959,0.2041	-1209.58
0.8454,0.1546	-1196.77
0.9155,0.0845	-1173.00
0.7575,0.2425	-1212.87
0.8810,0.1190	-1182.97
0.7079,0.2921	-1221.50
0.7861,0.2139	-1221.43
0.8198,0.1802	-1211.13
0.9164,0.0836	-1177.76
0.7751,0.2249	-1216.16
0.8804,0.1196	-1186.98
0.7211,0.2789	-1217.33
0.8182,0.1818	-1199.07
0.8126,0.1874	-1206.61
0.9174,0.0826	-1177.75
0.7587,0.2413	-1219.70
0.8611,0.1389	-1202.13
0.6999,0.3001	-1228.55
0.8168,0.1832	-1197.62
0.8002,0.1998	-1203.99
0.9270,0.0730	-1182.86
0.7368,0.2632	-1221.90
0.8636,0.1364	-1202.21
0.6998,0.3002	-1226.86
0.8190,0.1810	-1212.63
0.7947,0.2053	-1206.88
0.9190,0.0810	-1170.46
0.7391,0.2609	-1212.52
0.8371,0.1629	-1200.21
0.7220,0.2780	-1228.75
0.8204,0.1796	-1211.14
0.8057,0.1943	-1205.26
0.9179,0.0821	-1172.92
0.7396,0.2604	-1231.29
0.8232,0.1768	-1198.90
0.6329,0.3671	-1236.78
0.8172,0.1828	-1199.10
0.7674,0.2326	-1209.02
0.9119,0.0881	-1173.14
0.7611,0.2389	-1224.35
0.8032,0.1968	-1212.34
0.6403,0.3597	-1237.97
0.8129,0.1871	-1202.20
0.7652,0.2348	-1216.20
0.9196,0.0804	-1177.74
0.7759,0.2241	-1217.40
0.7755,0.2245	-1208.73
0.6695,0.3305	-1224.68
0.8026,0.1974	-1203.92
0.7560,0.2440	-1212.91
0.9025,0.0975	-1184.71
0.8193,0.1807	-1214.15
0.7597,0.2403	-1207.05
0.6810,0.3190	-1224.90
0.7732,0.2268	-1221.07
0.7344,0.2656	-1219.88
0.9154,0.0846	-1177.77
0.8010,0.1990	-1203.97
0.7646,0.2354	-1215.02
0.7094,0.2906	-1222.34
0.7533,0.2467	-1215.24
0.7199,0.2801	-1228.71
0.9187,0.0813	-1187.44
0.8084,0.1916	-1200.89
0.7522,0.2478	-1211.93
0.7142,0.2858	-1224.97
0.7335,0.2665	-1221.93
0.7045,0.2955	-1218.13
0.9216,0.0784	-1177.74
0.7854,0.2146	-1212.33
0.7520,0.2480	-1229.69
0.7158,0.2842	-1220.34
0.7843,0.2157	-1214.92
0.7400,0.2600	-1216.66
0.9286,0.0714	-1177.80
0.7919,0.2081	-1206.95
0.7423,0.2577	-1218.71
0.7069,0.2931	-1225.05
0.7459,0.2541	-1218.66
0.7785,0.2215	-1216.17
0.9245,0.0755	-1172.74
0.7821,0.2179	-1213.63
0.7374,0.2626	-1211.58
0.7393,0.2607	-1209.39
0.7076,0.2924	-1213.56
0.8169,0.1831	-1209.58
0.9199,0.0801	-1185.06
0.8127,0.1873	-1211.01
0.7417,0.2583	-1222.94
0.7491,0.2509	-1213.15
0.6955,0.3045	-1226.09
0.7783,0.2217	-1206.12
0.9122,0.0878	-1175.47
0.8240,0.1760	-1205.05
0.7627,0.2373	-1220.89
0.7420,0.2580	-1222.94
0.7394,0.2606	-1222.94
0.7713,0.2287	-1207.66
0.9196,0.0804	-1182.61
0.8024,0.1976	-1213.74
0.7954,0.2046	-1209.58
0.7668,0.2332	-1216.19
0.7070,0.2930	-1227.69
0.7777,0.2223	-1224.93
0.9094,0.0906	-1189.39
0.7969,0.2031	-1206.83
0.7948,0.2052	-1202.82
0.7704,0.2296	-1204.06
0.6718,0.3282	-1226.00
0.7795,0.2205	-1204.81
0.9019,0.0981	-1186.92
0.7746,0.2254	-1214.93
0.7838,0.2162	-1203.32
0.7932,0.2068	-1209.61
0.7001,0.2999	-1224.31
0.7781,0.2219	-1221.19
0.9018,0.0982	-1184.71
0.8072,0.1928	-1206.66
0.7873,0.2127	-1224.09
0.8123,0.1877	-1203.68
0.6344,0.3656	-1231.28
0.7620,0.2380	-1215.06
0.9022,0.0978	-1175.82
0.8327,0.1673	-1206.68
0.7674,0.2326	-1219.76
0.8354,0.1646	-1195.36
0.6516,0.3484	-1233.20
0.7640,0.2360	-1204.46
0.8992,0.1008	-1178.14
0.8492,0.1508	-1193.26
0.7403,0.2597	-1227.13
0.8017,0.1983	-1199.76
0.6830,0.3170	-1226.37
0.6891,0.3109	-1218.26
0.8907,0.1093	-1186.87
0.8629,0.1371	-1194.83
0.7499,0.2501	-1208.73
0.7933,0.2067	-1202.88
0.7210,0.2790	-1218.29
0.7495,0.2505	-1214.23
0.8916,0.1084	-1188.97
0.8448,0.1552	-1205.25
0.7545,0.2455	-1216.33
0.7860,0.2140	-1212.32
0.7048,0.2952	-1227.69
0.7475,0.2525	-1217.56
0.8968,0.1032	-1197.68
0.8376,0.1624	-1210.05
0.8032,0.1968	-1210.94
0.7527,0.2473	-1211.91
0.6899,0.3101	-1220.60
0.7748,0.2252	-1209.98
0.8981,0.1019	-1191.24
0.8029,0.1971	-1216.55
0.7955,0.2045	-1200.07
0.7447,0.2553	-1215.46
0.6621,0.3379	-1231.80
0.7615,0.2385	-1210.43
0.8706,0.1294	-1187.21
0.8495,0.1505	-1189.79
0.7889,0.2111	-1208.35
0.7684,0.2316	-1225.77
0.6783,0.3217	-1228.74
0.7768,0.2232	-1212.42
0.8594,0.1406	-1187.61
0.8497,0.1503	-1210.57
0.7556,0.2444	-1216.31
0.7187,0.2813	-1216.50
0.7060,0.2940	-1212.80
0.7506,0.2494	-1212.00
0.8684,0.1316	-1200.49
0.8895,0.1105	-1195.22
0.7883,0.2117	-1210.99
0.7234,0.2766	-1223.01
0.6870,0.3130	-1232.55
0.7786,0.2214	-1224.97
0.8181,0.1819	-1206.59
0.8557,0.1443	-1193.11
0.7995,0.2005	-1201.25
0.7248,0.2752	-1211.37
0.6921,0.3079	-1230.20
0.7844,0.2156	-1212.33
0.8381,0.1619	-1205.13
0.8683,0.1317	-1187.28
0.8035,0.1965	-1199.67
0.7486,0.2514	-1220.81
0.6642,0.3358	-1228.37
0.7806,0.2194	-1213.64
0.8113,0.1887	-1196.41
0.8585,0.1415	-1209.28
0.8382,0.1618	-1196.91
0.7724,0.2276	-1216.16
0.6899,0.3101	-1219.80
0.7959,0.2041	-1200.05
0.8260,0.1740	-1206.61
0.8535,0.1465	-1198.44
0.8528,0.1472	-1198.44
0.7935,0.2065	-1216.33
0.7175,0.2825	-1224.95
0.8018,0.1982	-1209.53
0.8553,0.1447	-1196.67
0.8660,0.1340	-1170.56
0.8582,0.1418	-1191.26
0.7750,0.2250	-1218.64
0.7355,0.2645	-1227.03
0.7836,0.2164	-1217.49
0.8553,0.1447	-1200.22
0.8744,0.1256	-1196.81
0.8140,0.1860	-1209.55
0.7732,0.2268	-1202.67
0.7219,0.2781	-1223.02
0.7969,0.2031	-1215.04
0.8826,0.1174	-1195.01
0.8714,0.1286	-1183.36
0.7687,0.2313	-1214.97
0.7715,0.2285	-1219.82
0.7093,0.2907	-1226.80
0.7873,0.2127	-1216.24
0.8718,0.1282	-1204.43
0.8656,0.1344	-1191.10
0.7978,0.2022	-1208.19
0.7886,0.2114	-1207.04
0.7161,0.2839	-1225.88
0.8081,0.1919	-1209.53
0.8727,0.1273	-1187.15
0.8679,0.1321	-1196.71
0.7883,0.2117	-1209.68
0.7806,0.2194	-1212.37
0.6917,0.3083	-1229.39
0.8024,0.1976	-1209.53
0.8456,0.1544	-1193.37
0.8747,0.1253	-1202.65
0.7806,0.2194	-1214.91
0.7873,0.2127	-1228.01
0.7249,0.2751	-1225.90
0.7896,0.2104	-1204.37
0.8479,0.1521	-1188.14
0.8661,0.1339	-1204.16
0.7672,0.2328	-1226.92
0.7509,0.2491	-1220.81
0.6887,0.3113	-1227.81
0.7995,0.2005	-1202.63
0.8316,0.1684	-1197.08
0.8653,0.1347	-1196.68
0.7838,0.2162	-1203.32
0.7312,0.2688	-1221.94
0.6422,0.3578	-1232.16
0.7697,0.2303	-1222.20
0.8471,0.1529	-1198.46
0.8867,0.1133	-1184.84
0.8252,0.1748	-1206.60
0.7637,0.2363	-1215.04
0.6643,0.3357	-1231.09
0.7956,0.2044	-1213.66
0.8448,0.1552	-1198.47
0.8893,0.1107	-1186.87
0.7865,0.2135	-1212.32
0.7825,0.2175	-1222.60
0.6229,0.3771	-1235.29
0.7928,0.2072	-1205.59
0.8642,0.1358	-1196.67
0.8770,0.1230	-1190.98
0.7929,0.2071	-1213.64
0.7897,0.2103	-1196.42
0.6351,0.3649	-1231.25
0.7705,0.2295	-1216.17
0.8507,0.1493	-1196.70
0.8745,0.1255	-1198.75
0.7647,0.2353	-1211.49
0.8214,0.1786	-1209.64
0.6297,0.3703	-1229.35
0.7755,0.2245	-1212.44
0.8301,0.1699	-1209.82
0.8583,0.1417	-1203.86
0.7865,0.2135	-1214.93
0.8082,0.1918	-1209.53
0.6299,0.3701	-1231.99
0.8065,0.1935	-1213.81
0.8086,0.1914	-1209.53
0.8618,0.1382	-1202.15
0.7905,0.2095	-1217.61
0.8447,0.1553	-1193.39
0.6039,0.3961	-1231.54
0.7595,0.2405	-1218.56
0.8643,0.1357	-1191.12
0.8567,0.1433	-1198.45
0.7067,0.2933	-1225.05
0.8380,0.1620	-1201.85
0.5894,0.4106	-1233.76
0.7953,0.2047	-1215.01
0.8473,0.1527	-1191.60
0.8338,0.1662	-1200.25
0.6572,0.3428	-1234.46
0.8206,0.1794	-1209.63
0.6474,0.3526	-1236.29
0.7538,0.2462	-1220.82
0.8678,0.1322	-1196.71
0.8312,0.1688	-1209.85
0.6714,0.3286	-1234.59
0.8401,0.1599	-1196.87
0.6910,0.3090	-1223.76
0.7536,0.2464	-1218.58
0.8777,0.1223	-1185.06
0.8035,0.1965	-1208.12
0.7166,0.2834	-1227.74
0.8515,0.1485	-1194.95
0.6486,0.3514	-1230.79
0.7315,0.2685	-1224.95
0.8939,0.1061	-1178.34
0.8208,0.1792	-1209.63
0.7008,0.2992	-1223.45
0.8158,0.1842	-1208.08
0.6462,0.3538	-1231.46
0.7696,0.2304	-1222.20
0.9195,0.0805	-1175.30
0.8014,0.1986	-1202.56
0.7388,0.2612	-1223.97
0.8214,0.1786	-1205.06
0.7004,0.2996	-1220.91
0.7639,0.2361	-1212.69
0.9235,0.0765	-1167.78
0.8083,0.1917	-1200.89
0.7706,0.2294	-1225.86
0.7981,0.2019	-1195.81
0.6949,0.3051	-1225.27
0.7975,0.2025	-1220.53
0.9323,0.0677	-1180.50
0.7784,0.2216	-1212.40
0.7912,0.2088	-1205.64
0.7899,0.2101	-1214.95
0.7582,0.2418	-1215.13
0.8059,0.1941	-1208.10
0.9357,0.0643	-1167.27
0.7605,0.2395	-1218.56
0.8291,0.1709	-1194.00
0.7910,0.2090	-1202.98
0.7571,0.2429	-1227.66
0.7950,0.2050	-1205.52
0.9239,0.0761	-1170.26
0.8069,0.1931	-1210.95
0.8510,0.1490	-1198.44
0.7374,0.2626	-1211.58
0.6968,0.3032	-1221.90
0.8123,0.1877	-1216.87
0.9190,0.0810	-1177.74
0.7678,0.2322	-1211.40
0.8290,0.1710	-1205.06
0.7608,0.2392	-1217.40
0.6804,0.3196	-1224.93
0.8219,0.1781	-1209.65
0.9237,0.0763	-1187.72
0.7836,0.2164	-1225.21
0.8538,0.1462	-1193.15
0.7279,0.2721	-1226.90
0.6675,0.3325	-1227.57
0.8222,0.1778	-1211.18
0.9150,0.0850	-1182.52
0.7617,0.2383	-1224.37
0.8642,0.1358	-1207.78
0.7548,0.2452	-1225.32
0.6673,0.3327	-1230.36
0.8243,0.1757	-1209.69
0.9281,0.0719	-1180.35
0.7696,0.2304	-1217.38
0.8382,0.1618	-1198.55
0.7608,0.2392	-1212.77
0.6412,0.3588	-1229.86
0.8243,0.1757	-1201.96
0.9159,0.0841	-1180.15
0.7603,0.2397	-1222.02
0.8322,0.1678	-1195.47
0.7757,0.2243	-1214.92
0.7051,0.2949	-1223.33
0.8187,0.1813	-1202.06
0.9287,0.0713	-1180.37
0.7942,0.2058	-1213.65
0.8348,0.1652	-1214.81
0.7268,0.2732	-1213.19
0.7620,0.2380	-1222.05
0.8339,0.1661	-1192.18
0.9263,0.0737	-1172.70
0.7905,0.2095	-1224.25
0.8230,0.1770	-1194.30
0.7335,0.2665	-1219.90
0.7595,0.2405	-1205.91
0.8288,0.1712	-1203.48
0.9206,0.0794	-1180.19
0.7825,0.2175	-1209.79
0.8145,0.1855	-1211.04
0.7457,0.2543	-1210.06
0.7290,0.2710	-1224.94
0.8567,0.1433	-1202.03
0.9244,0.0756	-1165.23
0.8021,0.1979	-1208.13
0.8335,0.1665	-1209.92
0.7758,0.2242	-1204.99
0.7287,0.2713	-1229.88
0.8581,0.1419	-1194.86
0.9286,0.0714	-1182.93
0.8353,0.1647	-1213.22
0.8425,0.1575	-1195.14
0.7457,0.2543	-1220.82
0.7224,0.2776	-1219.19
0.8708,0.1292	-1191.02
0.9396,0.0604	-1180.88
0.8012,0.1988	-1210.93
0.8292,0.1708	-1203.48
0.7831,0.2169	-1212.35
0.7601,0.2399	-1218.56
0.8681,0.1319	-1194.83
0.9447,0.0553	-1184.10
0.8367,0.1633	-1206.75
0.8580,0.1420	-1187.66
0.8162,0.1838	-1209.57
0.7622,0.2378	-1209.24
0.8556,0.1444	-1202.00
0.9233,0.0767	-1182.72
0.8474,0.1526	-1189.88
0.8326,0.1674	-1200.26
0.8233,0.1767	-1205.06
0.7797,0.2203	-1206.06
0.8487,0.1513	-1196.72
0.9068,0.0932	-1184.74
0.8376,0.1624	-1196.92
0.8248,0.1752	-1211.25
0.8331,0.1669	-1201.86
0.7289,0.2711	-1218.01
0.8184,0.1816	-1197.55
0.9071,0.0929	-1184.74
0.8391,0.1609	-1200.19
0.8177,0.1823	-1206.59
0.8282,0.1718	-1208.20
0.7352,0.2648	-1217.83
0.8341,0.1659	-1213.16
0.9126,0.0874	-1180.15
0.8488,0.1512	-1189.82
0.7898,0.2102	-1210.98
0.8296,0.1704	-1206.64
0.7367,0.2633	-1218.82
0.8303,0.1697	-1193.95
0.9138,0.0862	-1180.15
0.8596,0.1404	-1194.85
0.7870,0.2130	-1221.46
0.8306,0.1694	-1209.83
0.7667,0.2333	-1219.76
0.8114,0.1886	-1215.37
0.9348,0.0652	-1172.62
0.8843,0.1157	-1201.16
0.8001,0.1999	-1212.32
0.8540,0.1460	-1203.74
0.7837,0.2163	-1209.76
0.8082,0.1918	-1213.84
0.9351,0.0649	-1172.62
0.8868,0.1132	-1180.72
0.8212,0.1788	-1209.64
0.8410,0.1590	-1200.18
0.7806,0.2194	-1212.37
0.8006,0.1994	-1209.54
0.9325,0.0675	-1177.88
0.8788,0.1212	-1185.03
0.8155,0.1845	-1200.65
0.8220,0.1780	-1203.53
0.7757,0.2243	-1214.92
0.7949,0.2051	-1216.36
0.9316,0.0684	-1170.03
0.8506,0.1494	-1194.96
0.7954,0.2046	-1209.58
0.8463,0.1537	-1203.58
0.7933,0.2067	-1208.26
0.8321,0.1679	-1206.67
0.9294,0.0706	-1170.08
0.8591,0.1409	-1193.04
0.7916,0.2084	-1220.30
0.8628,0.1372	-1205.86
0.8255,0.1745	-1197.28
0.8053,0.1947	-1203.85
0.9320,0.0680	-1164.78
0.8754,0.1246	-1181.24
0.7969,0.2031	-1210.93
0.8573,0.1427	-1194.87
0.8063,0.1937	-1220.93
0.8288,0.1712	-1197.17
0.9158,0.0842	-1180.15
0.8961,0.1039	-1195.49
0.7779,0.2221	-1211.15
0.8907,0.1093	-1178.48
0.8207,0.1793	-1203.55
0.8253,0.1747	-1200.39
0.9099,0.0901	-1196.35
0.8925,0.1075	-1178.40
0.7591,0.2409	-1218.56
0.8997,0.1003	-1195.67
0.8222,0.1778	-1212.72
0.8157,0.1843	-1206.59
0.8916,0.1084	-1184.76
0.8990,0.1010	-1180.33
0.7955,0.2045	-1209.58
0.8966,0.1034	-1184.71
0.8124,0.1876	-1199.28
0.7894,0.2106	-1218.91
0.8884,0.1116	-1186.88
0.8764,0.1236	-1198.81
0.8110,0.1890	-1216.82
0.9057,0.0943	-1182.47
0.7977,0.2023	-1204.07
0.7954,0.2046	-1209.58
0.8384,0.1616	-1210.08
0.8669,0.1331	-1200.44
0.7907,0.2093	-1202.99
0.8999,0.1001	-1175.92
0.7959,0.2041	-1212.30
0.7644,0.2356	-1215.03
0.8467,0.1533	-1196.75
0.8631,0.1369	-1202.19
0.8247,0.1753	-1197.31
0.8849,0.1151	-1203.23
0.7902,0.2098	-1208.32
0.7777,0.2223	-1214.91
0.8725,0.1275	-1202.54
0.8775,0.1225	-1198.85
0.8376,0.1624	-1195.28
0.8706,0.1294	-1189.12
0.8300,0.1700	-1198.72
0.7869,0.2131	-1225.38
0.9084,0.0916	-1175.58
0.8763,0.1237	-1194.89
0.8234,0.1766	-1214.29
0.8653,0.1347	-1192.96
0.8116,0.1884	-1209.54
0.7897,0.2103	-1205.69
0.8953,0.1047	-1182.57
0.8865,0.1135	-1184.84
0.7990,0.2010	-1224.73
0.8718,0.1282	-1192.93
0.8223,0.1777	-1195.87
0.8063,0.1937	-1200.97
0.8955,0.1045	-1191.16
0.8651,0.1349	-1196.68
0.7799,0.2201	-1219.97
0.8732,0.1268	-1202.57
0.8283,0.1717	-1192.47
0.7674,0.2326	-1213.80
0.9129,0.0871	-1191.90
0.8832,0.1168	-1182.89
0.7501,0.2499	-1228.50
0.8867,0.1133	-1178.66
0.8447,0.1553	-1200.17
0.7544,0.2456	-1219.70
0.9122,0.0878	-1177.81
0.9010,0.0990	-1195.75
0.7183,0.2817	-1225.88
0.8785,0.1215	-1196.91
0.8837,0.1163	-1186.93
0.7723,0.2277	-1202.73
0.9144,0.0856	-1173.04
0.9124,0.0876	-1175.46
0.7551,0.2449	-1228.71
0.8809,0.1191	-1186.97
0.9045,0.0955	-1182.47
0.7990,0.2010	-1223.35
0.9351,0.0649	-1172.62
0.9118,0.0882	-1177.81
0.7574,0.2426	-1217.42
0.8757,0.1243	-1185.12
0.9138,0.0862	-1203.76
0.7860,0.2140	-1204.51
0.9496,0.0504	-1172.91
0.9135,0.0865	-1161.29
0.7775,0.2225	-1213.66
0.9057,0.0943	-1177.94
0.9032,0.0968	-1189.18
0.8071,0.1929	-1202.37
0.9386,0.0614	-1178.09
0.9358,0.0642	-1175.30
0.8241,0.1759	-1206.60
0.9036,0.0964	-1184.71
0.9240,0.0760	-1177.75
0.7955,0.2045	-1204.15
0.9335,0.0665	-1175.27
0.9419,0.0581	-1175.47
0.8142,0.1858	-1215.46
0.9020,0.0980	-1198.02
0.9292,0.0708	-1175.24
0.7996,0.2004	-1206.78
0.9280,0.0720	-1175.23
0.9459,0.0541	-1167.06
0.8206,0.1794	-1203.55
0.8818,0.1182	-1190.98
0.9360,0.0640	-1183.35
0.8226,0.1774	-1203.52
0.9269,0.0731	-1180.32
0.9546,0.0454	-1182.32
0.8172,0.1828	-1215.57
0.8815,0.1185	-1199.00
0.9368,0.0632	-1172.63
0.8298,0.1702	-1197.14
0.9380,0.0620	-1172.63
0.9524,0.0476	-1167.06
0.8143,0.1857	-1202.16
0.8735,0.1265	-1194.86
0.9480,0.0520	-1161.24
0.8025,0.1975	-1203.92
0.9361,0.0639	-1175.31
0.9525,0.0475	-1173.05
0.8465,0.1535	-1195.05
0.8763,0.1237	-1181.19
0.9444,0.0556	-1172.74
0.8016,0.1984	-1216.52
0.9239,0.0761	-1162.77
0.9569,0.0431	-1176.44
0.8522,0.1478	-1191.43
0.8827,0.1173	-1195.02
0.9384,0.0616	-1178.08
0.8263,0.1737	-1214.41
0.9218,0.0782	-1177.74
0.9569,0.0431	-1173.33
0.8624,0.1376	-1194.83
0.8772,0.1228	-1183.11
0.9287,0.0713	-1182.93
0.8089,0.1911	-1200.87
0.9168,0.0832	-1177.75
0.9639,0.0361	-1167.43
0.8760,0.1240	-1196.85
0.8445,0.1555	-1186.63
0.9256,0.0744	-1172.72
0.7779,0.2221	-1206.14
0.9201,0.0799	-1177.74
0.9644,0.0356	-1157.56
0.8897,0.1103	-1188.96
0.8702,0.1298	-1210.06
0.9313,0.0687	-1167.43
0.8453,0.1547	-1206.96
0.9340,0.0660	-1167.33
0.9619,0.0381	-1167.32
0.9155,0.0845	-1175.38
0.8519,0.1481	-1203.69
0.9330,0.0670	-1169.99
0.8393,0.1607	-1215.07
0.9413,0.0587	-1175.45
0.9625,0.0375	-1167.35
0.9158,0.0842	-1168.22
0.8656,0.1344	-1198.55
0.9345,0.0655	-1161.99
0.8419,0.1581	-1205.19
0.9428,0.0572	-1178.30
0.9524,0.0476	-1167.06
0.9011,0.0989	-1184.70
0.8672,0.1328	-1189.19
0.9290,0.0710	-1167.52
0.8469,0.1531	-1195.04
0.9253,0.0747	-1192.86
0.9441,0.0559	-1172.73
0.8973,0.1027	-1189.04
0.8875,0.1125	-1180.69
0.9285,0.0715	-1195.74
0.8251,0.1749	-1200.40
0.9303,0.0697	-1175.24
0.9521,0.0479	-1164.06
0.8850,0.1150	-1190.99
0.8956,0.1044	-1178.27
0.9149,0.0851	-1173.02
0.8308,0.1692	-1203.47
0.9463,0.0537	-1161.31
0.9425,0.0575	-1169.90
0.8640,0.1360	-1178.18
0.9001,0.0999	-1180.31
0.9318,0.0682	-1183.09
0.8214,0.1786	-1206.59
0.9330,0.0670	-1172.63
0.9379,0.0621	-1188.93
0.8403,0.1597	-1203.51
0.8994,0.1006	-1204.42
0.9405,0.0595	-1169.90
0.8206,0.1794	-1209.63
0.9216,0.0784	-1175.27
0.9320,0.0680	-1180.49
0.8667,0.1333	-1204.18
0.9075,0.0925	-1191.60
0.9344,0.0656	-1172.62
0.8015,0.1985	-1205.35
0.9175,0.0825	-1182.57
0.9384,0.0616	-1167.19
0.8847,0.1153	-1199.14
0.9301,0.0699	-1164.88
0.9167,0.0833	-1187.35
0.7797,0.2203	-1217.44
0.9153,0.0847	-1175.39
0.9383,0.0617	-1186.25
0.8906,0.1094	-1180.58
0.9305,0.0695	-1185.62
0.9197,0.0803	-1167.99
0.7935,0.2065	-1213.64
0.9322,0.0678	-1172.63
0.9157,0.0843	-1170.61
0.8714,0.1286	-1200.58
0.9218,0.0782	-1167.87
0.9060,0.0940	-1193.80
0.8092,0.1908	-1202.30
0.9401,0.0599	-1178.16
0.9271,0.0729	-1175.23
0.8765,0.1235	-1189.02
0.9292,0.0708	-1172.66
0.8795,0.1205	-1200.91
0.8237,0.1763	-1198.89
0.9366,0.0634	-1172.63
0.9296,0.0704	-1177.82
0.8729,0.1271	-1192.93
0.9279,0.0721	-1182.90
0.8617,0.1383	-1196.66
0.8479,0.1521	-1213.91
0.9185,0.0815	-1170.48
0.9075,0.0925	-1182.47
0.8706,0.1294	-1187.21
0.9155,0.0845	-1173.00
0.8601,0.1399	-1198.48
0.8379,0.1621	-1191.99
0.9256,0.0744	-1175.24
0.9034,0.0966	-1193.66
0.8402,0.1598	-1196.87
0.8932,0.1068	-1186.86
0.8581,0.1419	-1205.66
0.7841,0.2159	-1208.47
0.9264,0.0736	-1170.17
0.9024,0.0976	-1182.48
0.8354,0.1646	-1193.73
0.8789,0.1211	-1192.95
0.8367,0.1633	-1200.21
0.7755,0.2245	-1212.44
0.9356,0.0644	-1172.62
0.9102,0.0898	-1189.42
0.8277,0.1723	-1211.33
0.8671,0.1329	-1187.32
0.8128,0.1872	-1206.61
0.7806,0.2194	-1207.29
0.9394,0.0606	-1178.13
0.9053,0.0947	-1173.44
0.8097,0.1903	-1202.29
0.8497,0.1503	-1196.71
0.8419,0.1581	-1198.50
0.8072,0.1928	-1209.52
0.9500,0.0500	-1178.82
0.8982,0.1018	-1184.71
0.8297,0.1703	-1206.64
0.8334,0.1666	-1211.52
0.8300,0.1700	-1208.23
0.8326,0.1674	-1209.89
0.9457,0.0543	-1169.91
0.8931,0.1069	-1193.23
0.8244,0.1756	-1209.69
0.8435,0.1565	-1198.49
0.8417,0.1583	-1188.48
0.8619,0.1381	-1198.49
0.9392,0.0608	-1172.64
0.8953,0.1047	-1191.16
0.8565,0.1435	-1200.24
0.8303,0.1697	-1208.24
0.8590,0.1410	-1184.01
0.8726,0.1274	-1185.23
0.9331,0.0669	-1159.45
0.8787,0.1213	-1185.03
0.8620,0.1380	-1209.49
0.8428,0.1572	-1196.81
0.8587,0.1413	-1203.88
0.8465,0.1535	-1207.00
0.9359,0.0641	-1167.26
0.8888,0.1112	-1186.88
0.8766,0.1234	-1189.02
0.8578,0.1422	-1198.46
0.8710,0.1290	-1181.47
0.8450,0.1550	-1196.78
0.9355,0.0645	-1169.95
0.8795,0.1205	-1187.00
0.8425,0.1575	-1198.50
0.8566,0.1434	-1185.94
0.8514,0.1486	-1182.73
0.8419,0.1581	-1201.85
0.9429,0.0571	-1178.31
0.8698,0.1302	-1194.83
0.8582,0.1418	-1200.26
0.8449,0.1551	-1203.56
0.8274,0.1726	-1205.05
0.8575,0.1425	-1203.84
0.9480,0.0520	-1164.14
0.8859,0.1141	-1195.10
0.8547,0.1453	-1207.30
0.8279,0.1721	-1200.34
0.8333,0.1667	-1209.91
0.8659,0.1341	-1196.69
0.9453,0.0547	-1172.76
0.8799,0.1201	-1204.91
0.8561,0.1439	-1193.10
0.8184,0.1816	-1209.60
0.8250,0.1750	-1208.15
0.8545,0.1455	-1203.75
0.9444,0.0556	-1167.07
0.8842,0.1158	-1188.95
0.8670,0.1330	-1198.57
0.7939,0.2061	-1212.30
0.8327,0.1673	-1197.05
0.8620,0.1380	-1194.83
0.9308,0.0692	-1162.25
0.8670,0.1330	-1192.95
0.8680,0.1320	-1191.06
0.7999,0.2001	-1202.62
0.8311,0.1689	-1208.25
0.8765,0.1235	-1190.98
0.9173,0.0827	-1182.56
0.8534,0.1466	-1198.44
0.8681,0.1319	-1198.59
0.7673,0.2327	-1209.03
0.8386,0.1614	-1219.97
0.8835,0.1165	-1188.96
0.9158,0.0842	-1172.99
0.8329,0.1671	-1200.26
0.8764,0.1236	-1179.23
0.7350,0.2650	-1223.95
0.8215,0.1785	-1200.48
0.9037,0.0963	-1182.47
0.9129,0.0871	-1191.89
0.8341,0.1659	-1203.47
0.8917,0.1083	-1195.30
0.7327,0.2673	-1212.85
0.8130,0.1870	-1199.26
0.9014,0.0986	-1191.34
0.9195,0.0805	-1185.05
0.8531,0.1469	-1207.24
0.8604,0.1396	-1200.30
0.7480,0.2520	-1221.90
0.8466,0.1534	-1195.04
0.9084,0.0916	-1177.88
0.9012,0.0988	-1180.28
0.8398,0.1602	-1198.53
0.8908,0.1092	-1193.17
0.7372,0.2628	-1217.78
0.8544,0.1456	-1207.29
0.9129,0.0871	-1184.85
0.9106,0.0894	-1163.91
0.8700,0.1300	-1196.73
0.8659,0.1341	-1187.36
0.7461,0.2539	-1216.50
0.8872,0.1128	-1199.26
0.9227,0.0773	-1182.70
0.8786,0.1214	-1204.83
0.8625,0.1375	-1194.83
0.8588,0.1412	-1196.66
0.7315,0.2685	-1216.93
0.8895,0.1105	-1178.53
0.9239,0.0761	-1190.23
0.8846,0.1154	-1184.88
0.8820,0.1180	-1192.99
0.8858,0.1142	-1193.05
0.7071,0.2929	-1221.52
0.8745,0.1255	-1192.93
0.9276,0.0724	-1170.13
0.8928,0.1072	-1188.98
0.8789,0.1211	-1194.94
0.8794,0.1206	-1188.98
0.7051,0.2949	-1225.08
0.8661,0.1339	-1187.35
0.9285,0.0715	-1175.23
0.8995,0.1005	-1191.28
0.8789,0.1211	-1192.95
0.8676,0.1324	-1179.79
0.6962,0.3038	-1219.44
0.8641,0.1359	-1189.28
0.9295,0.0705	-1170.08
0.8716,0.1284	-1192.93
0.8401,0.1599	-1203.50
0.8667,0.1333	-1192.95
0.7026,0.2974	-1215.66
0.8553,0.1447	-1202.00
0.9468,0.0532	-1175.68
0.8729,0.1271	-1185.22
0.8358,0.1642	-1200.22
0.8762,0.1238	-1194.89
0.7199,0.2801	-1211.72
0.8310,0.1690	-1213.03
0.9368,0.0632	-1164.54
0.8763,0.1237	-1196.85
0.7941,0.2059	-1217.70
0.8756,0.1244	-1198.79
0.6970,0.3030	-1221.90
0.8213,0.1787	-1211.16
0.9273,0.0727	-1167.60
0.8878,0.1122	-1186.88
0.7815,0.2185	-1212.36
0.8896,0.1104	-1191.05
0.6887,0.3113	-1237.34
0.7871,0.2129	-1211.01
0.9434,0.0566	-1167.09
0.8668,0.1332	-1191.08
0.8084,0.1916	-1221.04
0.8716,0.1284	-1191.01
0.7218,0.2782	-1224.93
0.7911,0.2089	-1200.31
0.9334,0.0666	-1175.27
0.8301,0.1699	-1200.30
0.8427,0.1573	-1196.82
0.8468,0.1532	-1188.20
0.7323,0.2677	-1221.93
0.7474,0.2526	-1214.30
0.9482,0.0518	-1169.95
0.7935,0.2065	-1219.03
0.8614,0.1386	-1187.53
0.8477,0.1523	-1200.17
0.7887,0.2113	-1210.99
0.7381,0.2619	-1218.79
0.9502,0.0498	-1167.04
0.7964,0.2036	-1197.30
0.8369,0.1631	-1210.02
0.7920,0.2080	-1202.94
0.7967,0.2033	-1205.47
0.7155,0.2845	-1219.43
0.9447,0.0553	-1172.75
0.7637,0.2363	-1222.08
0.8412,0.1588	-1203.51
0.8066,0.1934	-1206.67
0.8039,0.1961	-1208.12
0.7264,0.2736	-1225.91
0.9481,0.0519	-1178.66
0.7632,0.2368	-1201.00
0.8505,0.1495	-1205.40
0.8116,0.1884	-1203.70
0.8033,0.1967	-1212.34
0.7546,0.2454	-1219.70
0.9503,0.0497	-1161.14
0.7908,0.2092	-1200.33
0.8472,0.1528	-1201.88
0.8634,0.1366	-1194.83
0.8050,0.1950	-1205.27
0.7818,0.2182	-1203.43
0.9513,0.0487	-1170.02
0.8078,0.1922	-1209.53
0.8621,0.1379	-1191.17
0.8284,0.1716	-1205.06
0.8368,0.1632	-1205.12
0.7903,0.2097	-1204.34
0.9405,0.0595	-1167.14
0.8043,0.1957	-1213.77
0.8840,0.1160	-1190.99
0.8535,0.1465	-1189.63
0.8071,0.1929	-1209.52
0.8034,0.1966	-1194.05
0.9440,0.0560	-1181.20
0.8075,0.1925	-1203.79
0.8812,0.1188	-1178.95
0.8431,0.1569	-1193.45
0.8086,0.1914	-1203.76
0.8254,0.1746	-1200.39
0.9557,0.0443	-1164.03
0.8349,0.1651	-1193.75
0.8390,0.1610	-1190.29
0.8581,0.1419	-1194.86
0.8217,0.1783	-1202.00
0.8474,0.1526	-1191.60
0.9472,0.0528	-1172.82
0.8363,0.1637	-1198.59
0.8526,0.1474	-1194.93
0.8645,0.1355	-1194.82
0.8251,0.1749	-1212.81
0.8314,0.1686	-1208.26
0.9342,0.0658	-1180.58
0.8318,0.1682	-1216.26
0.8449,0.1551	-1191.69
0.8812,0.1188	-1205.00
0.8157,0.1843	-1206.59
0.8496,0.1504	-1198.44
0.9277,0.0723	-1175.23
0.7965,0.2035	-1216.39
0.8384,0.1616	-1198.55
0.9037,0.0963	-1186.95
0.7999,0.2001	-1213.70
0.8409,0.1591	-1205.18
0.9150,0.0850	-1180.15
0.7997,0.2003	-1212.31
0.8171,0.1829	-1202.10
0.9129,0.0871	-1189.54
0.8436,0.1564	-1206.91
0.8356,0.1644	-1201.85
0.9140,0.0860	-1177.78
0.7577,0.2423	-1220.84
0.8192,0.1808	-1202.05
0.9280,0.0720	-1165.01
0.8590,0.1410	-1193.04
0.8344,0.1656	-1211.56
0.9069,0.0931	-1182.47
0.7497,0.2503	-1217.52
0.8498,0.1502	-1189.78
0.9417,0.0583	-1164.33
0.8641,0.1359	-1191.12
0.8407,0.1593	-1201.85
0.9023,0.0977	-1178.04
0.7441,0.2559	-1219.75
0.8201,0.1799	-1218.73
0.9216,0.0784	-1172.81
0.8646,0.1354	-1192.97
0.8446,0.1554	-1195.09
0.9199,0.0801	-1177.74
0.7442,0.2558	-1222.96
0.7715,0.2285	-1207.65
0.9263,0.0737	-1175.24
0.8907,0.1093	-1184.77
0.8379,0.1621	-1198.56
0.9365,0.0635	-1180.70
0.7641,0.2359	-1212.68
0.7651,0.2349	-1219.74
0.9159,0.0841	-1172.99
0.8968,0.1032	-1173.90
0.8638,0.1362	-1191.13
0.9336,0.0664	-1180.55
0.7825,0.2175	-1222.59
0.7873,0.2127	-1204.46
0.9051,0.0949	-1166.68
0.8984,0.1016	-1195.61
0.8614,0.1386	-1193.01
0.9472,0.0528	-1184.37
0.8074,0.1926	-1209.52
0.8060,0.1940	-1199.56
0.9152,0.0848	-1184.91
0.9159,0.0841	-1170.60
0.8511,0.1489	-1201.93
0.9487,0.0513	-1187.46
0.7794,0.2206	-1216.17
0.8160,0.1840	-1202.12
0.9031,0.0969	-1184.71
0.9214,0.0786	-1175.28
0.8296,0.1704	-1197.15
0.9443,0.0557	-1167.07
0.7653,0.2347	-1211.47
0.8509,0.1491	-1198.44
0.9023,0.0977	-1202.49
0.9042,0.0958	-1189.21
0.7853,0.2147	-1211.03
0.9447,0.0553	-1172.74
0.7435,0.2565	-1214.44
0.8081,0.1919	-1212.40
0.9166,0.0834	-1180.15
0.8830,0.1170	-1176.83
0.7673,0.2327	-1223.34
0.9500,0.0500	-1175.87
0.7635,0.2365	-1217.38
0.8044,0.1956	-1198.22
0.9378,0.0622	-1167.21
0.8979,0.1021	-1189.05
0.7288,0.2712	-1223.95
0.9433,0.0567	-1178.34
0.8016,0.1984	-1205.35
0.8258,0.1742	-1214.39
0.9477,0.0523	-1175.73
0.9038,0.0962	-1184.71
0.7301,0.2699	-1211.01
0.9485,0.0515	-1167.04
0.7816,0.2184	-1208.54
0.8453,0.1547	-1198.47
0.9442,0.0558	-1172.73
0.9025,0.0975	-1186.93
0.7420,0.2580	-1221.89
0.9417,0.0583	-1181.02
0.8187,0.1813	-1197.54
0.8339,0.1661	-1193.79
0.9478,0.0522	-1161.24
0.9136,0.0864	-1189.58
0.7023,0.2977	-1227.70
0.9350,0.0650	-1183.29
0.7942,0.2058	-1213.65
0.8295,0.1705	-1206.64
0.9604,0.0396	-1160.87
0.8923,0.1077	-1188.98
0.7272,0.2728	-1219.05
0.9397,0.0603	-1178.14
0.8276,0.1724	-1214.47
0.8736,0.1264	-1210.33
0.9601,0.0399	-1167.24
0.9026,0.0974	-1171.35
0.7398,0.2602	-1225.03
0.9480,0.0520	-1164.14
0.8079,0.1921	-1209.53
0.8986,0.1014	-1184.70
0.9474,0.0526	-1161.26
0.9198,0.0802	-1180.18
0.7491,0.2509	-1210.97
0.9435,0.0565	-1169.90
0.7912,0.2088	-1216.29
0.8802,0.1198	-1186.98
0.9455,0.0545	-1187.04
0.9401,0.0599	-1172.66
0.7717,0.2283	-1218.60
0.9422,0.0578	-1164.31
0.7651,0.2349	-1207.93
0.8910,0.1090	-1195.27
0.9515,0.0485	-1164.07
0.9480,0.0520	-1169.94
0.8020,0.1980	-1213.73
0.9422,0.0578	-1181.06
0.7719,0.2281	-1212.51
0.8867,0.1133	-1191.01
0.9406,0.0594	-1186.47
0.9556,0.0444	-1176.31
0.7951,0.2049	-1210.94
0.9495,0.0505	-1161.17
0.7899,0.2101	-1210.98
0.8518,0.1482	-1207.18
0.9425,0.0575	-1172.69
0.9597,0.0403	-1176.74
0.8015,0.1985	-1213.72
0.9453,0.0547	-1167.06
0.7931,0.2069	-1210.95
0.8659,0.1341	-1185.50
0.9399,0.0601	-1180.90
0.9542,0.0458	-1170.11
0.8025,0.1975	-1212.34
0.9552,0.0448	-1160.98
0.8044,0.1956	-1212.35
0.8670,0.1330	-1198.57
0.9426,0.0574	-1167.10
0.9465,0.0535	-1169.92
0.7984,0.2016	-1208.18
0.9633,0.0367	-1164.12
0.7859,0.2141	-1204.52
0.8604,0.1396	-1198.48
0.9428,0.0572	-1164.29
0.9295,0.0705	-1164.92
0.7945,0.2055	-1225.82
0.9523,0.0477	-1167.05
0.7746,0.2254	-1218.63
0.8517,0.1483	-1194.94
0.9350,0.0650	-1167.29
0.9284,0.0716	-1175.23
0.7888,0.2112	-1216.26
0.9477,0.0523	-1178.63
0.7711,0.2289	-1222.24
0.8675,0.1325	-1183.55
0.9381,0.0619	-1172.63
0.9463,0.0537	-1158.45
0.7964,0.2036	-1219.12
0.9548,0.0452	-1167.09
0.7866,0.2134	-1207.10
0.8572,0.1428	-1198.45
0.9387,0.0613	-1164.45
0.9360,0.0640	-1180.68
0.7857,0.2143	-1208.43
0.9425,0.0575	-1169.90
0.7776,0.2224	-1207.40
0.8572,0.1428	-1187.70
0.9352,0.0648	-1169.95
0.9309,0.0691	-1180.44
0.7796,0.2204	-1216.17
0.9474,0.0526	-1169.94
0.8243,0.1757	-1194.23
0.8616,0.1384	-1202.15
0.9332,0.0668	-1164.72
0.9461,0.0539	-1169.92
0.7674,0.2326	-1207.83
0.9553,0.0447	-1170.16
0.8217,0.1783	-1217.28
0.8695,0.1305	-1196.73
0.9412,0.0588	-1175.44
0.9490,0.0510	-1175.81
0.8034,0.1966	-1199.68
0.9487,0.0513	-1169.96
0.8123,0.1877	-1199.29
0.9038,0.0962	-1177.99
0.9543,0.0457	-1167.08
0.9423,0.0577	-1178.27
0.7673,0.2327	-1224.54
0.9465,0.0535	-1164.18
0.8255,0.1745	-1201.94
0.8841,0.1159	-1188.95
0.9657,0.0343	-1160.87
0.9501,0.0499	-1155.26
0.7871,0.2129	-1197.93
0.9416,0.0584	-1167.12
0.8664,0.1336	-1200.43
0.8991,0.1009	-1184.70
0.9562,0.0438	-1173.28
0.9456,0.0544	-1169.91
0.7959,0.2041	-1208.22
0.9418,0.0582	-1178.25
0.8877,0.1123	-1188.95
0.8956,0.1044	-1193.32
0.9587,0.0413	-1167.19
0.9391,0.0609	-1172.64
0.7528,0.2472	-1213.02
0.9275,0.0725	-1177.78
0.8722,0.1278	-1187.17
0.8956,0.1044	-1186.87
0.9528,0.0472	-1176.07
0.9377,0.0623	-1183.48
0.7548,0.2452	-1205.08
0.9283,0.0717	-1177.79
0.8620,0.1380	-1187.50
0.9059,0.0941	-1175.67
0.9447,0.0553	-1167.07
0.9415,0.0585	-1175.46
0.8086,0.1914	-1210.97
0.9249,0.0751	-1170.22
0.8484,0.1516	-1213.95
0.8928,0.1072	-1188.98
0.9485,0.0515	-1164.13
0.9416,0.0584	-1175.46
0.8166,0.1834	-1208.08
0.9306,0.0694	-1172.65
0.8335,0.1665	-1188.98
0.9079,0.0921	-1182.47
0.9433,0.0567	-1169.90
0.9355,0.0645	-1172.62
0.8067,0.1933	-1212.38
0.9180,0.0820	-1177.75
0.8098,0.1902	-1203.73
0.9049,0.0951	-1175.71
0.9385,0.0615	-1167.19
0.9465,0.0535	-1172.80
0.8120,0.1880	-1203.69
0.9279,0.0721	-1172.68
0.7574,0.2426	-1215.15
0.9224,0.0776	-1197.55
0.9424,0.0576	-1172.69
0.9285,0.0715	-1177.80
0.8174,0.1826	-1194.60
0.9336,0.0664	-1172.63
0.7291,0.2709	-1219.00
0.9313,0.0687	-1162.21
0.9372,0.0628	-1186.15
0.9394,0.0606	-1172.65
0.8167,0.1833	-1211.07
0.9367,0.0633	-1186.10
0.7414,0.2586	-1208.20
0.9160,0.0840	-1180.15
0.9469,0.0531	-1164.17
0.9411,0.0589	-1178.21
0.8054,0.1946	-1199.58
0.9529,0.0471	-1167.06
0.7650,0.2350	-1213.84
0.9120,0.0880	-1184.83
0.9514,0.0486	-1158.12
0.9545,0.0455	-1154.91
0.7862,0.2138	-1207.11
0.9500,0.0500	-1161.15
0.7422,0.2578	-1217.66
0.9103,0.0897	-1189.43
0.9576,0.0424	-1179.62
0.9574,0.0426	-1164.04
0.7705,0.2295	-1211.32
0.9556,0.0444	-1170.17
0.7582,0.2418	-1221.99
0.9059,0.0941	-1200.59
0.9533,0.0467	-1164.05
0.9570,0.0430	-1167.14
0.7651,0.2349	-1213.84
0.9526,0.0474	-1173.06
0.7312,0.2688	-1217.94
0.9152,0.0848	-1182.53
0.9532,0.0468	-1161.04
0.9617,0.0383	-1154.42
0.7768,0.2232	-1208.68
0.9569,0.0431	-1167.13
0.7604,0.2396	-1216.25
0.9125,0.0875	-1173.12
0.9508,0.0492	-1172.97
0.9631,0.0369	-1190.23
0.8063,0.1937	-1196.69
0.9598,0.0402	-1167.23
0.7485,0.2515	-1217.54
0.9093,0.0907	-1166.34
0.9406,0.0594	-1175.42
0.9581,0.0419	-1179.69
0.8185,0.1815	-1208.09
0.9588,0.0412	-1157.75
0.7211,0.2789	-1223.03
0.9050,0.0950	-1182.47
0.9312,0.0688	-1177.85
0.9591,0.0409	-1157.74
0.8247,0.1753	-1200.41
0.9569,0.0431	-1173.33
0.7014,0.2986	-1220.87
0.9002,0.0998	-1175.90
0.9290,0.0710	-1175.23
0.9495,0.0505	-1175.84
0.8577,0.1423	-1189.48
0.9561,0.0439	-1167.11
0.7604,0.2396	-1219.71
0.9064,0.0936	-1175.66
0.9296,0.0704	-1190.72
0.9463,0.0537	-1181.40
0.8352,0.1648	-1196.99
0.9587,0.0413	-1164.04
0.7939,0.2061	-1216.34
0.9136,0.0864	-1173.07
0.9310,0.0690	-1172.64
0.9384,0.0616	-1178.09
0.8546,0.1454	-1193.13
0.9679,0.0321	-1154.08
0.8352,0.1648	-1200.23
0.9199,0.0801	-1187.50
0.9400,0.0600	-1175.41
0.9407,0.0593	-1175.43
0.8641,0.1359	-1192.97
0.9719,0.0281	-1164.56
0.7916,0.2084	-1208.29
0.9375,0.0625	-1186.17
0.9448,0.0552	-1169.91
0.9548,0.0452	-1167.09
0.8776,0.1224	-1185.07
0.9769,0.0231	-1161.32
0.7667,0.2333	-1210.24
0.9342,0.0658	-1183.24
0.9388,0.0612	-1167.18
0.9500,0.0500	-1164.10
0.8824,0.1176	-1195.01
0.9802,0.0198	-1153.84
0.7495,0.2505	-1229.58
0.9348,0.0652	-1180.61
0.9446,0.0554	-1178.41
0.9560,0.0440	-1160.96
0.8716,0.1284	-1198.67
