#isoforms=['ENSG00000110080.SE.2.A.up_ENSG00000110080.SE.2.A.SE1_ENSG00000110080.SE.2.A.dn','ENSG00000110080.SE.2.B.up_ENSG00000110080.SE.2.B.dn']	exon_lens=('ENSG00000110080.SE.2.A.up',61),('ENSG00000110080.SE.2.A.SE1',96),('ENSG00000110080.SE.2.A.dn',190),('ENSG00000110080.SE.2.B.up',61),('ENSG00000110080.SE.2.B.dn',190)	iters=5000	burn_in=500	lag=10	percent_accept=91.34	proposal_type=drift	counts=(0,0):85,(1,0):86,(1,1):215	assigned_counts=0:246,1:55	chrom=chr11	strand=+	mRNA_starts=126407574,126407574	mRNA_ends=126408496,126408496
sampled_psi	log_score
0.7963,0.2037	-1833.24
0.7549,0.2451	-1843.90
0.6393,0.3607	-1865.83
0.7587,0.2413	-1855.28
0.8232,0.1768	-1834.97
0.8959,0.1041	-1796.28
0.8148,0.1852	-1830.29
0.7693,0.2307	-1843.72
0.6608,0.3392	-1867.60
0.7278,0.2722	-1855.75
0.8122,0.1878	-1840.54
0.9024,0.0976	-1769.62
0.7854,0.2146	-1845.14
0.7765,0.2235	-1846.22
0.6574,0.3426	-1868.30
0.7732,0.2268	-1841.26
0.8037,0.1963	-1828.96
0.8683,0.1317	-1810.36
0.7825,0.2175	-1829.71
0.7975,0.2025	-1841.45
0.6493,0.3507	-1869.05
0.7722,0.2278	-1838.83
0.8346,0.1654	-1825.79
0.8710,0.1290	-1793.19
0.7677,0.2323	-1850.90
0.7678,0.2322	-1818.61
0.6424,0.3576	-1873.87
0.7864,0.2136	-1838.65
0.8647,0.1353	-1804.79
0.8624,0.1376	-1804.86
0.7746,0.2254	-1843.72
0.7728,0.2272	-1835.15
0.6814,0.3186	-1859.24
0.7770,0.2230	-1836.24
0.8303,0.1697	-1827.33
0.8460,0.1540	-1812.42
0.8063,0.1937	-1831.76
0.7201,0.2799	-1869.95
0.6705,0.3295	-1859.72
0.7480,0.2520	-1849.52
0.8138,0.1862	-1830.29
0.8661,0.1339	-1815.96
0.8085,0.1915	-1817.35
0.7308,0.2692	-1843.78
0.6654,0.3346	-1868.94
0.7507,0.2493	-1839.59
0.8230,0.1770	-1818.06
0.8582,0.1418	-1814.02
0.8009,0.1991	-1831.80
0.7154,0.2846	-1851.22
0.6652,0.3348	-1866.19
0.8032,0.1968	-1833.19
0.8313,0.1687	-1811.40
0.8494,0.1506	-1820.99
0.8327,0.1673	-1816.13
0.7636,0.2364	-1853.14
0.7038,0.2962	-1862.12
0.8029,0.1971	-1830.38
0.8109,0.1891	-1824.47
0.8344,0.1656	-1825.78
0.7992,0.2008	-1826.30
0.7744,0.2256	-1822.75
0.7683,0.2317	-1848.52
0.8089,0.1911	-1815.88
0.8118,0.1882	-1827.37
0.8373,0.1627	-1822.55
0.8179,0.1821	-1830.30
0.7652,0.2348	-1840.20
0.7698,0.2302	-1831.64
0.7955,0.2045	-1823.75
0.8246,0.1754	-1836.57
0.8502,0.1498	-1822.74
0.8264,0.1736	-1825.73
0.7813,0.2187	-1838.69
0.7421,0.2579	-1855.91
0.7780,0.2220	-1851.26
0.8310,0.1690	-1805.04
0.8581,0.1419	-1806.82
0.7673,0.2327	-1841.34
0.7839,0.2161	-1828.36
0.7484,0.2516	-1851.70
0.7668,0.2332	-1835.40
0.7878,0.2122	-1834.71
0.8428,0.1572	-1824.27
0.7623,0.2377	-1833.29
0.8268,0.1732	-1838.24
0.7729,0.2271	-1843.71
0.7881,0.2119	-1838.65
0.7430,0.2570	-1830.45
0.8892,0.1108	-1792.19
0.7804,0.2196	-1841.23
0.8219,0.1781	-1818.10
0.7668,0.2332	-1843.73
0.8079,0.1921	-1834.62
0.7490,0.2510	-1851.70
0.8992,0.1008	-1794.10
0.7736,0.2264	-1852.32
0.8077,0.1923	-1833.19
0.7231,0.2769	-1853.84
0.8276,0.1724	-1810.05
0.7745,0.2255	-1838.78
0.9099,0.0901	-1789.55
0.7655,0.2345	-1835.46
0.8178,0.1822	-1833.30
0.7251,0.2749	-1849.93
0.8231,0.1769	-1822.67
0.7930,0.2070	-1834.64
0.9316,0.0684	-1761.49
0.8008,0.1992	-1817.89
0.8200,0.1800	-1824.25
0.7727,0.2273	-1829.03
0.8394,0.1606	-1819.25
0.7914,0.2086	-1855.99
0.9254,0.0746	-1772.23
0.8017,0.1983	-1823.42
0.8082,0.1918	-1836.07
0.7781,0.2219	-1836.21
0.8479,0.1521	-1827.84
0.7888,0.2112	-1857.10
0.9238,0.0762	-1772.32
0.8120,0.1880	-1828.83
0.8123,0.1877	-1815.64
0.7513,0.2487	-1847.30
0.8478,0.1522	-1812.38
0.7774,0.2226	-1841.23
0.9167,0.0833	-1784.79
0.8092,0.1908	-1830.30
0.8238,0.1762	-1828.82
0.7368,0.2632	-1856.85
0.8302,0.1698	-1840.03
0.8087,0.1913	-1823.10
0.9082,0.0918	-1794.14
0.8182,0.1818	-1815.26
0.8365,0.1635	-1820.92
0.7583,0.2417	-1839.26
0.8095,0.1905	-1823.07
0.8289,0.1711	-1821.00
0.9167,0.0833	-1791.99
0.8043,0.1957	-1828.94
0.8144,0.1856	-1834.73
0.7636,0.2364	-1839.07
0.8308,0.1692	-1846.43
0.7969,0.2031	-1838.70
0.9218,0.0782	-1784.78
0.7810,0.2190	-1847.59
0.8291,0.1709	-1813.11
0.7931,0.2069	-1846.73
0.8399,0.1601	-1810.96
0.7980,0.2020	-1822.23
0.9214,0.0786	-1784.78
0.8107,0.1893	-1830.30
0.8119,0.1881	-1827.37
0.7624,0.2376	-1849.60
0.8618,0.1382	-1821.36
0.8086,0.1914	-1824.54
0.9110,0.0890	-1789.54
0.7887,0.2113	-1839.97
0.8537,0.1463	-1829.90
0.7581,0.2419	-1840.41
0.8495,0.1505	-1817.53
0.8212,0.1788	-1842.53
0.9172,0.0828	-1787.19
0.7760,0.2240	-1837.51
0.8329,0.1671	-1820.95
0.7766,0.2234	-1821.30
0.8058,0.1942	-1836.03
0.8045,0.1955	-1828.94
0.9107,0.0893	-1777.93
0.7700,0.2300	-1834.05
0.8066,0.1934	-1840.32
0.7887,0.2113	-1846.55
0.7825,0.2175	-1839.95
0.8117,0.1883	-1825.91
0.9151,0.0849	-1784.81
0.7964,0.2036	-1835.97
0.7964,0.2036	-1830.51
0.7921,0.2079	-1840.00
0.7717,0.2283	-1844.93
0.8389,0.1611	-1827.51
0.9312,0.0688	-1795.40
0.7918,0.2082	-1819.96
0.7830,0.2170	-1829.69
0.8123,0.1877	-1825.90
0.7164,0.2836	-1842.84
0.8293,0.1707	-1825.74
0.9206,0.0794	-1782.33
0.8151,0.1849	-1830.29
0.7792,0.2208	-1831.14
0.8132,0.1868	-1831.76
0.7319,0.2681	-1854.77
0.8135,0.1865	-1817.03
0.9296,0.0704	-1769.44
0.8422,0.1578	-1815.89
0.8157,0.1843	-1816.90
0.8273,0.1727	-1827.30
0.7398,0.2602	-1854.82
0.7412,0.2588	-1832.74
0.9347,0.0653	-1766.51
0.8280,0.1720	-1827.31
0.8394,0.1606	-1822.56
0.8251,0.1749	-1821.08
0.7013,0.2987	-1850.16
0.7115,0.2885	-1854.09
0.9441,0.0559	-1774.52
0.8459,0.1541	-1810.72
0.7934,0.2066	-1827.90
0.8112,0.1888	-1824.46
0.6830,0.3170	-1863.02
0.6827,0.3173	-1857.66
0.9403,0.0597	-1774.47
0.8600,0.1400	-1824.92
0.7698,0.2302	-1842.51
0.7946,0.2054	-1830.56
0.6626,0.3374	-1859.49
0.6607,0.3393	-1860.94
0.9419,0.0581	-1780.05
0.8511,0.1489	-1807.08
0.8054,0.1946	-1833.18
0.8283,0.1717	-1833.60
0.7226,0.2774	-1864.38
0.6670,0.3330	-1871.03
0.9430,0.0570	-1774.50
0.8570,0.1430	-1805.06
0.7906,0.2094	-1818.72
0.8244,0.1756	-1835.02
0.7232,0.2768	-1863.44
0.6603,0.3397	-1866.28
0.9344,0.0656	-1787.78
0.8850,0.1150	-1827.06
0.7864,0.2136	-1836.05
0.8496,0.1504	-1795.02
0.6767,0.3233	-1866.82
0.6935,0.3065	-1858.86
0.9323,0.0677	-1766.66
0.8667,0.1333	-1804.74
0.8145,0.1855	-1825.85
0.8702,0.1298	-1810.37
0.6893,0.3107	-1857.38
0.6923,0.3077	-1866.19
0.9198,0.0802	-1779.90
0.8776,0.1224	-1800.64
0.8054,0.1946	-1837.44
0.8774,0.1226	-1794.74
0.6918,0.3082	-1845.96
0.6959,0.3041	-1853.01
0.9075,0.0925	-1807.83
0.8664,0.1336	-1810.36
0.7979,0.2021	-1841.46
0.8770,0.1230	-1810.48
0.7039,0.2961	-1850.87
0.6998,0.3002	-1862.11
0.9123,0.0877	-1768.47
0.8581,0.1419	-1823.01
0.8293,0.1707	-1809.93
0.8820,0.1180	-1822.69
0.7276,0.2724	-1859.68
0.7024,0.2976	-1848.37
0.9188,0.0812	-1794.48
0.8229,0.1771	-1821.14
0.8545,0.1455	-1826.41
0.8828,0.1172	-1802.57
0.7365,0.2635	-1851.70
0.7245,0.2755	-1856.72
0.8996,0.1004	-1807.25
0.8191,0.1809	-1818.23
0.8444,0.1556	-1812.47
0.9002,0.0998	-1796.29
0.7424,0.2576	-1844.27
0.6993,0.3007	-1867.17
0.9049,0.0951	-1791.85
0.8045,0.1955	-1845.91
0.8571,0.1429	-1810.43
0.8808,0.1192	-1800.58
0.7642,0.2358	-1837.87
0.7108,0.2892	-1855.00
0.9065,0.0935	-1796.39
0.7728,0.2272	-1853.51
0.8767,0.1233	-1802.63
0.8795,0.1205	-1824.46
0.7450,0.2550	-1845.25
0.6795,0.3205	-1859.32
0.9126,0.0874	-1787.20
0.7972,0.2028	-1837.34
0.8733,0.1267	-1810.41
0.9064,0.0936	-1798.66
0.7595,0.2405	-1840.36
0.7155,0.2845	-1847.53
0.9077,0.0923	-1775.84
0.7643,0.2357	-1836.69
0.8775,0.1225	-1816.40
0.9023,0.0977	-1811.87
0.7367,0.2633	-1849.64
0.7143,0.2857	-1864.09
0.8940,0.1060	-1800.56
0.8051,0.1949	-1834.60
0.8882,0.1118	-1798.45
0.9158,0.0842	-1777.65
0.7585,0.2415	-1841.54
0.6767,0.3233	-1869.04
0.8895,0.1105	-1790.09
0.7488,0.2512	-1852.79
0.8781,0.1219	-1788.79
0.9159,0.0841	-1780.03
0.7527,0.2473	-1846.18
0.6956,0.3044	-1857.16
0.8962,0.1038	-1800.59
0.7902,0.2098	-1834.67
0.8898,0.1102	-1806.79
0.9231,0.0769	-1777.34
0.7235,0.2765	-1849.03
0.6999,0.3001	-1864.65
0.9201,0.0799	-1784.78
0.7637,0.2363	-1839.06
0.8787,0.1213	-1804.58
0.9272,0.0728	-1787.40
0.7581,0.2419	-1847.26
0.7260,0.2740	-1848.93
0.9255,0.0745	-1784.82
0.7597,0.2403	-1842.66
0.8636,0.1364	-1802.98
0.9207,0.0793	-1784.78
0.7760,0.2240	-1837.51
0.7158,0.2842	-1849.36
0.9250,0.0750	-1774.77
0.7716,0.2284	-1837.63
0.8847,0.1153	-1792.38
0.9092,0.0908	-1784.94
0.7963,0.2037	-1822.33
0.7264,0.2736	-1855.75
0.9254,0.0746	-1792.38
0.7930,0.2070	-1841.35
0.8688,0.1312	-1785.79
0.9202,0.0798	-1806.79
0.7941,0.2059	-1841.37
0.7187,0.2813	-1845.47
0.9426,0.0574	-1766.10
0.8255,0.1745	-1839.72
0.8628,0.1372	-1799.34
0.9398,0.0602	-1779.96
0.8037,0.1963	-1823.32
0.7074,0.2926	-1845.38
0.9489,0.0511	-1763.00
0.8441,0.1559	-1809.10
0.8453,0.1547	-1805.65
0.9483,0.0517	-1783.39
0.7739,0.2261	-1863.40
0.7377,0.2623	-1851.69
0.9522,0.0478	-1768.88
0.8479,0.1521	-1826.12
0.8427,0.1573	-1819.24
0.9529,0.0471	-1789.96
0.7577,0.2423	-1843.84
0.7637,0.2363	-1836.72
0.9501,0.0499	-1780.64
0.8648,0.1352	-1830.77
0.8228,0.1772	-1833.42
0.9494,0.0506	-1780.57
0.7524,0.2476	-1837.29
0.7972,0.2028	-1830.49
0.9449,0.0551	-1783.07
0.8798,0.1202	-1802.59
0.8429,0.1571	-1819.24
0.9338,0.0662	-1774.50
0.7382,0.2618	-1859.98
0.7757,0.2243	-1833.80
0.9494,0.0506	-1768.85
0.8827,0.1173	-1806.61
0.8357,0.1643	-1829.05
0.9435,0.0565	-1763.25
0.7747,0.2253	-1833.84
0.7617,0.2383	-1835.64
0.9570,0.0430	-1747.33
0.8607,0.1393	-1808.56
0.8277,0.1723	-1811.61
0.9546,0.0454	-1771.99
0.7634,0.2366	-1847.27
0.7928,0.2072	-1837.32
0.9568,0.0432	-1759.74
0.8560,0.1440	-1806.89
0.8058,0.1942	-1826.07
0.9479,0.0521	-1774.64
0.7559,0.2441	-1850.66
0.8013,0.1987	-1820.65
0.9650,0.0350	-1769.65
0.8798,0.1202	-1800.60
0.7901,0.2099	-1836.00
0.9507,0.0493	-1774.78
0.7598,0.2402	-1841.50
0.8086,0.1914	-1823.10
0.9700,0.0300	-1749.47
0.8815,0.1185	-1822.64
0.7656,0.2344	-1842.55
0.9434,0.0566	-1777.32
0.7842,0.2158	-1832.21
0.8422,0.1578	-1820.91
0.9743,0.0257	-1756.60
0.9064,0.0936	-1782.76
0.7813,0.2187	-1836.14
0.9473,0.0527	-1780.39
0.8035,0.1965	-1843.04
0.8291,0.1709	-1824.16
0.9745,0.0255	-1742.05
0.8913,0.1087	-1783.70
0.7639,0.2361	-1839.06
0.9436,0.0564	-1774.51
0.8237,0.1763	-1827.28
0.8119,0.1881	-1830.29
0.9755,0.0245	-1741.96
0.9012,0.0988	-1776.41
0.7431,0.2569	-1839.99
0.9418,0.0582	-1774.48
0.8500,0.1500	-1815.80
0.8161,0.1839	-1842.21
0.9699,0.0301	-1777.25
0.8935,0.1065	-1787.79
0.7131,0.2869	-1851.31
0.9412,0.0588	-1771.70
0.8723,0.1277	-1806.55
0.7888,0.2112	-1832.06
0.9713,0.0287	-1742.37
0.8713,0.1287	-1823.77
0.7097,0.2903	-1859.50
0.9305,0.0695	-1761.60
0.8384,0.1616	-1820.91
0.7766,0.2234	-1833.76
0.9721,0.0279	-1752.94
0.8896,0.1104	-1813.04
0.6923,0.3077	-1861.32
0.9280,0.0720	-1766.98
0.8390,0.1610	-1820.91
0.7638,0.2362	-1853.14
0.9702,0.0298	-1773.83
0.8883,0.1117	-1800.52
0.7214,0.2786	-1862.43
0.9240,0.0760	-1789.80
0.8193,0.1807	-1818.22
0.7331,0.2669	-1848.70
0.9689,0.0311	-1763.27
0.8487,0.1513	-1807.18
0.7543,0.2457	-1840.55
0.9260,0.0740	-1789.88
0.8085,0.1915	-1825.99
0.7397,0.2603	-1853.77
0.9639,0.0361	-1759.69
0.8105,0.1895	-1837.56
0.7379,0.2621	-1845.48
0.9262,0.0738	-1792.43
0.8224,0.1776	-1815.02
0.7316,0.2684	-1857.77
0.9602,0.0398	-1753.32
0.8121,0.1879	-1833.22
0.7441,0.2559	-1849.54
0.9183,0.0817	-1787.20
0.8016,0.1984	-1827.61
0.7404,0.2596	-1856.92
0.9652,0.0348	-1749.74
0.7806,0.2194	-1839.96
0.7419,0.2581	-1843.23
0.9280,0.0720	-1777.21
0.7550,0.2450	-1842.77
0.7701,0.2299	-1834.04
0.9674,0.0326	-1749.60
0.7971,0.2029	-1825.02
0.7305,0.2695	-1844.79
0.9352,0.0648	-1777.15
0.7093,0.2907	-1850.58
0.8102,0.1898	-1850.62
0.9684,0.0316	-1739.27
0.7472,0.2528	-1841.94
0.7577,0.2423	-1859.80
0.9288,0.0712	-1759.22
0.7365,0.2635	-1846.56
0.8106,0.1894	-1818.66
0.9720,0.0280	-1756.48
0.7244,0.2756	-1859.62
0.7776,0.2224	-1828.72
0.9204,0.0796	-1779.88
0.7760,0.2240	-1842.48
0.7849,0.2151	-1843.84
0.9718,0.0282	-1749.40
0.7414,0.2586	-1837.99
0.7585,0.2415	-1847.26
0.9295,0.0705	-1792.66
0.7173,0.2827	-1848.35
0.7565,0.2435	-1838.20
0.9749,0.0251	-1738.36
0.7676,0.2324	-1838.95
0.7626,0.2374	-1836.77
0.9296,0.0704	-1777.18
0.6949,0.3051	-1853.06
0.7915,0.2085	-1825.32
0.9749,0.0251	-1742.01
0.7636,0.2364	-1863.69
0.7484,0.2516	-1858.24
0.9143,0.0857	-1787.19
0.7038,0.2962	-1863.86
0.7886,0.2114	-1839.97
0.9758,0.0242	-1756.71
0.7960,0.2040	-1838.69
0.7308,0.2692	-1853.77
0.8968,0.1032	-1798.44
0.6671,0.3329	-1858.52
0.7885,0.2115	-1851.81
0.9765,0.0235	-1745.59
0.7576,0.2424	-1841.56
0.7309,0.2691	-1852.77
0.8959,0.1041	-1802.74
0.6724,0.3276	-1871.86
0.7873,0.2127	-1845.20
0.9731,0.0269	-1749.36
0.7936,0.2064	-1829.24
0.7324,0.2676	-1849.73
0.9194,0.0806	-1796.95
0.6811,0.3189	-1867.60
0.8015,0.1985	-1842.96
0.9721,0.0279	-1756.49
0.8010,0.1990	-1830.41
0.7348,0.2652	-1855.79
0.9088,0.0912	-1791.85
0.6647,0.3353	-1864.83
0.8261,0.1739	-1828.85
0.9627,0.0373	-1749.92
0.7957,0.2043	-1833.25
0.7184,0.2816	-1847.37
0.8952,0.1048	-1791.99
0.6970,0.3030	-1858.78
0.8358,0.1642	-1812.78
0.9645,0.0355	-1749.79
0.7992,0.2008	-1835.97
0.7182,0.2818	-1855.80
0.8813,0.1187	-1806.59
0.7201,0.2799	-1857.67
0.8471,0.1529	-1800.41
0.9537,0.0463	-1753.80
0.8382,0.1618	-1819.26
0.7155,0.2845	-1853.98
0.9015,0.0985	-1802.94
0.7331,0.2669	-1861.84
0.8444,0.1556	-1805.70
0.9580,0.0420	-1762.84
0.8263,0.1737	-1830.41
0.7281,0.2719	-1849.84
0.8874,0.1126	-1810.84
0.7601,0.2399	-1853.03
0.7964,0.2036	-1837.33
0.9560,0.0440	-1772.08
0.8297,0.1703	-1828.91
0.7460,0.2540	-1840.91
0.9057,0.0943	-1798.63
0.7275,0.2725	-1856.73
0.8004,0.1996	-1837.37
0.9615,0.0385	-1766.11
0.8331,0.1669	-1819.34
0.7865,0.2135	-1834.74
0.9034,0.0966	-1787.38
0.6768,0.3232	-1863.86
0.8141,0.1859	-1830.29
0.9615,0.0385	-1759.67
0.8099,0.1901	-1830.30
0.7409,0.2591	-1845.38
0.8976,0.1024	-1807.13
0.6760,0.3240	-1856.52
0.8400,0.1600	-1820.91
0.9622,0.0378	-1766.15
0.8145,0.1855	-1821.41
0.7537,0.2463	-1848.40
0.8903,0.1097	-1798.43
0.7068,0.2932	-1860.39
0.8559,0.1441	-1815.80
0.9559,0.0441	-1759.77
0.7935,0.2065	-1815.78
0.7934,0.2066	-1837.32
0.9125,0.0875	-1794.24
0.7200,0.2800	-1847.28
0.8385,0.1615	-1814.32
0.9342,0.0658	-1777.15
0.7611,0.2389	-1837.99
0.7580,0.2420	-1857.54
0.9108,0.0892	-1780.25
0.7617,0.2383	-1839.13
0.8111,0.1889	-1837.58
0.9321,0.0679	-1774.53
0.7740,0.2260	-1832.64
0.7268,0.2732	-1850.86
0.8807,0.1193	-1790.59
0.7673,0.2327	-1843.73
0.8199,0.1801	-1839.41
0.9297,0.0703	-1777.18
0.7861,0.2139	-1823.04
0.7062,0.2938	-1854.25
0.8720,0.1280	-1835.34
0.7268,0.2732	-1845.97
0.8122,0.1878	-1825.90
0.9396,0.0604	-1771.72
0.7496,0.2504	-1831.97
0.7172,0.2828	-1862.32
0.8684,0.1316	-1823.57
0.7298,0.2702	-1839.86
0.8223,0.1777	-1830.35
0.9426,0.0574	-1768.90
0.7736,0.2264	-1842.49
0.7984,0.2016	-1834.59
0.8862,0.1138	-1796.42
0.6771,0.3229	-1866.82
0.7745,0.2255	-1836.31
0.9493,0.0507	-1777.64
0.7755,0.2245	-1847.44
0.7777,0.2223	-1844.99
0.8698,0.1302	-1816.07
0.7255,0.2745	-1837.29
0.7509,0.2491	-1858.34
0.9528,0.0472	-1768.90
0.7837,0.2163	-1829.65
0.7774,0.2226	-1847.49
0.8748,0.1252	-1800.71
0.7296,0.2704	-1852.78
0.7002,0.2998	-1868.05
0.9544,0.0456	-1762.86
0.7894,0.2106	-1839.97
0.8277,0.1723	-1817.89
0.8626,0.1374	-1806.69
0.7499,0.2501	-1838.53
0.7252,0.2748	-1853.81
0.9419,0.0581	-1777.27
0.8016,0.1984	-1830.40
0.8208,0.1792	-1824.24
0.8621,0.1379	-1826.86
0.7556,0.2444	-1841.63
0.7032,0.2968	-1858.67
0.9242,0.0758	-1774.80
0.7941,0.2059	-1840.02
0.7660,0.2340	-1834.25
0.8266,0.1734	-1816.36
0.7608,0.2392	-1853.05
0.7137,0.2863	-1862.25
0.9157,0.0843	-1777.65
0.7848,0.2152	-1843.83
0.7440,0.2560	-1861.28
0.8328,0.1672	-1820.95
0.8126,0.1874	-1842.03
0.7661,0.2339	-1836.62
0.9104,0.0896	-1789.55
0.7586,0.2414	-1849.55
0.7315,0.2685	-1849.75
0.8338,0.1662	-1803.19
0.8214,0.1786	-1818.13
0.7656,0.2344	-1870.96
0.9056,0.0944	-1789.58
0.7927,0.2073	-1837.32
0.6960,0.3040	-1856.31
0.8053,0.1947	-1830.34
0.7913,0.2087	-1829.33
0.7447,0.2553	-1846.33
0.8874,0.1126	-1798.46
0.7985,0.2015	-1841.48
0.7048,0.2952	-1862.13
0.7961,0.2039	-1838.69
0.7946,0.2054	-1835.97
0.6891,0.3109	-1858.98
0.9089,0.0911	-1794.15
0.8017,0.1983	-1824.81
0.6959,0.3041	-1853.83
0.7694,0.2306	-1831.67
0.8300,0.1700	-1825.74
0.6805,0.3195	-1861.55
0.9331,0.0669	-1771.88
0.8337,0.1663	-1822.55
0.6992,0.3008	-1846.92
0.7859,0.2141	-1828.25
0.8220,0.1780	-1822.69
0.7104,0.2896	-1866.68
0.9198,0.0802	-1767.70
0.8336,0.1664	-1832.22
0.7076,0.2924	-1853.32
0.8050,0.1950	-1837.44
0.8437,0.1563	-1814.18
0.7277,0.2723	-1845.92
0.9344,0.0656	-1774.49
0.8390,0.1610	-1807.70
0.7041,0.2959	-1859.53
0.7972,0.2028	-1820.91
0.8577,0.1423	-1817.61
0.7149,0.2851	-1847.56
0.8985,0.1015	-1798.46
0.8359,0.1641	-1827.43
0.6696,0.3304	-1860.48
0.8015,0.1985	-1842.97
0.8570,0.1430	-1810.43
0.7341,0.2659	-1857.82
0.8984,0.1016	-1789.74
0.8121,0.1879	-1822.97
0.7233,0.2767	-1865.37
0.8446,0.1554	-1812.46
0.8694,0.1306	-1806.58
0.7197,0.2803	-1844.46
0.9032,0.0968	-1829.82
0.8059,0.1941	-1836.03
0.7484,0.2516	-1845.16
0.8638,0.1362	-1814.06
0.8838,0.1162	-1833.01
0.7354,0.2646	-1861.94
0.8913,0.1087	-1798.43
0.7876,0.2124	-1845.20
0.7961,0.2039	-1838.69
0.8747,0.1253	-1814.32
0.8739,0.1261	-1827.84
0.7444,0.2556	-1849.54
0.8947,0.1053	-1783.45
0.7881,0.2119	-1832.08
0.7734,0.2266	-1826.53
0.8705,0.1295	-1806.57
0.8857,0.1143	-1818.95
0.7479,0.2521	-1857.13
0.8770,0.1230	-1804.59
0.7518,0.2482	-1853.95
0.8031,0.1969	-1834.59
0.8772,0.1228	-1810.48
0.9126,0.0874	-1775.47
0.7366,0.2634	-1852.73
0.8620,0.1380	-1823.20
0.7609,0.2391	-1848.42
0.7963,0.2037	-1831.88
0.9009,0.0991	-1783.05
0.9188,0.0812	-1770.22
0.7538,0.2462	-1846.16
0.8659,0.1341	-1806.63
0.8159,0.1841	-1812.42
0.7929,0.2071	-1835.98
0.9043,0.0957	-1800.83
0.9232,0.0768	-1782.31
0.7768,0.2232	-1830.01
0.8696,0.1304	-1819.86
0.8432,0.1568	-1804.10
0.7596,0.2404	-1836.91
0.9104,0.0896	-1787.23
0.9208,0.0792	-1782.32
0.7792,0.2208	-1842.49
0.8728,0.1272	-1804.62
0.8430,0.1570	-1837.73
0.7799,0.2201	-1829.84
0.9203,0.0797	-1792.12
0.9354,0.0646	-1774.48
0.7865,0.2135	-1834.74
0.8860,0.1140	-1800.53
0.8376,0.1624	-1830.75
0.7505,0.2495	-1858.32
0.9355,0.0645	-1763.78
0.9456,0.0544	-1777.42
0.7730,0.2270	-1830.24
0.8777,0.1223	-1824.29
0.8205,0.1795	-1821.20
0.7634,0.2366	-1837.90
0.9244,0.0756	-1774.79
0.9353,0.0647	-1766.47
0.7895,0.2105	-1825.43
0.8786,0.1214	-1798.64
0.8532,0.1468	-1817.55
0.7771,0.2229	-1847.48
0.9288,0.0712	-1774.62
0.9278,0.0722	-1779.76
0.8017,0.1983	-1848.56
0.8846,0.1154	-1818.86
0.8447,0.1553	-1819.23
0.8017,0.1983	-1831.79
0.9263,0.0737	-1779.77
0.9228,0.0772	-1787.27
0.8501,0.1499	-1819.27
0.8810,0.1190	-1814.59
0.8419,0.1581	-1832.62
0.7841,0.2159	-1838.66
0.9107,0.0893	-1789.54
0.9264,0.0736	-1787.37
0.8701,0.1299	-1817.98
0.8609,0.1391	-1808.56
0.8535,0.1465	-1814.03
0.8057,0.1943	-1836.03
0.9171,0.0829	-1782.39
0.9373,0.0627	-1766.35
0.8710,0.1290	-1798.92
0.8593,0.1407	-1803.16
0.8118,0.1882	-1837.60
0.7985,0.2015	-1829.09
0.9175,0.0825	-1782.38
0.9273,0.0727	-1792.49
0.8351,0.1649	-1822.55
0.8563,0.1437	-1814.02
0.8524,0.1476	-1817.54
0.7503,0.2497	-1844.01
0.9243,0.0757	-1784.80
0.9306,0.0694	-1790.15
0.8112,0.1888	-1828.84
0.8605,0.1395	-1801.29
0.8417,0.1583	-1832.61
0.7478,0.2522	-1848.43
0.9235,0.0765	-1762.37
0.9110,0.0890	-1777.91
0.8239,0.1761	-1835.00
0.8479,0.1521	-1810.66
0.8451,0.1549	-1812.45
0.7387,0.2613	-1847.53
0.9207,0.0793	-1789.68
0.9199,0.0801	-1784.78
0.8249,0.1751	-1822.64
0.8636,0.1364	-1808.52
0.8302,0.1698	-1843.20
0.7632,0.2368	-1850.78
0.9347,0.0653	-1771.83
0.9281,0.0719	-1769.53
0.8285,0.1715	-1822.59
0.8735,0.1265	-1802.68
0.8444,0.1556	-1827.69
0.7717,0.2283	-1826.67
0.9321,0.0679	-1792.87
0.9235,0.0765	-1787.29
0.8187,0.1813	-1815.23
0.8767,0.1233	-1804.59
0.8459,0.1541	-1826.05
0.7620,0.2380	-1849.59
0.9329,0.0671	-1800.84
0.9150,0.0850	-1794.32
0.8074,0.1926	-1830.32
0.9029,0.0971	-1796.32
0.8718,0.1282	-1802.72
0.7714,0.2286	-1826.68
0.9380,0.0620	-1788.04
0.9299,0.0701	-1764.25
0.8150,0.1850	-1828.81
0.9011,0.0989	-1787.46
0.8886,0.1114	-1800.52
0.7889,0.2111	-1832.06
0.9249,0.0751	-1782.30
0.9198,0.0802	-1796.97
0.8022,0.1978	-1828.99
0.8909,0.1091	-1802.63
0.8716,0.1284	-1800.81
0.7884,0.2116	-1854.43
0.9318,0.0682	-1790.23
0.9190,0.0810	-1772.63
0.7814,0.2186	-1847.60
0.8953,0.1047	-1787.70
0.8724,0.1276	-1806.55
0.7895,0.2105	-1845.26
0.9307,0.0693	-1795.35
0.9035,0.0965	-1805.27
0.7593,0.2407	-1840.37
0.8950,0.1050	-1794.14
0.8445,0.1555	-1802.32
0.8053,0.1947	-1837.44
0.9302,0.0698	-1771.99
0.8957,0.1043	-1796.28
0.7627,0.2373	-1847.27
0.8932,0.1068	-1796.30
0.8515,0.1485	-1810.55
0.7990,0.2010	-1849.77
0.9406,0.0594	-1771.71
0.8892,0.1108	-1808.85
0.7476,0.2524	-1843.01
0.9004,0.0996	-1798.49
0.8507,0.1493	-1801.87
0.8075,0.1925	-1824.58
0.9219,0.0781	-1789.72
0.8742,0.1258	-1794.91
0.7508,0.2492	-1858.34
0.8779,0.1221	-1816.42
0.8197,0.1803	-1806.09
0.8117,0.1883	-1828.83
0.9164,0.0836	-1782.40
0.8862,0.1138	-1812.84
0.7172,0.2828	-1849.29
0.8485,0.1515	-1808.91
0.8197,0.1803	-1810.63
0.8304,0.1696	-1832.10
0.9250,0.0750	-1777.28
0.8636,0.1364	-1795.60
0.6904,0.3096	-1866.16
0.8294,0.1706	-1817.83
0.7954,0.2046	-1846.83
0.8217,0.1783	-1821.17
0.9260,0.0740	-1792.42
0.8407,0.1593	-1820.91
0.6896,0.3104	-1850.98
0.8356,0.1644	-1814.42
0.7908,0.2092	-1847.96
0.8281,0.1719	-1810.02
0.9217,0.0783	-1784.78
0.8432,0.1568	-1814.19
0.7390,0.2610	-1855.85
0.8479,0.1521	-1810.66
0.8045,0.1955	-1831.77
0.8046,0.1954	-1847.34
0.9188,0.0812	-1777.50
0.8068,0.1932	-1836.04
0.7781,0.2219	-1834.96
0.8514,0.1486	-1817.54
0.8060,0.1940	-1826.06
0.8050,0.1950	-1823.26
0.9204,0.0796	-1787.23
0.8181,0.1819	-1833.31
0.7970,0.2030	-1846.91
0.8372,0.1628	-1824.19
0.8031,0.1969	-1827.56
0.7992,0.2008	-1840.12
0.9096,0.0904	-1775.70
0.7805,0.2195	-1836.16
0.7699,0.2301	-1837.68
0.8374,0.1626	-1822.55
0.8125,0.1875	-1815.63
0.7962,0.2038	-1841.42
0.9002,0.0998	-1800.69
0.7753,0.2247	-1843.72
0.7669,0.2331	-1844.92
0.8315,0.1685	-1825.75
0.7931,0.2069	-1826.57
0.7661,0.2339	-1834.24
0.8960,0.1040	-1789.82
0.7922,0.2078	-1841.34
0.7579,0.2421	-1836.99
0.8536,0.1464	-1806.97
0.8154,0.1846	-1833.26
0.7905,0.2095	-1833.34
0.8977,0.1023	-1796.28
0.7544,0.2456	-1849.52
0.7413,0.2587	-1852.73
0.8666,0.1334	-1802.87
0.8585,0.1415	-1824.84
0.7172,0.2828	-1841.85
0.9202,0.0798	-1794.56
0.7607,0.2393	-1835.70
0.7461,0.2539	-1833.36
0.8406,0.1594	-1814.26
0.8637,0.1363	-1817.75
0.7078,0.2922	-1855.08
0.9172,0.0828	-1789.60
0.7760,0.2240	-1841.24
0.7283,0.2717	-1855.75
0.8330,0.1670	-1824.16
0.8805,0.1195	-1794.60
0.7203,0.2797	-1851.05
0.9210,0.0790	-1784.78
0.7874,0.2126	-1845.20
0.7229,0.2771	-1861.51
0.8312,0.1688	-1830.53
0.8629,0.1371	-1804.85
0.7326,0.2674	-1848.72
0.9140,0.0860	-1768.29
0.7792,0.2208	-1856.37
0.7278,0.2722	-1857.72
0.8457,0.1543	-1822.64
0.8463,0.1537	-1824.36
0.6880,0.3120	-1856.64
0.9082,0.0918	-1784.97
0.7376,0.2624	-1857.89
0.7552,0.2448	-1840.51
0.8561,0.1439	-1821.15
0.8373,0.1627	-1816.00
0.7058,0.2942	-1847.26
0.9111,0.0889	-1796.53
0.7348,0.2652	-1855.79
0.7583,0.2417	-1859.84
0.8628,0.1372	-1815.88
0.8326,0.1674	-1817.74
0.6955,0.3045	-1853.03
0.9201,0.0799	-1782.33
0.7399,0.2601	-1850.64
0.7773,0.2227	-1842.49
0.8471,0.1529	-1810.68
0.8275,0.1725	-1825.73
0.7307,0.2693	-1848.78
0.9298,0.0702	-1795.27
0.7471,0.2529	-1846.27
0.7941,0.2059	-1844.07
0.8318,0.1682	-1833.75
0.8265,0.1735	-1838.22
0.7367,0.2633	-1851.70
0.9344,0.0656	-1782.46
0.7921,0.2079	-1833.31
0.7874,0.2126	-1826.87
0.8014,0.1986	-1827.61
0.8201,0.1799	-1837.90
0.6874,0.3126	-1862.97
0.9436,0.0564	-1788.60
0.7689,0.2311	-1849.73
0.8023,0.1977	-1826.19
0.7693,0.2307	-1838.90
0.8494,0.1506	-1820.99
0.6826,0.3174	-1853.84
0.9189,0.0811	-1787.21
0.7578,0.2422	-1850.68
0.7612,0.2388	-1836.83
0.7891,0.2109	-1837.33
0.8468,0.1532	-1820.95
0.7268,0.2732	-1844.01
0.9223,0.0777	-1782.31
0.7862,0.2138	-1838.65
0.7841,0.2159	-1834.79
0.8098,0.1902	-1828.85
0.8741,0.1259	-1800.73
0.7314,0.2686	-1850.76
0.9438,0.0562	-1766.05
0.8054,0.1946	-1836.02
0.7945,0.2055	-1841.38
0.8109,0.1891	-1833.21
0.8609,0.1391	-1814.03
0.7142,0.2858	-1856.76
0.9459,0.0541	-1780.29
0.8062,0.1938	-1841.74
0.8146,0.1854	-1837.69
0.8376,0.1624	-1824.19
0.8756,0.1244	-1812.40
0.7461,0.2539	-1839.83
0.9470,0.0530	-1774.61
0.8005,0.1995	-1852.65
0.8217,0.1783	-1847.14
0.8207,0.1793	-1824.24
0.8708,0.1292	-1821.83
0.7539,0.2461	-1850.64
0.9436,0.0564	-1766.06
0.7885,0.2115	-1843.91
0.8514,0.1486	-1819.28
0.8124,0.1876	-1818.57
0.8604,0.1396	-1810.39
0.7447,0.2553	-1864.52
0.9509,0.0491	-1771.83
0.7625,0.2375	-1847.27
0.8275,0.1725	-1817.90
0.8068,0.1932	-1823.18
0.8589,0.1411	-1814.02
0.7324,0.2676	-1845.71
0.9522,0.0478	-1765.89
0.7751,0.2249	-1823.93
0.8534,0.1466	-1843.97
0.8288,0.1712	-1822.58
0.8775,0.1225	-1804.58
0.7387,0.2613	-1853.77
0.9600,0.0400	-1756.50
0.7581,0.2419	-1844.98
0.8490,0.1510	-1820.98
0.8564,0.1436	-1806.87
0.8686,0.1314	-1827.36
0.7813,0.2187	-1853.97
0.9610,0.0390	-1762.88
0.7535,0.2465	-1833.87
0.8238,0.1762	-1822.65
0.8440,0.1560	-1812.48
0.8735,0.1265	-1812.34
0.8061,0.1939	-1828.91
0.9550,0.0450	-1756.74
0.7608,0.2392	-1849.58
0.8036,0.1964	-1820.51
0.8761,0.1239	-1820.24
0.8481,0.1519	-1807.21
0.8425,0.1575	-1827.62
0.9555,0.0445	-1762.85
0.7757,0.2243	-1827.59
0.8267,0.1733	-1819.48
0.8728,0.1272	-1804.62
0.8471,0.1529	-1814.11
0.8213,0.1787	-1844.06
0.9500,0.0500	-1774.74
0.7669,0.2331	-1847.30
0.8023,0.1977	-1840.19
0.8545,0.1455	-1805.17
0.7997,0.2003	-1823.52
0.8067,0.1933	-1827.47
0.9486,0.0514	-1757.18
0.6977,0.3023	-1859.60
0.8007,0.1993	-1840.15
0.8524,0.1476	-1794.75
0.7806,0.2194	-1829.81
0.8210,0.1790	-1825.76
0.9385,0.0615	-1774.46
0.7091,0.2909	-1855.05
0.8168,0.1832	-1831.79
0.8251,0.1749	-1824.18
0.7815,0.2185	-1832.31
0.8210,0.1790	-1816.62
0.9466,0.0534	-1777.47
0.7190,0.2810	-1856.73
0.7820,0.2180	-1829.74
0.8266,0.1734	-1836.67
0.7505,0.2495	-1844.01
0.8208,0.1792	-1819.67
0.9520,0.0480	-1765.89
0.7524,0.2476	-1858.41
0.7691,0.2309	-1840.11
0.8182,0.1818	-1837.82
0.7729,0.2271	-1832.69
0.8256,0.1744	-1828.84
0.9447,0.0553	-1774.54
0.7914,0.2086	-1831.99
0.7976,0.2024	-1845.57
0.8332,0.1668	-1800.03
0.7637,0.2363	-1842.58
0.8117,0.1883	-1828.83
0.9574,0.0426	-1762.84
0.8227,0.1773	-1834.96
0.7996,0.2004	-1817.98
0.8356,0.1644	-1819.30
0.7723,0.2277	-1844.93
0.8003,0.1997	-1840.14
0.9644,0.0356	-1762.99
0.8036,0.1964	-1827.55
0.8441,0.1559	-1837.81
0.8195,0.1805	-1828.80
0.7620,0.2380	-1827.48
0.8027,0.1973	-1837.40
0.9568,0.0432	-1769.04
0.8034,0.1966	-1833.19
0.8329,0.1671	-1827.37
0.8450,0.1550	-1810.76
0.7734,0.2266	-1844.94
0.7799,0.2201	-1848.82
0.9580,0.0420	-1772.22
0.8005,0.1995	-1833.20
0.8378,0.1622	-1830.76
0.8457,0.1543	-1807.33
0.7901,0.2099	-1832.02
0.7925,0.2075	-1822.58
0.9536,0.0464	-1790.09
0.8243,0.1757	-1818.01
0.8248,0.1752	-1828.83
0.8412,0.1588	-1807.57
0.7952,0.2048	-1829.19
0.7752,0.2248	-1843.72
0.9562,0.0438	-1756.68
0.8064,0.1936	-1850.30
0.8048,0.1952	-1820.44
0.8371,0.1629	-1822.55
0.7756,0.2244	-1841.24
0.8108,0.1892	-1853.58
0.9552,0.0448	-1756.73
0.8107,0.1893	-1833.20
0.8163,0.1837	-1833.28
0.8051,0.1949	-1834.60
0.7948,0.2052	-1829.20
0.8230,0.1770	-1825.74
0.9528,0.0472	-1762.89
0.8190,0.1810	-1810.68
0.8051,0.1949	-1833.18
0.8113,0.1887	-1849.25
0.7646,0.2354	-1831.97
0.8429,0.1571	-1815.88
0.9527,0.0473	-1762.89
0.8289,0.1711	-1816.27
0.8281,0.1719	-1814.73
0.8013,0.1987	-1835.98
0.7424,0.2576	-1858.03
0.8565,0.1435	-1796.15
0.9574,0.0426	-1759.73
0.8511,0.1489	-1801.85
0.8333,0.1667	-1825.77
0.7993,0.2007	-1827.68
0.7307,0.2693	-1856.76
0.8692,0.1308	-1821.73
0.9527,0.0473	-1765.89
0.8153,0.1847	-1827.32
0.8020,0.1980	-1834.59
0.8247,0.1753	-1828.83
0.7610,0.2390	-1849.58
0.8870,0.1130	-1812.89
0.9454,0.0546	-1780.26
0.8367,0.1633	-1809.48
0.7842,0.2158	-1851.57
0.8319,0.1681	-1822.56
0.7363,0.2637	-1850.68
0.8938,0.1062	-1798.42
0.9474,0.0526	-1780.41
0.8479,0.1521	-1819.25
0.7730,0.2270	-1854.74
0.8597,0.1403	-1819.46
0.7510,0.2490	-1845.10
0.8960,0.1040	-1807.05
0.9574,0.0426	-1775.29
0.8678,0.1322	-1808.48
0.8008,0.1992	-1838.76
0.8863,0.1137	-1802.58
0.7577,0.2423	-1850.68
0.8984,0.1016	-1791.92
0.9668,0.0332	-1766.49
0.8328,0.1672	-1806.50
0.8171,0.1829	-1825.81
0.8698,0.1302	-1816.07
0.7770,0.2230	-1836.24
0.9067,0.0933	-1791.84
0.9639,0.0361	-1762.97
0.8287,0.1713	-1806.82
0.8485,0.1515	-1808.91
0.8340,0.1660	-1803.17
0.7735,0.2265	-1832.66
0.8796,0.1204	-1810.55
0.9623,0.0377	-1740.23
0.8156,0.1844	-1843.67
0.8612,0.1388	-1808.55
0.7865,0.2135	-1832.13
0.7938,0.2062	-1837.32
0.8629,0.1371	-1819.57
0.9626,0.0374	-1766.17
0.8106,0.1894	-1824.48
0.8469,0.1531	-1807.27
0.7526,0.2474	-1846.18
0.8109,0.1891	-1844.85
0.9037,0.0963	-1803.05
0.9589,0.0411	-1753.40
0.7749,0.2251	-1841.25
0.8435,0.1565	-1817.55
0.7810,0.2190	-1845.05
0.8175,0.1825	-1837.80
0.9129,0.0871	-1791.90
0.9510,0.0490	-1783.69
0.7710,0.2290	-1836.43
0.8339,0.1661	-1816.09
0.7912,0.2088	-1843.98
0.8112,0.1888	-1834.67
0.9192,0.0808	-1767.76
0.9568,0.0432	-1790.72
0.7481,0.2519	-1853.87
0.8368,0.1632	-1817.65
0.7863,0.2137	-1824.32
0.8470,0.1530	-1826.09
0.9323,0.0677	-1790.27
0.9660,0.0340	-1759.72
0.7631,0.2369	-1842.59
0.8169,0.1831	-1840.76
0.7572,0.2428	-1854.09
0.8208,0.1792	-1822.72
0.9321,0.0679	-1766.68
0.9602,0.0398	-1759.68
0.7495,0.2505	-1847.32
0.8223,0.1777	-1827.28
0.7376,0.2624	-1849.63
0.8023,0.1977	-1821.98
0.9312,0.0688	-1769.35
0.9529,0.0471	-1762.89
0.7328,0.2672	-1851.74
0.8468,0.1532	-1822.66
0.7319,0.2681	-1861.80
0.7951,0.2049	-1844.11
0.9267,0.0733	-1794.99
0.9438,0.0562	-1774.52
0.7518,0.2482	-1849.51
0.8749,0.1251	-1810.44
0.7620,0.2380	-1844.94
0.7842,0.2158	-1833.50
0.9138,0.0862	-1789.56
0.9446,0.0554	-1763.19
0.7640,0.2360	-1849.63
0.8816,0.1184	-1798.56
0.7312,0.2688	-1853.76
0.8146,0.1854	-1831.77
0.9203,0.0797	-1804.35
0.9431,0.0569	-1760.46
0.7116,0.2884	-1862.21
0.8624,0.1376	-1808.53
0.7428,0.2572	-1846.38
0.8415,0.1585	-1817.57
0.9355,0.0645	-1771.81
0.9400,0.0600	-1766.21
0.7416,0.2584	-1850.62
0.8665,0.1335	-1797.27
0.7897,0.2103	-1825.42
0.8432,0.1568	-1832.69
0.9372,0.0628	-1777.17
0.9294,0.0706	-1774.60
0.7527,0.2473	-1847.29
0.8387,0.1613	-1820.91
0.8332,0.1668	-1830.59
0.8277,0.1723	-1828.87
0.9280,0.0720	-1789.99
0.9437,0.0563	-1780.15
0.7313,0.2687	-1845.75
0.8307,0.1693	-1814.61
0.8307,0.1693	-1808.25
0.8557,0.1443	-1810.46
0.9365,0.0635	-1785.24
0.9517,0.0483	-1762.91
0.7618,0.2382	-1850.75
0.7924,0.2076	-1840.00
0.7911,0.2089	-1842.65
0.8569,0.1431	-1810.44
0.9335,0.0665	-1790.36
0.9456,0.0544	-1774.56
0.7469,0.2531	-1849.52
0.8052,0.1948	-1841.70
0.7511,0.2489	-1845.10
0.8526,0.1474	-1810.52
0.9523,0.0477	-1750.92
0.9433,0.0567	-1766.07
0.7452,0.2548	-1842.02
0.7231,0.2769	-1859.60
0.7557,0.2443	-1841.62
0.8304,0.1696	-1811.45
0.9488,0.0512	-1768.84
0.9341,0.0659	-1769.19
0.7632,0.2368	-1839.08
0.7195,0.2805	-1857.67
0.7966,0.2034	-1833.24
0.8339,0.1661	-1825.78
0.9443,0.0557	-1777.36
0.9255,0.0745	-1764.67
0.7786,0.2214	-1831.17
0.6999,0.3001	-1859.57
0.7778,0.2222	-1837.48
0.8249,0.1751	-1824.19
0.9447,0.0553	-1771.70
0.9039,0.0961	-1785.13
0.7526,0.2474	-1855.08
0.6889,0.3111	-1853.42
0.7719,0.2281	-1849.81
0.8254,0.1746	-1828.84
0.9425,0.0575	-1785.68
0.8946,0.1054	-1789.87
0.7925,0.2075	-1833.30
0.7238,0.2762	-1857.68
0.7968,0.2032	-1840.07
0.8038,0.1962	-1820.49
0.9344,0.0656	-1777.15
0.9051,0.0949	-1778.31
0.8345,0.1655	-1827.40
0.7761,0.2239	-1846.21
0.7932,0.2068	-1841.36
0.8177,0.1823	-1836.30
0.9326,0.0674	-1782.41
0.9020,0.0980	-1785.21
0.8224,0.1776	-1824.21
0.7930,0.2070	-1845.38
0.7995,0.2005	-1827.67
0.8114,0.1886	-1840.51
0.9312,0.0688	-1790.19
0.9031,0.0969	-1789.62
0.8400,0.1600	-1830.85
0.8018,0.1982	-1824.81
0.8050,0.1950	-1827.51
0.8045,0.1955	-1826.11
0.9134,0.0866	-1784.84
0.8883,0.1117	-1808.81
0.8398,0.1602	-1827.53
0.7845,0.2155	-1824.45
0.7800,0.2200	-1836.17
0.8139,0.1861	-1834.72
0.8912,0.1088	-1783.71
0.8635,0.1365	-1799.29
0.8296,0.1704	-1828.91
0.7992,0.2008	-1827.68
0.8360,0.1640	-1814.40
0.8079,0.1921	-1841.81
0.8798,0.1202	-1794.63
0.8970,0.1030	-1787.62
0.8312,0.1688	-1808.22
0.8011,0.1989	-1844.34
0.7988,0.2012	-1841.49
0.8327,0.1673	-1822.55
0.8743,0.1257	-1808.49
0.8788,0.1212	-1812.50
0.8570,0.1430	-1819.39
0.7831,0.2169	-1841.24
0.8220,0.1780	-1836.46
0.7956,0.2044	-1830.53
0.8470,0.1530	-1815.82
0.8850,0.1150	-1808.69
0.8709,0.1291	-1816.11
0.7772,0.2228	-1859.98
0.8558,0.1442	-1833.60
0.8012,0.1988	-1841.56
0.8848,0.1152	-1778.11
0.8749,0.1251	-1810.44
0.8940,0.1060	-1798.43
0.7760,0.2240	-1838.76
0.8457,0.1543	-1826.04
0.8124,0.1876	-1822.96
0.8943,0.1057	-1811.24
0.8863,0.1137	-1804.63
0.8716,0.1284	-1814.22
0.7856,0.2144	-1829.56
0.8461,0.1539	-1832.88
0.8228,0.1772	-1808.86
0.9125,0.0875	-1773.14
0.8751,0.1249	-1798.76
0.8369,0.1631	-1838.90
0.7598,0.2402	-1849.56
0.8339,0.1661	-1835.46
0.8143,0.1857	-1822.90
0.9277,0.0723	-1769.56
0.8689,0.1311	-1812.26
0.8728,0.1272	-1806.55
0.7454,0.2546	-1834.50
0.8304,0.1696	-1832.10
0.7992,0.2008	-1835.97
0.9260,0.0740	-1792.41
0.8559,0.1441	-1814.02
0.8714,0.1286	-1802.73
0.7487,0.2513	-1851.70
0.8555,0.1445	-1812.24
0.7677,0.2323	-1848.51
0.9288,0.0712	-1777.19
0.8669,0.1331	-1817.85
0.8810,0.1190	-1802.58
0.7357,0.2643	-1839.43
0.8614,0.1386	-1810.38
0.7661,0.2339	-1834.24
0.9324,0.0676	-1792.89
0.8680,0.1320	-1819.78
0.8943,0.1057	-1798.43
0.7342,0.2658	-1849.69
0.8574,0.1426	-1808.63
0.7509,0.2491	-1839.58
0.9338,0.0662	-1785.09
0.8756,0.1244	-1804.59
0.8830,0.1170	-1790.44
0.7283,0.2717	-1849.84
0.8688,0.1312	-1816.03
0.7866,0.2134	-1846.48
0.9333,0.0667	-1792.98
0.8656,0.1344	-1825.26
0.8560,0.1440	-1803.32
0.7198,0.2802	-1852.01
0.8323,0.1677	-1828.96
0.7799,0.2201	-1841.23
0.9373,0.0627	-1785.28
0.8553,0.1447	-1814.02
0.8633,0.1367	-1795.62
0.7241,0.2759	-1848.04
0.7788,0.2212	-1834.94
0.7617,0.2383	-1848.43
0.9408,0.0592	-1768.94
0.8416,0.1584	-1834.27
0.8530,0.1470	-1821.06
0.7247,0.2753	-1853.82
0.7828,0.2172	-1830.98
0.7119,0.2881	-1863.12
0.9376,0.0624	-1774.46
0.8386,0.1614	-1820.91
0.8621,0.1379	-1819.54
0.7306,0.2694	-1855.76
0.7985,0.2015	-1845.61
0.7243,0.2757	-1847.06
0.9395,0.0605	-1774.46
0.8052,0.1948	-1827.51
0.8712,0.1288	-1808.47
0.7193,0.2807	-1858.61
0.8071,0.1929	-1836.05
0.7044,0.2956	-1845.63
0.9359,0.0641	-1795.93
0.8150,0.1850	-1840.67
0.8896,0.1104	-1800.52
0.7509,0.2491	-1844.00
0.8369,0.1631	-1820.91
0.7317,0.2683	-1851.75
0.9478,0.0522	-1774.64
0.8099,0.1901	-1834.65
0.8966,0.1034	-1822.20
0.7650,0.2350	-1847.28
0.8626,0.1374	-1817.72
0.7032,0.2968	-1861.26
0.9308,0.0692	-1771.97
0.8294,0.1706	-1828.90
0.8893,0.1107	-1798.44
0.7456,0.2544	-1847.38
0.8296,0.1704	-1808.33
0.6915,0.3085	-1858.91
0.9434,0.0566	-1777.32
0.8585,0.1415	-1803.20
0.8765,0.1235	-1806.55
0.7382,0.2618	-1849.62
0.8331,0.1669	-1811.30
0.7252,0.2748	-1849.93
0.9528,0.0472	-1768.90
0.8655,0.1345	-1804.77
0.8700,0.1300	-1798.96
0.7675,0.2325	-1835.36
0.8305,0.1695	-1840.05
0.7485,0.2515	-1847.34
0.9516,0.0484	-1768.87
0.8616,0.1384	-1837.80
0.8825,0.1175	-1812.66
0.7492,0.2508	-1856.08
0.8454,0.1546	-1814.14
0.7576,0.2424	-1844.98
0.9519,0.0481	-1771.86
0.8474,0.1526	-1820.96
0.8629,0.1371	-1797.49
0.7399,0.2601	-1859.00
0.8283,0.1717	-1838.32
0.7583,0.2417	-1844.97
0.9493,0.0507	-1760.05
0.8483,0.1517	-1807.20
0.8767,0.1233	-1806.55
0.7289,0.2711	-1858.72
0.8316,0.1684	-1836.93
0.7663,0.2337	-1838.98
0.9461,0.0539	-1768.85
0.8489,0.1511	-1824.43
0.8621,0.1379	-1803.04
0.6590,0.3410	-1858.40
0.8402,0.1598	-1809.29
0.7232,0.2768	-1855.76
0.9549,0.0451	-1768.96
0.8557,0.1443	-1828.26
0.8442,0.1558	-1829.37
0.7161,0.2839	-1860.45
0.8174,0.1826	-1828.80
0.7009,0.2991	-1859.56
0.9474,0.0526	-1774.62
0.8690,0.1310	-1804.69
0.8240,0.1760	-1811.85
0.6998,0.3002	-1857.03
0.8183,0.1817	-1833.31
0.7426,0.2574	-1847.44
0.9499,0.0501	-1757.08
0.8335,0.1665	-1828.99
0.7876,0.2124	-1842.58
0.6427,0.3573	-1860.37
0.8189,0.1811	-1843.89
0.7341,0.2659	-1845.63
0.9589,0.0411	-1769.14
0.8639,0.1361	-1815.90
0.8423,0.1577	-1814.21
0.6527,0.3473	-1871.52
0.7823,0.2177	-1854.03
0.7573,0.2427	-1850.68
0.9564,0.0436	-1772.10
0.8677,0.1323	-1799.07
0.8552,0.1448	-1819.35
0.6826,0.3174	-1853.84
0.8201,0.1799	-1837.90
0.7723,0.2277	-1835.16
0.9428,0.0572	-1766.09
0.8364,0.1636	-1837.23
0.8544,0.1456	-1821.10
0.6852,0.3148	-1858.33
0.8398,0.1602	-1822.56
0.7482,0.2518	-1849.52
0.9395,0.0605	-1779.95
0.8807,0.1193	-1812.58
0.8442,0.1558	-1824.30
0.6644,0.3356	-1868.25
0.8519,0.1481	-1815.79
0.7751,0.2249	-1844.96
0.9272,0.0728	-1759.41
0.8504,0.1496	-1840.12
0.8685,0.1315	-1814.14
0.7230,0.2770	-1854.80
0.8520,0.1480	-1819.29
0.7270,0.2730	-1851.83
0.9287,0.0713	-1795.17
0.8053,0.1947	-1817.57
0.8764,0.1236	-1808.51
0.7644,0.2356	-1854.34
0.8265,0.1735	-1822.61
0.6584,0.3416	-1862.39
0.9388,0.0612	-1766.27
0.7822,0.2178	-1827.17
0.8834,0.1166	-1812.70
0.7556,0.2444	-1851.78
0.7856,0.2144	-1834.76
0.6082,0.3918	-1871.52
0.9333,0.0667	-1785.07
0.7720,0.2280	-1844.93
0.8757,0.1243	-1798.74
0.7218,0.2782	-1845.28
0.7927,0.2073	-1830.62
0.6186,0.3814	-1875.38
0.9417,0.0583	-1766.13
0.7608,0.2392	-1839.16
0.8609,0.1391	-1821.32
0.7470,0.2530	-1843.03
0.8067,0.1933	-1836.04
0.6179,0.3821	-1875.87
0.9436,0.0564	-1754.79
0.7613,0.2387	-1847.26
0.8538,0.1462	-1822.85
0.7525,0.2475	-1841.73
0.8201,0.1799	-1827.29
0.6010,0.3990	-1869.06
0.9492,0.0508	-1760.06
0.7426,0.2574	-1851.68
0.8834,0.1166	-1798.52
0.7868,0.2132	-1846.48
0.8263,0.1737	-1827.29
0.6164,0.3836	-1868.75
0.9464,0.0536	-1760.23
0.6978,0.3022	-1866.29
0.8796,0.1204	-1796.62
0.7565,0.2435	-1850.67
0.8209,0.1791	-1819.67
0.5791,0.4209	-1876.06
0.9399,0.0601	-1768.97
0.7133,0.2867	-1853.12
0.8895,0.1105	-1777.58
0.7566,0.2434	-1835.92
0.8245,0.1755	-1833.47
0.5594,0.4406	-1877.52
0.9409,0.0591	-1752.33
0.7279,0.2721	-1852.80
0.8974,0.1026	-1781.10
0.7458,0.2542	-1844.15
0.8247,0.1753	-1839.67
0.5555,0.4445	-1883.82
0.9311,0.0689	-1766.75
0.7148,0.2852	-1858.59
0.8859,0.1141	-1812.82
0.7560,0.2440	-1837.09
0.8051,0.1949	-1843.11
0.5964,0.4036	-1873.39
0.9274,0.0726	-1782.31
0.7352,0.2648	-1849.67
0.8842,0.1158	-1808.67
0.7819,0.2181	-1837.40
0.8184,0.1816	-1839.34
0.6090,0.3910	-1870.59
0.9267,0.0733	-1762.01
0.7438,0.2562	-1846.35
0.8754,0.1246	-1810.45
0.7554,0.2446	-1838.25
0.8108,0.1892	-1823.02
0.6329,0.3671	-1868.37
0.9348,0.0652	-1763.83
0.7694,0.2306	-1830.46
0.8843,0.1157	-1802.57
0.7619,0.2381	-1841.45
0.8312,0.1688	-1840.09
0.6771,0.3229	-1857.94
0.9434,0.0566	-1777.32
0.8073,0.1927	-1821.72
0.9008,0.0992	-1794.09
0.7714,0.2286	-1848.58
0.8140,0.1860	-1830.29
0.6678,0.3322	-1860.57
0.9388,0.0612	-1774.46
0.8311,0.1689	-1817.78
0.9202,0.0798	-1787.22
0.7437,0.2563	-1842.09
0.8224,0.1776	-1815.02
0.6498,0.3502	-1860.38
0.9355,0.0645	-1766.46
0.8233,0.1767	-1839.59
0.9143,0.0857	-1782.46
0.6996,0.3004	-1863.80
0.8044,0.1956	-1810.56
0.6870,0.3130	-1868.48
0.9277,0.0723	-1784.87
0.7952,0.2048	-1830.54
0.9313,0.0687	-1782.38
0.7087,0.2913	-1857.72
0.8102,0.1898	-1854.97
0.7010,0.2990	-1862.96
0.9165,0.0835	-1803.96
0.8187,0.1813	-1824.28
0.9145,0.0855	-1789.56
0.7572,0.2428	-1838.17
0.8147,0.1853	-1814.00
0.7609,0.2391	-1841.48
0.9178,0.0822	-1808.91
0.7793,0.2207	-1839.97
0.9232,0.0768	-1777.33
0.7809,0.2191	-1850.13
0.8073,0.1927	-1827.45
0.7299,0.2701	-1861.72
0.9141,0.0859	-1782.46
0.7810,0.2190	-1834.87
0.9195,0.0805	-1789.65
0.7993,0.2007	-1841.50
0.7863,0.2137	-1829.54
0.7167,0.2833	-1854.88
0.9023,0.0977	-1811.87
0.7801,0.2199	-1846.30
0.9257,0.0743	-1789.87
0.7882,0.2118	-1824.20
0.8288,0.1712	-1824.16
0.7291,0.2709	-1855.76
0.9019,0.0981	-1807.39
0.7556,0.2444	-1837.11
0.9313,0.0687	-1779.77
0.8069,0.1931	-1834.61
0.8651,0.1349	-1804.78
0.7534,0.2466	-1845.05
0.8937,0.1063	-1798.42
0.7626,0.2374	-1850.77
0.9340,0.0660	-1771.85
0.7886,0.2114	-1842.60
0.8595,0.1405	-1806.77
0.7627,0.2373	-1832.09
0.8941,0.1059	-1809.09
0.7842,0.2158	-1833.50
0.9334,0.0666	-1769.23
0.8189,0.1811	-1821.25
0.8766,0.1234	-1786.95
0.7645,0.2355	-1834.33
0.8928,0.1072	-1800.54
0.7746,0.2254	-1842.48
0.9302,0.0698	-1779.76
0.7834,0.2166	-1864.38
0.8725,0.1275	-1806.55
0.7643,0.2357	-1850.81
0.8832,0.1168	-1804.60
0.7742,0.2258	-1835.09
0.9260,0.0740	-1782.30
0.7771,0.2229	-1831.24
0.8877,0.1123	-1802.59
0.8156,0.1844	-1834.75
0.8946,0.1054	-1789.87
0.7263,0.2737	-1851.85
0.9162,0.0838	-1791.98
0.8038,0.1962	-1830.36
0.8858,0.1142	-1823.06
0.8070,0.1930	-1826.03
0.8802,0.1198	-1794.61
0.7340,0.2660	-1865.94
0.9276,0.0724	-1769.56
0.7926,0.2074	-1821.23
0.8743,0.1257	-1785.21
0.8345,0.1655	-1829.02
0.8742,0.1258	-1806.55
0.7313,0.2687	-1854.76
0.9278,0.0722	-1795.09
0.8364,0.1636	-1812.76
0.9122,0.0878	-1801.25
0.8317,0.1683	-1820.96
0.8780,0.1220	-1796.69
0.7504,0.2496	-1841.81
0.9333,0.0667	-1774.51
0.7961,0.2039	-1829.16
0.9152,0.0848	-1772.92
0.8264,0.1736	-1819.49
0.8835,0.1165	-1792.44
0.7836,0.2164	-1838.67
0.9360,0.0640	-1774.47
0.8093,0.1907	-1833.19
0.9084,0.0916	-1782.67
0.8085,0.1915	-1834.63
0.8904,0.1096	-1811.00
0.8041,0.1959	-1828.95
0.9338,0.0662	-1785.09
0.8118,0.1882	-1827.37
0.9276,0.0724	-1792.52
0.8099,0.1901	-1820.16
0.8685,0.1315	-1802.81
0.8235,0.1765	-1818.04
0.9155,0.0845	-1789.57
0.8319,0.1681	-1838.55
0.9165,0.0835	-1791.98
0.8398,0.1602	-1814.28
0.9011,0.0989	-1794.09
0.8575,0.1425	-1815.81
0.9238,0.0762	-1799.77
0.8540,0.1460	-1815.79
0.9082,0.0918	-1778.10
0.8327,0.1673	-1840.21
0.9154,0.0846	-1780.05
0.8570,0.1430	-1842.66
0.9317,0.0683	-1798.06
0.8732,0.1268	-1802.69
0.9100,0.0900	-1773.35
0.8408,0.1592	-1817.58
0.9155,0.0845	-1780.04
0.8786,0.1214	-1806.56
0.9236,0.0764	-1792.28
0.8713,0.1287	-1806.56
0.9092,0.0908	-1791.85
0.8541,0.1459	-1808.72
0.9275,0.0725	-1772.12
0.8591,0.1409	-1801.36
0.9251,0.0749	-1767.22
0.8814,0.1186	-1798.57
0.9153,0.0847	-1796.71
0.8208,0.1792	-1818.15
0.9225,0.0775	-1794.70
0.8557,0.1443	-1801.56
0.9247,0.0753	-1779.79
0.8920,0.1080	-1804.76
0.9290,0.0710	-1777.19
0.8260,0.1740	-1821.06
0.9019,0.0981	-1805.18
0.8531,0.1469	-1838.66
0.9181,0.0819	-1789.62
0.9209,0.0791	-1782.32
0.9292,0.0708	-1777.19
0.7936,0.2064	-1842.71
0.9163,0.0837	-1782.41
0.8670,0.1330	-1799.11
0.9291,0.0709	-1790.05
0.9089,0.0911	-1784.95
0.9439,0.0561	-1757.58
0.7636,0.2364	-1848.45
0.9179,0.0821	-1792.03
0.8217,0.1783	-1841.03
0.9312,0.0688	-1777.16
0.9053,0.0947	-1798.62
0.9441,0.0559	-1768.87
0.7877,0.2123	-1838.65
0.9126,0.0874	-1782.51
0.7879,0.2121	-1841.27
0.9395,0.0605	-1774.46
0.8986,0.1014	-1785.37
0.9442,0.0558	-1763.21
0.7902,0.2098	-1833.35
0.9271,0.0729	-1797.57
0.7889,0.2111	-1832.06
0.9409,0.0591	-1774.47
0.9013,0.0987	-1791.88
0.9395,0.0605	-1774.46
0.8159,0.1841	-1839.22
0.9195,0.0805	-1784.78
0.7883,0.2117	-1830.76
0.9325,0.0675	-1782.40
0.8990,0.1010	-1794.10
0.9429,0.0571	-1763.29
0.8189,0.1811	-1818.24
0.9033,0.0967	-1791.85
0.8200,0.1800	-1821.22
0.9284,0.0716	-1774.64
0.9079,0.0921	-1791.85
0.9368,0.0632	-1771.77
0.8141,0.1859	-1831.77
0.9159,0.0841	-1784.80
0.8133,0.1867	-1819.99
0.9302,0.0698	-1774.58
0.8942,0.1058	-1787.75
0.9488,0.0512	-1765.92
0.8025,0.1975	-1831.79
0.9147,0.0853	-1775.33
0.7859,0.2141	-1837.35
0.9176,0.0824	-1789.61
0.8893,0.1107	-1788.02
0.9442,0.0558	-1777.35
0.7858,0.2142	-1829.56
0.9170,0.0830	-1796.80
0.7989,0.2011	-1827.69
0.9454,0.0546	-1783.11
0.9215,0.0785	-1782.32
0.9519,0.0481	-1768.88
0.8141,0.1859	-1834.72
0.9289,0.0711	-1784.90
0.7932,0.2068	-1841.36
0.9512,0.0488	-1771.84
0.9312,0.0688	-1766.74
0.9533,0.0467	-1774.94
0.8067,0.1933	-1838.90
0.9408,0.0592	-1766.18
0.8278,0.1722	-1827.30
0.9519,0.0481	-1759.93
0.9250,0.0750	-1794.86
0.9552,0.0448	-1765.91
0.8251,0.1749	-1822.63
0.9521,0.0479	-1765.89
0.8134,0.1866	-1824.40
0.9598,0.0402	-1762.86
0.9280,0.0720	-1779.76
0.9527,0.0473	-1762.89
0.8415,0.1585	-1817.57
0.9522,0.0478	-1771.88
0.8187,0.1813	-1831.81
0.9631,0.0369	-1759.68
0.9282,0.0718	-1779.76
0.9429,0.0571	-1768.89
0.8596,0.1404	-1815.83
0.9476,0.0524	-1760.16
0.8023,0.1977	-1820.58
0.9654,0.0346	-1749.73
0.9291,0.0709	-1774.62
0.9470,0.0530	-1774.61
0.8531,0.1469	-1801.71
0.9559,0.0441	-1756.69
0.8188,0.1812	-1833.32
0.9641,0.0359	-1756.40
0.9277,0.0723	-1779.76
0.9408,0.0592	-1782.77
0.8438,0.1562	-1812.49
0.9527,0.0473	-1759.89
0.8438,0.1562	-1812.49
0.9489,0.0511	-1765.92
0.9216,0.0784	-1792.17
0.9416,0.0584	-1777.26
0.8567,0.1433	-1805.07
0.9506,0.0494	-1768.86
0.8048,0.1952	-1841.68
0.9623,0.0377	-1743.48
0.9233,0.0767	-1792.26
0.9433,0.0567	-1771.70
0.8531,0.1469	-1796.44
0.9451,0.0549	-1771.70
0.7871,0.2129	-1833.42
0.9684,0.0316	-1746.12
0.9404,0.0596	-1774.47
0.9346,0.0654	-1790.45
0.8837,0.1163	-1804.60
0.9400,0.0600	-1774.47
0.7910,0.2090	-1849.30
0.9677,0.0323	-1759.78
0.9380,0.0620	-1771.75
0.9327,0.0673	-1774.52
0.8804,0.1196	-1790.61
0.9380,0.0620	-1766.31
0.7769,0.2231	-1843.73
0.9627,0.0373	-1743.42
0.9341,0.0659	-1769.20
0.9297,0.0703	-1774.60
0.8832,0.1168	-1822.81
0.9278,0.0722	-1777.21
0.7541,0.2459	-1848.40
0.9605,0.0395	-1791.58
0.9577,0.0423	-1756.60
0.9386,0.0614	-1777.19
0.8787,0.1213	-1812.50
0.9394,0.0606	-1768.98
0.7372,0.2628	-1845.51
0.9536,0.0464	-1771.94
0.9517,0.0483	-1756.95
0.9310,0.0690	-1784.97
0.8840,0.1160	-1790.39
0.9389,0.0611	-1763.53
0.7237,0.2763	-1847.09
0.9611,0.0389	-1778.92
0.9520,0.0480	-1759.92
0.9457,0.0543	-1757.42
0.9160,0.0840	-1796.75
0.9173,0.0827	-1794.41
0.7178,0.2822	-1852.06
0.9526,0.0474	-1750.89
0.9448,0.0552	-1766.02
0.9462,0.0538	-1757.38
0.9225,0.0775	-1774.88
0.9094,0.0906	-1784.94
0.7685,0.2315	-1834.12
0.9564,0.0436	-1759.75
0.9417,0.0583	-1763.35
0.9448,0.0552	-1763.18
0.9408,0.0592	-1768.94
0.9191,0.0809	-1770.20
0.7710,0.2290	-1841.29
0.9548,0.0452	-1747.61
0.9441,0.0559	-1768.87
0.9619,0.0381	-1756.45
0.9263,0.0737	-1782.31
0.9150,0.0850	-1782.44
0.7699,0.2301	-1837.68
0.9590,0.0410	-1753.39
0.9416,0.0584	-1771.70
0.9603,0.0397	-1772.42
0.9383,0.0617	-1782.63
0.9173,0.0827	-1784.79
0.7576,0.2424	-1847.26
0.9636,0.0364	-1749.86
0.9458,0.0542	-1765.99
0.9536,0.0464	-1753.80
0.9201,0.0799	-1787.22
0.8895,0.1105	-1802.61
0.7696,0.2304	-1841.30
0.9574,0.0426	-1769.06
0.9448,0.0552	-1774.54
0.9566,0.0434	-1769.03
0.9127,0.0873	-1789.55
0.8815,0.1185	-1802.58
0.7063,0.2937	-1860.39
0.9440,0.0560	-1766.05
0.9546,0.0454	-1759.81
0.9574,0.0426	-1765.95
0.9237,0.0763	-1774.82
0.8726,0.1274	-1802.70
0.7498,0.2502	-1844.03
0.9545,0.0455	-1753.73
0.9574,0.0426	-1765.95
0.9602,0.0398	-1750.13
0.9363,0.0637	-1769.10
0.8862,0.1138	-1814.89
0.7888,0.2112	-1830.74
0.9531,0.0469	-1765.89
0.9527,0.0473	-1762.89
0.9647,0.0353	-1746.47
0.9121,0.0879	-1782.53
0.9152,0.0848	-1775.30
0.8071,0.1929	-1824.60
0.9506,0.0494	-1759.99
0.9571,0.0429	-1784.57
0.9669,0.0331	-1773.26
0.9224,0.0776	-1774.89
0.9077,0.0923	-1791.84
0.7753,0.2247	-1831.34
0.9389,0.0611	-1793.59
0.9634,0.0366	-1762.95
0.9664,0.0336	-1739.58
0.9140,0.0860	-1784.83
0.9246,0.0754	-1774.78
0.7676,0.2324	-1850.89
0.9340,0.0660	-1774.50
0.9691,0.0309	-1752.95
0.9661,0.0339	-1753.03
0.9163,0.0837	-1777.62
0.9148,0.0852	-1791.94
0.7921,0.2079	-1827.96
0.9440,0.0560	-1774.52
0.9646,0.0354	-1753.08
0.9700,0.0300	-1739.03
0.9188,0.0812	-1804.19
0.9247,0.0753	-1774.78
0.7931,0.2069	-1829.26
0.9507,0.0493	-1780.69
0.9752,0.0248	-1749.33
0.9726,0.0274	-1745.81
0.9104,0.0896	-1789.55
0.9190,0.0810	-1804.21
0.7455,0.2545	-1847.38
0.9495,0.0505	-1762.98
0.9717,0.0283	-1752.94
0.9762,0.0238	-1753.03
0.9082,0.0918	-1803.30
0.9271,0.0729	-1782.31
0.7686,0.2314	-1855.72
0.9587,0.0413	-1759.70
0.9769,0.0231	-1749.32
0.9781,0.0219	-1741.74
0.8993,0.1007	-1787.53
0.9322,0.0678	-1764.05
0.7660,0.2340	-1848.48
0.9593,0.0407	-1766.01
0.9737,0.0263	-1756.57
0.9765,0.0235	-1749.32
0.8998,0.1002	-1809.46
0.9422,0.0578	-1768.91
0.7618,0.2382	-1855.40
0.9546,0.0454	-1784.17
0.9666,0.0334	-1756.38
0.9775,0.0225	-1741.79
0.9135,0.0865	-1791.91
0.9528,0.0472	-1774.91
0.7782,0.2218	-1842.49
0.9578,0.0422	-1765.96
0.9712,0.0288	-1742.38
0.9774,0.0226	-1760.63
0.9246,0.0754	-1777.29
0.9471,0.0529	-1774.61
0.7810,0.2190	-1846.32
0.9615,0.0385	-1769.33
0.9777,0.0223	-1745.55
0.9818,0.0182	-1749.50
0.9186,0.0814	-1782.36
0.9453,0.0547	-1783.10
0.7623,0.2377	-1850.76
0.9520,0.0480	-1762.91
0.9789,0.0211	-1741.69
0.9818,0.0182	-1737.54
0.9221,0.0779	-1787.26
0.9323,0.0677	-1779.78
0.7549,0.2451	-1848.40
0.9563,0.0437	-1744.33
0.9838,0.0162	-1749.67
0.9821,0.0179	-1741.51
0.9126,0.0874	-1789.55
0.9419,0.0581	-1774.48
0.7761,0.2239	-1827.57
0.9588,0.0412	-1753.40
0.9840,0.0160	-1733.21
0.9819,0.0181	-1741.52
0.9183,0.0817	-1799.30
0.9203,0.0797	-1789.67
0.7719,0.2281	-1853.47
0.9523,0.0477	-1765.89
0.9814,0.0186	-1737.57
0.9793,0.0207	-1753.23
0.9221,0.0779	-1765.01
0.9314,0.0686	-1766.73
0.7605,0.2395	-1833.40
0.9587,0.0413	-1762.85
0.9864,0.0136	-1737.15
0.9769,0.0231	-1749.33
0.9255,0.0745	-1797.42
0.9284,0.0716	-1774.64
0.7525,0.2475	-1841.73
0.9622,0.0378	-1753.20
0.9885,0.0115	-1754.87
0.9763,0.0237	-1741.88
0.9231,0.0769	-1777.33
0.9340,0.0660	-1771.85
0.7515,0.2485	-1837.34
0.9722,0.0278	-1745.83
0.9890,0.0110	-1750.54
0.9799,0.0201	-1745.51
0.9104,0.0896	-1773.32
0.9212,0.0788	-1777.40
0.7713,0.2287	-1848.58
0.9635,0.0365	-1766.23
0.9864,0.0136	-1762.84
0.9770,0.0230	-1753.08
0.8754,0.1246	-1794.85
0.9180,0.0820	-1779.95
0.7447,0.2553	-1845.26
0.9639,0.0361	-1776.11
0.9859,0.0141	-1737.19
0.9807,0.0193	-1733.72
0.8737,0.1263	-1804.61
0.9227,0.0773	-1777.35
0.7563,0.2437	-1849.53
0.9654,0.0346	-1753.05
0.9830,0.0170	-1741.48
0.9819,0.0181	-1741.52
0.8660,0.1340	-1821.55
0.8901,0.1099	-1779.61
0.7561,0.2439	-1849.53
0.9658,0.0342	-1763.06
0.9841,0.0159	-1737.32
0.9809,0.0191	-1733.68
0.8644,0.1356	-1802.95
0.8848,0.1152	-1796.46
0.7628,0.2372	-1836.76
0.9615,0.0385	-1766.11
0.9854,0.0146	-1745.64
0.9827,0.0173	-1733.40
0.8758,0.1242	-1814.36
0.8763,0.1237	-1804.59
0.7121,0.2879	-1853.16
0.9560,0.0440	-1759.77
0.9865,0.0135	-1728.55
0.9861,0.0139	-1741.43
0.9000,0.1000	-1785.30
0.8402,0.1598	-1815.93
0.7374,0.2626	-1850.66
0.9621,0.0379	-1756.44
0.9894,0.0106	-1746.10
0.9824,0.0176	-1745.52
0.8904,0.1096	-1785.86
0.8550,0.1450	-1808.70
0.7383,0.2617	-1839.25
0.9637,0.0363	-1749.85
0.9894,0.0106	-1746.09
0.9813,0.0187	-1741.55
0.8818,0.1182	-1808.61
0.8589,0.1411	-1806.79
0.7788,0.2212	-1850.04
0.9589,0.0411	-1756.55
0.9918,0.0082	-1727.46
0.9781,0.0219	-1749.34
0.8693,0.1307	-1816.05
0.8741,0.1259	-1810.42
0.7947,0.2053	-1831.91
0.9653,0.0347	-1763.03
0.9904,0.0096	-1737.01
0.9722,0.0278	-1763.60
0.8890,0.1110	-1815.09
0.8729,0.1271	-1810.40
0.7841,0.2159	-1839.95
0.9578,0.0422	-1759.72
0.9892,0.0108	-1737.03
0.9666,0.0334	-1759.74
0.9022,0.0978	-1771.87
0.8927,0.1073	-1806.90
0.7877,0.2123	-1829.47
0.9632,0.0368	-1762.94
0.9892,0.0108	-1727.99
0.9602,0.0398	-1759.68
0.8711,0.1289	-1806.56
0.8953,0.1047	-1807.02
0.8172,0.1828	-1815.32
0.9721,0.0279	-1745.84
0.9889,0.0111	-1741.53
0.9586,0.0414	-1765.99
0.8637,0.1363	-1834.37
0.8738,0.1262	-1812.35
0.7811,0.2189	-1842.50
0.9725,0.0275	-1742.24
0.9899,0.0101	-1727.84
0.9561,0.0439	-1759.76
0.8506,0.1494	-1815.79
0.8782,0.1218	-1802.61
0.7908,0.2092	-1830.68
0.9752,0.0248	-1753.00
0.9876,0.0124	-1745.84
0.9624,0.0376	-1756.43
0.8476,0.1524	-1810.67
0.8593,0.1407	-1814.02
0.7931,0.2069	-1834.64
0.9764,0.0236	-1741.88
0.9878,0.0122	-1732.68
0.9567,0.0433	-1762.84
0.8168,0.1832	-1830.29
0.8514,0.1486	-1819.28
0.7966,0.2034	-1835.97
0.9790,0.0210	-1749.36
0.9907,0.0093	-1737.01
0.9574,0.0426	-1753.50
0.8025,0.1975	-1821.97
0.8330,0.1670	-1814.52
0.7940,0.2060	-1848.12
0.9804,0.0196	-1737.68
0.9912,0.0088	-1732.30
0.9612,0.0388	-1756.46
0.7810,0.2190	-1851.40
0.8455,0.1545	-1819.24
0.7974,0.2026	-1822.27
0.9770,0.0230	-1741.83
0.9928,0.0072	-1727.24
0.9540,0.0460	-1756.80
0.7647,0.2353	-1853.18
0.8488,0.1512	-1817.53
0.8096,0.1904	-1850.56
0.9781,0.0219	-1753.14
0.9927,0.0073	-1727.25
0.9572,0.0428	-1765.95
0.7524,0.2476	-1851.74
0.8633,0.1367	-1814.05
0.8312,0.1688	-1822.56
0.9758,0.0242	-1760.42
0.9927,0.0073	-1727.26
0.9561,0.0439	-1772.09
0.7516,0.2484	-1838.44
0.8554,0.1446	-1799.80
0.8248,0.1752	-1827.29
0.9817,0.0183	-1749.49
0.9921,0.0079	-1737.05
0.9507,0.0493	-1768.86
0.7508,0.2492	-1837.38
0.8698,0.1302	-1814.17
0.8276,0.1724	-1819.46
0.9792,0.0208	-1749.37
0.9912,0.0088	-1737.02
0.9402,0.0598	-1788.24
0.7514,0.2486	-1852.83
0.8774,0.1226	-1806.55
0.8314,0.1686	-1822.56
0.9788,0.0212	-1753.19
0.9881,0.0119	-1737.06
0.9560,0.0440	-1784.39
0.7564,0.2436	-1843.87
0.8808,0.1192	-1826.59
0.8063,0.1937	-1831.76
0.9793,0.0207	-1749.37
0.9890,0.0110	-1746.03
0.9556,0.0444	-1759.78
0.7081,0.2919	-1857.73
0.8804,0.1196	-1808.57
0.7824,0.2176	-1836.12
0.9825,0.0175	-1753.58
0.9894,0.0106	-1732.49
0.9588,0.0412	-1765.99
0.6817,0.3183	-1863.04
0.8666,0.1334	-1804.74
0.7827,0.2173	-1836.11
0.9803,0.0197	-1749.41
0.9913,0.0087	-1737.02
0.9585,0.0415	-1762.84
0.6734,0.3266	-1872.61
0.8685,0.1315	-1817.92
0.8103,0.1897	-1830.30
0.9795,0.0205	-1741.65
0.9895,0.0105	-1737.02
0.9487,0.0513	-1765.92
0.6750,0.3250	-1860.24
0.8473,0.1527	-1822.67
0.8162,0.1838	-1821.35
0.9803,0.0197	-1749.41
0.9892,0.0108	-1732.51
0.9526,0.0474	-1777.89
0.7442,0.2558	-1846.34
0.8539,0.1461	-1810.49
0.8284,0.1716	-1821.01
0.9775,0.0225	-1745.56
0.9863,0.0137	-1737.16
0.9518,0.0482	-1756.95
0.7458,0.2542	-1842.00
0.8222,0.1778	-1813.50
0.8164,0.1836	-1821.34
0.9799,0.0201	-1757.17
0.9871,0.0129	-1737.11
0.9538,0.0462	-1762.87
0.7011,0.2989	-1859.55
0.7716,0.2284	-1831.54
0.8164,0.1836	-1833.28
0.9806,0.0194	-1745.50
0.9888,0.0112	-1741.52
0.9366,0.0634	-1774.47
0.6682,0.3318	-1864.75
0.8005,0.1995	-1840.15
0.7989,0.2011	-1837.35
0.9793,0.0207	-1753.23
0.9898,0.0102	-1746.17
0.9331,0.0669	-1763.97
0.7033,0.2967	-1857.81
0.8314,0.1686	-1844.90
0.8011,0.1989	-1838.77
0.9803,0.0197	-1745.51
0.9901,0.0099	-1737.01
0.9451,0.0549	-1777.40
0.7143,0.2857	-1850.34
0.8342,0.1658	-1824.16
0.8076,0.1924	-1824.58
0.9817,0.0183	-1745.51
0.9910,0.0090	-1737.02
0.9434,0.0566	-1763.25
0.7135,0.2865	-1857.68
0.8092,0.1908	-1814.41
0.8139,0.1861	-1843.57
0.9822,0.0178	-1753.54
0.9916,0.0084	-1727.49
0.9441,0.0559	-1774.52
0.7412,0.2588	-1843.26
0.8133,0.1867	-1831.76
0.8157,0.1843	-1813.93
0.9812,0.0188	-1741.55
0.9915,0.0085	-1727.50
0.9413,0.0587	-1774.48
0.7260,0.2740	-1859.65
0.7937,0.2063	-1838.67
0.8055,0.1945	-1840.29
0.9784,0.0216	-1749.35
0.9926,0.0074	-1741.98
0.9396,0.0604	-1760.74
0.7281,0.2719	-1850.83
0.7579,0.2421	-1834.71
0.8195,0.1805	-1824.26
0.9767,0.0233	-1760.53
0.9902,0.0098	-1732.39
0.9441,0.0559	-1774.52
0.7873,0.2127	-1838.65
0.7487,0.2513	-1841.87
0.8262,0.1738	-1824.17
0.9804,0.0196	-1753.33
0.9913,0.0087	-1727.56
0.9435,0.0565	-1768.88
0.7734,0.2266	-1846.17
0.7099,0.2901	-1851.45
0.8626,0.1374	-1810.37
0.9820,0.0180	-1749.51
0.9885,0.0115	-1745.95
0.9398,0.0602	-1779.96
0.7860,0.2140	-1829.55
0.7617,0.2383	-1843.78
0.8796,0.1204	-1794.64
0.9828,0.0172	-1745.53
0.9877,0.0123	-1732.70
0.9245,0.0755	-1779.80
0.8219,0.1781	-1819.63
0.7359,0.2641	-1843.51
0.8439,0.1561	-1819.23
0.9847,0.0153	-1733.11
0.9880,0.0120	-1741.48
0.9363,0.0637	-1782.53
0.8169,0.1831	-1830.30
0.7678,0.2322	-1840.14
0.8501,0.1499	-1812.32
0.9857,0.0143	-1745.66
0.9886,0.0114	-1741.50
0.9238,0.0762	-1787.29
0.7880,0.2120	-1838.65
0.7636,0.2364	-1847.27
0.8407,0.1593	-1827.56
0.9882,0.0118	-1745.92
0.9878,0.0122	-1732.68
0.9140,0.0860	-1784.83
0.7991,0.2009	-1842.88
0.7191,0.2809	-1852.03
0.8237,0.1763	-1818.03
0.9872,0.0128	-1732.76
0.9884,0.0116	-1728.17
0.9214,0.0786	-1789.70
0.7845,0.2155	-1842.54
0.7305,0.2695	-1846.79
0.7916,0.2084	-1844.00
0.9868,0.0132	-1750.07
0.9909,0.0091	-1732.33
0.9271,0.0729	-1774.68
0.7852,0.2148	-1834.77
0.7259,0.2741	-1857.70
0.8159,0.1841	-1822.85
0.9854,0.0146	-1741.43
0.9928,0.0072	-1737.09
0.9215,0.0785	-1789.71
0.7488,0.2512	-1848.42
0.7112,0.2888	-1862.20
0.8196,0.1804	-1825.77
0.9845,0.0155	-1741.44
0.9925,0.0075	-1732.19
0.9120,0.0880	-1784.87
0.7703,0.2297	-1830.41
0.7729,0.2271	-1842.49
0.8436,0.1564	-1825.98
0.9848,0.0152	-1737.26
0.9928,0.0072	-1737.09
0.9144,0.0856	-1784.82
0.7652,0.2348	-1839.02
0.7969,0.2031	-1838.70
0.8300,0.1700	-1813.06
0.9855,0.0145	-1737.21
0.9935,0.0065	-1727.08
0.9063,0.0937	-1778.23
0.7777,0.2223	-1853.76
0.8551,0.1449	-1821.12
0.8204,0.1796	-1850.07
0.9862,0.0138	-1732.90
0.9929,0.0071	-1742.04
0.8914,0.1086	-1817.37
0.7901,0.2099	-1824.07
0.8545,0.1455	-1806.94
0.8057,0.1943	-1823.23
0.9857,0.0143	-1737.20
0.9920,0.0080	-1737.05
0.9060,0.0940	-1794.11
0.7843,0.2157	-1836.08
0.8711,0.1289	-1823.76
0.8135,0.1865	-1830.29
0.9866,0.0134	-1750.03
0.9931,0.0069	-1727.18
0.9010,0.0990	-1798.51
0.7894,0.2106	-1837.33
0.8731,0.1269	-1802.69
0.8073,0.1927	-1830.32
0.9881,0.0119	-1737.06
0.9945,0.0055	-1726.89
0.8871,0.1129	-1814.95
0.7509,0.2491	-1847.31
0.8915,0.1085	-1794.21
0.8191,0.1809	-1824.27
0.9876,0.0124	-1741.46
0.9940,0.0060	-1737.20
0.9092,0.0908	-1801.07
0.7112,0.2888	-1847.79
0.8911,0.1089	-1798.43
0.8553,0.1447	-1824.68
0.9879,0.0121	-1732.67
0.9937,0.0063	-1737.17
0.8892,0.1108	-1810.94
0.6831,0.3169	-1869.93
0.8962,0.1038	-1804.90
0.8767,0.1233	-1798.70
0.9894,0.0106	-1727.96
0.9937,0.0063	-1742.22
0.8861,0.1139	-1806.68
0.6851,0.3149	-1864.55
0.8748,0.1252	-1808.49
0.8606,0.1394	-1806.74
0.9905,0.0095	-1741.66
0.9940,0.0060	-1732.10
0.8739,0.1261	-1804.61
0.6491,0.3509	-1865.36
0.8612,0.1388	-1817.68
0.8414,0.1586	-1827.58
0.9906,0.0094	-1732.36
0.9939,0.0061	-1737.19
0.8402,0.1598	-1814.27
0.6534,0.3466	-1863.28
0.8818,0.1182	-1814.63
0.8442,0.1558	-1827.68
0.9904,0.0096	-1737.01
0.9928,0.0072	-1732.17
0.8168,0.1832	-1819.83
0.6042,0.3958	-1876.39
0.8882,0.1118	-1823.32
0.8142,0.1858	-1836.20
0.9931,0.0069	-1737.11
0.9922,0.0078	-1737.05
0.8066,0.1934	-1820.33
0.6098,0.3902	-1871.89
0.8768,0.1232	-1822.25
0.7912,0.2088	-1850.65
0.9914,0.0086	-1732.28
0.9919,0.0081	-1741.84
0.8086,0.1914	-1833.19
0.6170,0.3830	-1874.91
0.8855,0.1145	-1812.81
0.7942,0.2058	-1831.92
0.9907,0.0093	-1746.35
0.9919,0.0081	-1732.23
0.8221,0.1779	-1807.38
0.5898,0.4102	-1873.04
0.8601,0.1399	-1806.76
0.8035,0.1965	-1826.15
0.9890,0.0110	-1737.03
0.9916,0.0084	-1732.26
0.8286,0.1714	-1828.89
0.5665,0.4335	-1881.61
0.8689,0.1311	-1797.13
0.8201,0.1799	-1815.15
0.9875,0.0125	-1737.09
0.9901,0.0099	-1732.41
0.8431,0.1569	-1815.87
0.5938,0.4062	-1874.29
0.8752,0.1248	-1792.91
0.8311,0.1689	-1819.38
0.9837,0.0163	-1753.75
0.9922,0.0078	-1746.76
0.8592,0.1408	-1815.83
0.5997,0.4003	-1873.63
0.8486,0.1514	-1820.98
0.8239,0.1761	-1811.85
0.9775,0.0225	-1738.01
0.9917,0.0083	-1732.25
0.8715,0.1285	-1795.07
0.6928,0.3072	-1867.82
0.8670,0.1330	-1814.11
0.8272,0.1728	-1811.64
0.9752,0.0248	-1738.31
0.9938,0.0062	-1742.26
0.8751,0.1249	-1808.49
0.7084,0.2916	-1850.63
0.8920,0.1080	-1808.98
0.8114,0.1886	-1824.46
0.9724,0.0276	-1752.94
0.9946,0.0054	-1726.86
0.8807,0.1193	-1796.59
0.6865,0.3135	-1857.49
0.8893,0.1107	-1796.35
0.7840,0.2160	-1836.09
0.9726,0.0274	-1749.37
0.9939,0.0061	-1747.39
0.8924,0.1076	-1792.08
0.6803,0.3197	-1855.51
0.8932,0.1068	-1804.80
0.7542,0.2458	-1849.52
0.9722,0.0278	-1760.05
0.9948,0.0052	-1726.82
0.8802,0.1198	-1794.61
0.6490,0.3510	-1865.98
0.9097,0.0903	-1784.93
0.7521,0.2479	-1852.84
0.9755,0.0245	-1756.69
0.9949,0.0051	-1737.35
0.8513,0.1487	-1838.47
0.6590,0.3410	-1866.97
0.9017,0.0983	-1800.74
0.7465,0.2535	-1849.53
0.9719,0.0281	-1767.11
0.9952,0.0048	-1732.07
0.8423,0.1577	-1812.54
0.6568,0.3432	-1873.50
0.9054,0.0946	-1807.66
0.7412,0.2588	-1852.73
0.9700,0.0300	-1756.42
0.9954,0.0046	-1742.83
0.8580,0.1420	-1835.60
0.6936,0.3064	-1859.67
0.9159,0.0841	-1787.19
0.7196,0.2804	-1852.95
0.9614,0.0386	-1759.67
0.9959,0.0041	-1726.58
0.8722,0.1278	-1821.92
0.6818,0.3182	-1852.37
0.9034,0.0966	-1805.27
0.7251,0.2749	-1853.81
0.9549,0.0451	-1759.80
0.9956,0.0044	-1726.66
0.8785,0.1215	-1790.73
0.6754,0.3246	-1863.89
0.9177,0.0823	-1782.38
0.7301,0.2699	-1849.79
0.9540,0.0460	-1778.02
0.9959,0.0041	-1732.08
0.8901,0.1099	-1779.60
0.6504,0.3496	-1865.93
0.9150,0.0850	-1791.94
0.7651,0.2349	-1844.92
0.9571,0.0429	-1765.94
0.9949,0.0051	-1732.07
0.8611,0.1389	-1804.91
0.6279,0.3721	-1863.37
0.8957,0.1043	-1804.89
0.7803,0.2197	-1856.44
0.9579,0.0421	-1765.97
0.9946,0.0054	-1726.86
0.8443,0.1557	-1815.85
0.6162,0.3838	-1873.50
0.8770,0.1230	-1812.44
0.7360,0.2640	-1846.58
0.9629,0.0371	-1772.70
0.9940,0.0060	-1732.10
0.8607,0.1393	-1810.38
0.6353,0.3647	-1872.71
0.8857,0.1143	-1782.10
0.7525,0.2475	-1849.51
0.9562,0.0438	-1762.84
0.9924,0.0076	-1727.32
0.8571,0.1429	-1822.97
0.6234,0.3766	-1870.85
0.8979,0.1021	-1802.80
0.7541,0.2459	-1837.19
0.9499,0.0501	-1760.02
0.9941,0.0059	-1732.09
0.8643,0.1357	-1823.32
0.6240,0.3760	-1867.78
0.8903,0.1097	-1808.90
0.7742,0.2258	-1841.25
0.9618,0.0382	-1759.67
0.9945,0.0055	-1737.27
0.8445,0.1555	-1800.62
0.6115,0.3885	-1874.98
0.8525,0.1475	-1821.05
0.7373,0.2627	-1852.73
0.9648,0.0352	-1766.32
0.9951,0.0049	-1726.75
0.8458,0.1542	-1819.24
0.6101,0.3899	-1875.00
0.8486,0.1514	-1829.59
0.7423,0.2577	-1843.21
0.9702,0.0298	-1739.01
0.9956,0.0044	-1737.49
0.8750,0.1250	-1812.38
0.6229,0.3771	-1873.37
0.8659,0.1341	-1825.28
0.7039,0.2961	-1871.65
0.9755,0.0245	-1734.59
0.9950,0.0050	-1726.78
0.8626,0.1374	-1815.88
0.6117,0.3883	-1874.98
0.8505,0.1495	-1808.84
0.7117,0.2883	-1859.50
0.9705,0.0295	-1770.40
0.9952,0.0048	-1732.07
0.8629,0.1371	-1825.08
0.6708,0.3292	-1859.71
0.8412,0.1588	-1810.91
0.7546,0.2454	-1850.64
0.9706,0.0294	-1756.43
0.9946,0.0054	-1726.85
0.8494,0.1506	-1807.15
0.6677,0.3323	-1871.04
0.8459,0.1541	-1815.83
0.8322,0.1678	-1833.76
0.9716,0.0284	-1752.94
0.9950,0.0050	-1737.35
0.8500,0.1500	-1824.47
0.6946,0.3054	-1863.76
0.8580,0.1420	-1806.82
0.8628,0.1372	-1808.53
0.9765,0.0235	-1738.14
0.9948,0.0052	-1742.59
0.8397,0.1603	-1815.94
0.6863,0.3137	-1862.20
0.8319,0.1681	-1833.75
0.8542,0.1458	-1798.11
0.9784,0.0216	-1745.53
0.9954,0.0046	-1726.69
0.8572,0.1428	-1805.05
0.6768,0.3232	-1851.30
0.8324,0.1676	-1838.58
0.8799,0.1201	-1814.54
0.9823,0.0177	-1749.53
0.9955,0.0045	-1737.47
0.8602,0.1398	-1823.11
0.6569,0.3431	-1868.96
0.8219,0.1781	-1837.98
0.8611,0.1389	-1801.26
0.9842,0.0158	-1741.44
0.9961,0.0039	-1726.55
0.8526,0.1474	-1799.99
0.7198,0.2802	-1852.95
0.8377,0.1623	-1834.04
0.8579,0.1421	-1796.03
0.9848,0.0152	-1728.91
0.9955,0.0045	-1732.07
0.8482,0.1518	-1824.41
0.7540,0.2460	-1852.88
0.8392,0.1608	-1827.52
0.8695,0.1305	-1806.58
0.9854,0.0146	-1741.43
0.9960,0.0040	-1732.09
0.8433,0.1567	-1822.60
0.7767,0.2233	-1832.51
0.8142,0.1858	-1833.24
0.8466,0.1534	-1824.36
0.9833,0.0167	-1729.23
0.9945,0.0055	-1732.08
0.8393,0.1607	-1824.21
0.7889,0.2111	-1822.83
0.8047,0.1953	-1834.60
0.8608,0.1392	-1812.21
0.9825,0.0175	-1753.57
0.9948,0.0052	-1726.81
0.8309,0.1691	-1819.38
0.7898,0.2102	-1830.71
0.8396,0.1604	-1832.49
0.8535,0.1465	-1815.79
0.9848,0.0152	-1741.44
0.9943,0.0057	-1732.09
0.8255,0.1745	-1827.29
0.8015,0.1985	-1816.45
0.8659,0.1341	-1817.82
0.8380,0.1620	-1824.20
0.9822,0.0178	-1745.52
0.9934,0.0066	-1737.14
0.7928,0.2072	-1834.64
0.8352,0.1648	-1822.55
0.8335,0.1665	-1817.72
0.8228,0.1772	-1819.60
0.9821,0.0179	-1749.52
0.9938,0.0062	-1732.10
0.7807,0.2193	-1836.15
0.8300,0.1700	-1832.08
0.8476,0.1524	-1803.81
0.8431,0.1569	-1822.60
0.9803,0.0197	-1741.60
0.9943,0.0057	-1737.24
0.8030,0.1970	-1831.78
0.8113,0.1887	-1831.75
0.8525,0.1475	-1803.51
0.8463,0.1537	-1817.53
0.9721,0.0279	-1745.83
0.9943,0.0057	-1726.93
0.7839,0.2161	-1824.49
0.7833,0.2167	-1842.52
0.8911,0.1089	-1806.83
0.8576,0.1424	-1821.20
0.9635,0.0365	-1762.95
0.9944,0.0056	-1752.81
0.7843,0.2157	-1834.79
