#isoforms=['ENSG00000186575.SE.4.A.up_ENSG00000186575.SE.4.A.SE1_ENSG00000186575.SE.4.A.dn','ENSG00000186575.SE.4.B.up_ENSG00000186575.SE.4.B.dn']	exon_lens=('ENSG00000186575.SE.4.A.up',128),('ENSG00000186575.SE.4.A.SE1',163),('ENSG00000186575.SE.4.A.dn',3847),('ENSG00000186575.SE.4.B.up',128),('ENSG00000186575.SE.4.B.dn',194)	iters=5000	burn_in=500	lag=10	percent_accept=95.04	proposal_type=drift	counts=(0,0):185,(1,0):1102,(1,1):89	assigned_counts=0:1180,1:11	chrom=chr22	strand=+	mRNA_starts=29678196,29678196	mRNA_ends=29698598,29694945
sampled_psi	log_score
0.8815,0.1185	-9939.71
0.8504,0.1496	-9943.91
0.8902,0.1098	-9935.47
0.8819,0.1181	-9955.79
0.8514,0.1486	-9964.84
0.9350,0.0650	-9940.93
0.9056,0.0944	-9937.50
0.8686,0.1314	-9949.36
0.8600,0.1400	-9945.58
0.8702,0.1298	-9930.37
0.8550,0.1450	-9945.61
0.9265,0.0735	-9937.89
0.9122,0.0878	-9935.21
0.8635,0.1365	-9934.50
0.8223,0.1777	-9949.34
0.8514,0.1486	-9942.15
0.8612,0.1388	-9943.75
0.9229,0.0771	-9930.33
0.9172,0.0828	-9942.44
0.8560,0.1440	-9949.16
0.8268,0.1732	-9952.39
0.8608,0.1392	-9943.75
0.8453,0.1547	-9945.72
0.9366,0.0634	-9927.58
0.9175,0.0825	-9935.23
0.8635,0.1365	-9936.35
0.8197,0.1803	-9947.88
0.8738,0.1262	-9945.62
0.8708,0.1292	-9951.32
0.9362,0.0638	-9932.96
0.9189,0.0811	-9947.38
0.8500,0.1500	-9947.39
0.7965,0.2035	-9951.42
0.8611,0.1389	-9941.92
0.8636,0.1364	-9936.34
0.9451,0.0549	-9919.01
0.9148,0.0852	-9935.22
0.8821,0.1179	-9937.69
0.8033,0.1967	-9948.42
0.8539,0.1461	-9952.68
0.8813,0.1187	-9949.73
0.9492,0.0508	-9912.95
0.8834,0.1166	-9937.66
0.8786,0.1214	-9929.85
0.8298,0.1702	-9960.31
0.8670,0.1330	-9928.70
0.8947,0.1053	-9937.51
0.9525,0.0475	-9915.64
0.8795,0.1205	-9941.72
0.8929,0.1071	-9943.89
0.7946,0.2054	-9951.48
0.8524,0.1476	-9940.37
0.8893,0.1107	-9941.74
0.9562,0.0438	-9924.64
0.8735,0.1265	-9941.75
0.8951,0.1049	-9935.37
0.7723,0.2277	-9952.35
0.8480,0.1520	-9952.56
0.8741,0.1259	-9947.56
0.9435,0.0565	-9927.55
0.8581,0.1419	-9949.18
0.8979,0.1021	-9944.02
0.8002,0.1998	-9962.41
0.8441,0.1559	-9938.98
0.8747,0.1253	-9947.57
0.9470,0.0530	-9921.80
0.8753,0.1247	-9947.59
0.9199,0.0801	-9927.93
0.7940,0.2060	-9950.15
0.8082,0.1918	-9952.55
0.8622,0.1378	-9945.57
0.9498,0.0502	-9921.71
0.8507,0.1493	-9945.65
0.9129,0.0871	-9928.16
0.7747,0.2253	-9963.35
0.8432,0.1568	-9949.12
0.8760,0.1240	-9951.51
0.9501,0.0499	-9933.49
0.8551,0.1449	-9943.83
0.9167,0.0833	-9942.42
0.8111,0.1889	-9951.05
0.8105,0.1895	-9946.71
0.8841,0.1159	-9941.71
0.9508,0.0492	-9927.60
0.8799,0.1201	-9937.73
0.9157,0.0843	-9939.99
0.8217,0.1783	-9953.94
0.8168,0.1832	-9950.95
0.8880,0.1120	-9937.59
0.9453,0.0547	-9930.40
0.8742,0.1258	-9949.50
0.9381,0.0619	-9930.29
0.8335,0.1665	-9942.74
0.7747,0.2253	-9963.35
0.8891,0.1109	-9947.98
0.9357,0.0643	-9927.59
0.8820,0.1180	-9955.79
0.9473,0.0527	-9924.68
0.8445,0.1555	-9945.73
0.8137,0.1863	-9948.06
0.8859,0.1141	-9947.87
0.9406,0.0594	-9930.32
0.8820,0.1180	-9937.69
0.9355,0.0645	-9938.29
0.8303,0.1697	-9958.74
0.8268,0.1732	-9952.39
0.8774,0.1226	-9937.79
0.9438,0.0562	-9941.65
0.8679,0.1321	-9947.46
0.9326,0.0674	-9930.26
0.8428,0.1572	-9945.76
0.8564,0.1436	-9950.95
0.9026,0.0974	-9926.36
0.9463,0.0537	-9921.82
0.8452,0.1548	-9940.63
0.9409,0.0591	-9919.25
0.8322,0.1678	-9960.40
0.8461,0.1539	-9940.59
0.8924,0.1076	-9941.77
0.9452,0.0548	-9933.25
0.8540,0.1460	-9940.31
0.9317,0.0683	-9938.10
0.8278,0.1722	-9949.25
0.8339,0.1661	-9949.18
0.8659,0.1341	-9951.17
0.9308,0.0692	-9932.86
0.8546,0.1454	-9936.75
0.9394,0.0606	-9919.34
0.8145,0.1855	-9949.51
0.8555,0.1445	-9954.49
0.8631,0.1369	-9941.89
0.9322,0.0678	-9935.51
0.8643,0.1357	-9943.72
0.9293,0.0707	-9940.57
0.8129,0.1871	-9949.55
0.8630,0.1370	-9936.37
0.8189,0.1811	-9946.39
0.9274,0.0726	-9927.74
0.8747,0.1253	-9945.63
0.9322,0.0678	-9932.88
0.8357,0.1643	-9955.67
0.8798,0.1202	-9941.72
0.8306,0.1694	-9947.62
0.9167,0.0833	-9932.83
0.8778,0.1222	-9949.61
0.9300,0.0700	-9922.51
0.8167,0.1833	-9947.96
0.8857,0.1143	-9941.72
0.8240,0.1760	-9950.85
0.9242,0.0758	-9930.31
0.8704,0.1296	-9951.30
0.9408,0.0592	-9922.02
0.7860,0.2140	-9960.88
0.8764,0.1236	-9935.86
0.8314,0.1686	-9933.25
0.9219,0.0781	-9930.34
0.9012,0.0988	-9935.28
0.9436,0.0564	-9916.28
0.7518,0.2482	-9957.85
0.8984,0.1016	-9939.67
0.8169,0.1831	-9949.45
0.9234,0.0766	-9925.34
0.8875,0.1125	-9939.66
0.9566,0.0434	-9927.73
0.7568,0.2432	-9964.48
0.8876,0.1124	-9935.53
0.8212,0.1788	-9944.79
0.9362,0.0638	-9946.39
0.8861,0.1139	-9929.41
0.9639,0.0361	-9921.46
0.7622,0.2378	-9952.84
0.8956,0.1044	-9931.06
0.8407,0.1593	-9952.45
0.9463,0.0537	-9924.69
0.8881,0.1119	-9939.66
0.9675,0.0325	-9914.68
0.7713,0.2287	-9966.98
0.9031,0.0969	-9933.02
0.8411,0.1589	-9942.46
0.9393,0.0607	-9924.82
0.9037,0.0963	-9944.21
0.9690,0.0310	-9921.48
0.7607,0.2393	-9962.17
0.9195,0.0805	-9935.25
0.8270,0.1730	-9958.65
0.9307,0.0693	-9940.66
0.9223,0.0777	-9935.28
0.9617,0.0383	-9918.25
0.7891,0.2109	-9951.66
0.9209,0.0791	-9942.63
0.8252,0.1748	-9943.08
0.9083,0.0917	-9930.63
0.9078,0.0922	-9937.51
0.9565,0.0435	-9924.64
0.7955,0.2045	-9951.45
0.9353,0.0647	-9930.27
0.8384,0.1616	-9950.79
0.8959,0.1041	-9948.27
0.9146,0.0854	-9930.47
0.9574,0.0426	-9930.87
0.7862,0.2138	-9956.98
0.9312,0.0688	-9922.45
0.8285,0.1715	-9946.09
0.8806,0.1194	-9935.72
0.9168,0.0832	-9930.43
0.9575,0.0425	-9924.64
0.8299,0.1701	-9949.22
0.9223,0.0777	-9917.96
0.8471,0.1529	-9945.69
0.9072,0.0928	-9939.78
0.9228,0.0772	-9935.29
0.9502,0.0498	-9930.54
0.8300,0.1700	-9949.22
0.9021,0.0979	-9939.71
0.8734,0.1266	-9937.89
0.8970,0.1030	-9943.99
0.9161,0.0839	-9930.44
0.9478,0.0522	-9921.77
0.8102,0.1898	-9953.97
0.8953,0.1047	-9928.93
0.8601,0.1399	-9932.87
0.9072,0.0928	-9944.34
0.9062,0.0938	-9942.03
0.9455,0.0545	-9930.41
0.8456,0.1544	-9947.42
0.9039,0.0961	-9928.53
0.8837,0.1163	-9935.63
0.8651,0.1349	-9949.29
0.9202,0.0798	-9927.92
0.9380,0.0620	-9922.13
0.8385,0.1615	-9949.14
0.9090,0.0910	-9937.52
0.8966,0.1034	-9935.34
0.8469,0.1531	-9938.85
0.9192,0.0808	-9937.68
0.9328,0.0672	-9930.26
0.8161,0.1839	-9945.00
0.9143,0.0857	-9932.85
0.8963,0.1037	-9935.35
0.8382,0.1618	-9955.72
0.9245,0.0755	-9930.31
0.9290,0.0710	-9935.41
0.8256,0.1744	-9947.73
0.9142,0.0858	-9923.38
0.8714,0.1286	-9958.99
0.8381,0.1619	-9954.07
0.9288,0.0712	-9932.84
0.9401,0.0599	-9935.82
0.8384,0.1616	-9950.79
0.9126,0.0874	-9942.25
0.8523,0.1477	-9950.89
0.8426,0.1574	-9947.44
0.9392,0.0608	-9933.04
0.9492,0.0508	-9924.65
0.8517,0.1483	-9949.13
0.9201,0.0799	-9930.37
0.8573,0.1427	-9949.18
0.8270,0.1730	-9950.83
0.9394,0.0606	-9941.27
0.9553,0.0447	-9918.51
0.8658,0.1342	-9951.17
0.9120,0.0880	-9932.87
0.8777,0.1223	-9935.81
0.7968,0.2032	-9955.51
0.9370,0.0630	-9927.58
0.9408,0.0592	-9919.25
0.8481,0.1519	-9947.40
0.8972,0.1028	-9944.00
0.8951,0.1049	-9939.66
0.7988,0.2012	-9951.35
0.9319,0.0681	-9922.41
0.9627,0.0373	-9918.22
0.8404,0.1596	-9947.47
0.9086,0.0914	-9935.22
0.8879,0.1121	-9947.94
0.7787,0.2213	-9953.32
0.9328,0.0672	-9938.16
0.9514,0.0486	-9927.61
0.8629,0.1371	-9947.41
0.9031,0.0969	-9941.95
0.8861,0.1139	-9937.62
0.8022,0.1978	-9965.26
0.9188,0.0812	-9923.11
0.9443,0.0557	-9924.72
0.8432,0.1568	-9942.39
0.8956,0.1044	-9933.21
0.8959,0.1041	-9941.81
0.8011,0.1989	-9949.90
0.9312,0.0688	-9927.66
0.9508,0.0492	-9927.60
0.8331,0.1669	-9954.01
0.9016,0.0984	-9937.49
0.8919,0.1081	-9943.87
0.7788,0.2212	-9957.10
0.9170,0.0830	-9930.42
0.9448,0.0552	-9921.87
0.8327,0.1673	-9963.63
0.8945,0.1055	-9933.24
0.9020,0.0980	-9937.49
0.7560,0.2440	-9958.83
0.9151,0.0849	-9939.97
0.9495,0.0505	-9924.65
0.7948,0.2052	-9946.06
0.8702,0.1298	-9945.59
0.8980,0.1020	-9959.25
0.7659,0.2341	-9951.47
0.8914,0.1086	-9941.76
0.9512,0.0488	-9930.58
0.7846,0.2154	-9953.12
0.8460,0.1540	-9952.52
0.9065,0.0935	-9937.50
0.7994,0.2006	-9956.87
0.8909,0.1091	-9933.35
0.9460,0.0540	-9927.56
0.8257,0.1743	-9952.39
0.8130,0.1870	-9952.49
0.9177,0.0823	-9932.82
0.8031,0.1969	-9956.86
0.8645,0.1355	-9951.13
0.9555,0.0445	-9930.77
0.7734,0.2266	-9954.75
0.8236,0.1764	-9947.78
0.9024,0.0976	-9935.26
0.8214,0.1786	-9943.25
0.8475,0.1525	-9945.69
0.9566,0.0434	-9924.64
0.8002,0.1998	-9955.48
0.8206,0.1794	-9952.42
0.8953,0.1047	-9937.51
0.8141,0.1859	-9953.95
0.8653,0.1347	-9932.55
0.9533,0.0467	-9933.68
0.8154,0.1846	-9950.97
0.8203,0.1797	-9955.45
0.8786,0.1214	-9943.70
0.8433,0.1567	-9952.48
0.8884,0.1116	-9941.73
0.9545,0.0455	-9930.72
0.8516,0.1484	-9938.65
0.8179,0.1821	-9949.43
0.8767,0.1233	-9943.69
0.8375,0.1625	-9945.87
0.8761,0.1239	-9937.82
0.9467,0.0533	-9924.68
0.8543,0.1457	-9943.84
0.8069,0.1931	-9949.71
0.8901,0.1099	-9941.74
0.8414,0.1586	-9947.46
0.8657,0.1343	-9947.44
0.9533,0.0467	-9924.63
0.8772,0.1228	-9937.79
0.8269,0.1731	-9955.52
0.8794,0.1206	-9929.80
0.8937,0.1063	-9937.52
0.8874,0.1126	-9943.79
0.9469,0.0531	-9930.44
0.8663,0.1337	-9949.31
0.8536,0.1464	-9943.85
0.8788,0.1212	-9937.76
0.9099,0.0901	-9923.65
0.8957,0.1043	-9933.21
0.9535,0.0465	-9915.57
0.8889,0.1111	-9931.34
0.8393,0.1607	-9942.52
0.8935,0.1065	-9939.65
0.9092,0.0908	-9939.82
0.8927,0.1073	-9933.30
0.9435,0.0565	-9927.55
0.8911,0.1089	-9924.93
0.8581,0.1419	-9949.18
0.9061,0.0939	-9932.96
0.9207,0.0793	-9935.26
0.9134,0.0866	-9935.21
0.9214,0.0786	-9925.42
0.8985,0.1015	-9930.95
0.8450,0.1550	-9940.64
0.9127,0.0873	-9928.17
0.9359,0.0641	-9927.59
0.8882,0.1118	-9933.44
0.9119,0.0881	-9935.21
0.9199,0.0801	-9932.81
0.8594,0.1406	-9943.77
0.9044,0.0956	-9939.74
0.9440,0.0560	-9924.72
0.8659,0.1341	-9941.84
0.9290,0.0710	-9937.99
0.9114,0.0886	-9942.21
0.8544,0.1456	-9947.38
0.9080,0.0920	-9937.51
0.9391,0.0609	-9927.56
0.8409,0.1591	-9944.13
0.9242,0.0758	-9937.81
0.8936,0.1064	-9950.29
0.8152,0.1848	-9946.52
0.9195,0.0805	-9925.50
0.9361,0.0639	-9927.59
0.8474,0.1526	-9950.83
0.9251,0.0749	-9937.84
0.8935,0.1065	-9950.29
0.8061,0.1939	-9948.31
0.9255,0.0745	-9930.30
0.9310,0.0690	-9932.87
0.8769,0.1231	-9939.77
0.9168,0.0832	-9923.23
0.8648,0.1352	-9945.57
0.8193,0.1807	-9947.89
0.9311,0.0689	-9932.87
0.9371,0.0629	-9927.58
0.8547,0.1453	-9943.84
0.9365,0.0635	-9930.28
0.8628,0.1372	-9951.09
0.7995,0.2005	-9956.87
0.9281,0.0719	-9927.72
0.9295,0.0705	-9922.53
0.8584,0.1416	-9950.99
0.9268,0.0732	-9922.67
0.8715,0.1285	-9959.00
0.8038,0.1962	-9959.68
0.9321,0.0679	-9922.40
0.9246,0.0754	-9937.83
0.8922,0.1078	-9941.76
0.9274,0.0726	-9925.19
0.8727,0.1273	-9945.61
0.8145,0.1855	-9948.03
0.9360,0.0640	-9927.59
0.9120,0.0880	-9932.87
0.8997,0.1003	-9930.91
0.9315,0.0685	-9943.31
0.8437,0.1563	-9942.37
0.8426,0.1574	-9945.76
0.9411,0.0589	-9924.78
0.8991,0.1009	-9946.24
0.8806,0.1194	-9931.72
0.9315,0.0685	-9927.65
0.8161,0.1839	-9961.39
0.8430,0.1570	-9940.72
0.9502,0.0498	-9936.44
0.8894,0.1106	-9941.74
0.8950,0.1050	-9941.80
0.9155,0.0845	-9937.60
0.8000,0.2000	-9955.48
0.8600,0.1400	-9947.39
0.9441,0.0559	-9916.24
0.8652,0.1348	-9941.85
0.8850,0.1150	-9937.64
0.9180,0.0820	-9927.99
0.7962,0.2038	-9955.52
0.8485,0.1515	-9942.23
0.9474,0.0526	-9933.35
0.8816,0.1184	-9951.75
0.8805,0.1195	-9933.73
0.9241,0.0759	-9922.82
0.7944,0.2056	-9948.78
0.8513,0.1487	-9938.66
0.9495,0.0505	-9933.45
0.9094,0.0906	-9935.21
0.9037,0.0963	-9935.25
0.9232,0.0768	-9932.81
0.8084,0.1916	-9955.43
0.8553,0.1447	-9952.71
0.9510,0.0490	-9918.71
0.9009,0.0991	-9935.28
0.8921,0.1079	-9941.76
0.9033,0.0967	-9939.72
0.7967,0.2033	-9954.15
0.8591,0.1409	-9940.16
0.9630,0.0370	-9931.25
0.8822,0.1178	-9941.71
0.8882,0.1118	-9935.51
0.8948,0.1052	-9941.80
0.7768,0.2232	-9958.38
0.8730,0.1270	-9941.76
0.9663,0.0337	-9918.11
0.8891,0.1109	-9954.23
0.8982,0.1018	-9935.32
0.8969,0.1031	-9931.01
0.7600,0.2400	-9957.57
0.9064,0.0936	-9937.50
0.9668,0.0332	-9931.58
0.8672,0.1328	-9941.82
0.9016,0.0984	-9937.49
0.9017,0.0983	-9928.62
0.7991,0.2009	-9948.58
0.9051,0.0949	-9939.75
0.9694,0.0306	-9928.40
0.8571,0.1429	-9942.01
0.8867,0.1133	-9933.49
0.8794,0.1206	-9939.73
0.7613,0.2387	-9961.01
0.8827,0.1173	-9941.71
0.9690,0.0310	-9921.48
0.8718,0.1282	-9947.52
0.8908,0.1092	-9943.85
0.8585,0.1415	-9938.37
0.8159,0.1841	-9952.45
0.8644,0.1356	-9940.01
0.9628,0.0372	-9927.98
0.8514,0.1486	-9947.38
0.8845,0.1155	-9939.68
0.8703,0.1297	-9943.69
0.8110,0.1890	-9951.06
0.8842,0.1158	-9935.62
0.9586,0.0414	-9921.51
0.8497,0.1503	-9966.45
0.8822,0.1178	-9947.75
0.8542,0.1458	-9949.15
0.7800,0.2200	-9954.54
0.9001,0.0999	-9941.88
0.9579,0.0421	-9915.28
0.8392,0.1608	-9947.48
0.9048,0.0952	-9939.74
0.8721,0.1279	-9937.93
0.7255,0.2745	-9960.01
0.9105,0.0895	-9930.57
0.9626,0.0374	-9927.96
0.7930,0.2070	-9954.22
0.8891,0.1109	-9939.66
0.8688,0.1312	-9943.69
0.7265,0.2735	-9968.76
0.9072,0.0928	-9937.50
0.9717,0.0283	-9917.99
0.8120,0.1880	-9952.50
0.8866,0.1134	-9935.55
0.8874,0.1126	-9933.47
0.7208,0.2792	-9955.51
0.8842,0.1158	-9937.65
0.9732,0.0268	-9921.56
0.8361,0.1639	-9950.79
0.8880,0.1120	-9931.38
0.8712,0.1288	-9943.69
0.7294,0.2706	-9964.79
0.8902,0.1098	-9950.11
0.9787,0.0213	-9921.79
0.8307,0.1693	-9952.39
0.9007,0.0993	-9948.51
0.8794,0.1206	-9949.67
0.7357,0.2643	-9959.55
0.8619,0.1381	-9947.40
0.9800,0.0200	-9910.19
0.8017,0.1983	-9954.07
0.9112,0.0888	-9932.88
0.8803,0.1197	-9939.72
0.7454,0.2546	-9960.25
0.8460,0.1540	-9940.60
0.9772,0.0228	-9917.95
0.8268,0.1732	-9947.70
0.8992,0.1008	-9935.30
0.8821,0.1179	-9947.75
0.7401,0.2599	-9960.42
0.8677,0.1323	-9941.82
0.9800,0.0200	-9917.98
0.8123,0.1877	-9946.63
0.8862,0.1138	-9939.67
0.8803,0.1197	-9935.73
0.7721,0.2279	-9962.12
0.8716,0.1284	-9949.43
0.9796,0.0204	-9914.10
0.8174,0.1826	-9959.93
0.8749,0.1251	-9943.69
0.9018,0.0982	-9937.49
0.7530,0.2470	-9962.26
0.8743,0.1257	-9941.75
0.9802,0.0198	-9910.18
0.8253,0.1747	-9946.18
0.8818,0.1182	-9935.68
0.9102,0.0898	-9951.43
0.7778,0.2222	-9959.62
0.8730,0.1270	-9937.90
0.9805,0.0195	-9917.98
0.8260,0.1740	-9949.28
0.8958,0.1042	-9941.81
0.9067,0.0933	-9951.15
0.7766,0.2234	-9955.89
0.8741,0.1259	-9949.50
0.9830,0.0170	-9913.99
0.8285,0.1715	-9944.52
0.8936,0.1064	-9929.01
0.9074,0.0926	-9923.81
0.7758,0.2242	-9954.67
0.8938,0.1062	-9931.13
0.9863,0.0137	-9909.65
0.8516,0.1484	-9949.13
0.8906,0.1094	-9931.27
0.8977,0.1023	-9937.50
0.7628,0.2372	-9956.32
0.9028,0.0972	-9930.80
0.9827,0.0173	-9914.00
0.8475,0.1525	-9937.11
0.8887,0.1113	-9939.66
0.8986,0.1014	-9926.59
0.7909,0.2091	-9962.25
0.9036,0.0964	-9939.73
0.9857,0.0143	-9922.40
0.8070,0.1930	-9955.43
0.8964,0.1036	-9939.66
0.8956,0.1044	-9941.81
0.7826,0.2174	-9959.59
0.9100,0.0900	-9932.90
0.9822,0.0178	-9910.01
0.8159,0.1841	-9950.97
0.9161,0.0839	-9935.22
0.9098,0.0902	-9949.08
0.8336,0.1664	-9945.96
0.9050,0.0950	-9930.73
0.9808,0.0192	-9917.99
0.8390,0.1610	-9954.09
0.9270,0.0730	-9925.20
0.8927,0.1073	-9933.30
0.8463,0.1537	-9942.29
0.9003,0.0997	-9937.49
0.9813,0.0187	-9918.00
0.8634,0.1366	-9936.35
0.9126,0.0874	-9939.90
0.9058,0.0942	-9946.55
0.8223,0.1777	-9953.94
0.8921,0.1079	-9943.88
0.9847,0.0153	-9918.12
0.9067,0.0933	-9937.50
0.9076,0.0924	-9937.51
0.9040,0.0960	-9930.76
0.8359,0.1641	-9950.79
0.9044,0.0956	-9935.24
0.9820,0.0180	-9922.02
0.8869,0.1131	-9949.96
0.8966,0.1034	-9933.18
0.8942,0.1058	-9939.65
0.8696,0.1304	-9953.18
0.8868,0.1132	-9935.55
0.9781,0.0219	-9917.96
0.8799,0.1201	-9943.71
0.8883,0.1117	-9941.73
0.9019,0.0981	-9935.27
0.8983,0.1017	-9930.96
0.8495,0.1505	-9945.66
0.9805,0.0195	-9925.82
0.8690,0.1310	-9945.58
0.9046,0.0954	-9948.74
0.9023,0.0977	-9941.93
0.8996,0.1004	-9941.87
0.8495,0.1505	-9938.74
0.9820,0.0180	-9922.02
0.8620,0.1380	-9941.91
0.9096,0.0904	-9942.14
0.8851,0.1149	-9945.80
0.8907,0.1093	-9935.46
0.8271,0.1729	-9947.70
0.9788,0.0212	-9910.30
0.8754,0.1246	-9937.84
0.9030,0.0970	-9928.56
0.8965,0.1035	-9948.30
0.9056,0.0944	-9932.97
0.8577,0.1423	-9941.99
0.9779,0.0221	-9917.95
0.8809,0.1191	-9941.71
0.8953,0.1047	-9931.07
0.9056,0.0944	-9944.28
0.9183,0.0817	-9947.33
0.8539,0.1461	-9947.38
0.9807,0.0193	-9917.99
0.8689,0.1311	-9943.69
0.9074,0.0926	-9930.66
0.9225,0.0775	-9930.33
0.9189,0.0811	-9925.53
0.8634,0.1366	-9949.26
0.9832,0.0168	-9918.06
0.8704,0.1296	-9934.17
0.9159,0.0841	-9932.83
0.9192,0.0808	-9940.11
0.9262,0.0738	-9940.41
0.8531,0.1469	-9949.14
0.9848,0.0152	-9922.29
0.8898,0.1102	-9935.48
0.9405,0.0595	-9938.59
0.9224,0.0776	-9927.86
0.9281,0.0719	-9920.05
0.8491,0.1509	-9943.94
0.9822,0.0178	-9914.01
0.8871,0.1129	-9937.60
0.9376,0.0624	-9924.86
0.9308,0.0692	-9932.86
0.9356,0.0644	-9927.59
0.8557,0.1443	-9950.94
0.9857,0.0143	-9913.93
0.9129,0.0871	-9925.82
0.9290,0.0710	-9932.84
0.9373,0.0627	-9932.99
0.9294,0.0706	-9935.42
0.8411,0.1589	-9954.12
0.9863,0.0137	-9918.20
0.9148,0.0852	-9944.71
0.9275,0.0725	-9930.28
0.9455,0.0545	-9921.85
0.9348,0.0652	-9938.26
0.8514,0.1486	-9935.17
0.9860,0.0140	-9913.93
0.9205,0.0795	-9932.81
0.9291,0.0709	-9932.84
0.9535,0.0465	-9933.69
0.9368,0.0632	-9930.28
0.8248,0.1752	-9943.10
0.9813,0.0187	-9918.00
0.9312,0.0688	-9927.66
0.9394,0.0606	-9933.04
0.9616,0.0384	-9931.14
0.9510,0.0490	-9927.61
0.8467,0.1533	-9945.70
0.9792,0.0208	-9917.96
0.9318,0.0682	-9938.11
0.9536,0.0464	-9927.66
0.9567,0.0433	-9933.92
0.9538,0.0462	-9921.60
0.8489,0.1511	-9949.12
0.9852,0.0148	-9918.14
0.9273,0.0727	-9937.92
0.9582,0.0418	-9915.26
0.9498,0.0502	-9918.77
0.9356,0.0644	-9927.59
0.8889,0.1111	-9941.74
0.9849,0.0151	-9909.77
0.9214,0.0786	-9945.12
0.9528,0.0472	-9927.64
0.9560,0.0440	-9921.56
0.9429,0.0571	-9947.18
0.8731,0.1269	-9943.68
0.9857,0.0143	-9926.64
0.9125,0.0875	-9937.56
0.9477,0.0523	-9933.36
0.9542,0.0458	-9939.81
0.9472,0.0528	-9927.56
0.8825,0.1175	-9931.63
0.9865,0.0135	-9918.21
0.9282,0.0718	-9935.39
0.9538,0.0462	-9918.58
0.9500,0.0500	-9921.70
0.9478,0.0522	-9918.87
0.8891,0.1109	-9935.49
0.9892,0.0108	-9913.92
0.9295,0.0705	-9932.85
0.9573,0.0427	-9927.75
0.9372,0.0628	-9930.28
0.9578,0.0422	-9918.40
0.8923,0.1077	-9939.65
0.9886,0.0114	-9918.38
0.9257,0.0743	-9942.91
0.9546,0.0454	-9921.59
0.9387,0.0613	-9924.84
0.9527,0.0473	-9915.62
0.8942,0.1058	-9950.33
0.9894,0.0106	-9909.39
0.9272,0.0728	-9927.74
0.9500,0.0500	-9912.87
0.9497,0.0503	-9918.78
0.9518,0.0482	-9939.55
0.8865,0.1135	-9933.50
0.9870,0.0130	-9913.92
0.9247,0.0753	-9932.81
0.9480,0.0520	-9921.76
0.9487,0.0513	-9927.58
0.9547,0.0453	-9930.73
0.8760,0.1240	-9947.60
0.9880,0.0120	-9913.92
0.9133,0.0867	-9932.86
0.9423,0.0577	-9927.55
0.9597,0.0403	-9934.18
0.9537,0.0463	-9930.68
0.8783,0.1217	-9931.84
0.9881,0.0119	-9913.92
0.9093,0.0907	-9937.52
0.9440,0.0560	-9933.20
0.9497,0.0503	-9924.65
0.9562,0.0438	-9918.47
0.8740,0.1260	-9949.49
0.9887,0.0113	-9909.44
0.9174,0.0826	-9930.42
0.9481,0.0519	-9921.76
0.9613,0.0387	-9918.27
0.9610,0.0390	-9921.48
0.8727,0.1273	-9945.61
0.9906,0.0094	-9913.94
0.9114,0.0886	-9932.88
0.9415,0.0585	-9919.21
0.9573,0.0427	-9915.32
0.9575,0.0425	-9915.30
0.8869,0.1131	-9943.78
0.9866,0.0134	-9913.92
0.9207,0.0793	-9940.17
0.9389,0.0611	-9930.30
0.9631,0.0369	-9921.47
0.9554,0.0446	-9921.57
0.8886,0.1114	-9945.89
0.9870,0.0130	-9913.92
0.9169,0.0831	-9937.63
0.9478,0.0522	-9930.47
0.9714,0.0286	-9917.99
0.9640,0.0360	-9921.46
0.8914,0.1086	-9937.55
0.9881,0.0119	-9927.18
0.9036,0.0964	-9937.49
0.9502,0.0498	-9921.70
0.9647,0.0353	-9921.46
0.9605,0.0395	-9924.68
0.9050,0.0950	-9937.49
0.9844,0.0156	-9918.10
0.8859,0.1141	-9941.72
0.9415,0.0585	-9935.88
0.9739,0.0261	-9917.96
0.9641,0.0359	-9921.46
0.9183,0.0817	-9930.40
0.9836,0.0164	-9909.88
0.8920,0.1080	-9937.54
0.9498,0.0502	-9918.77
0.9779,0.0221	-9914.16
0.9643,0.0357	-9928.06
0.9174,0.0826	-9920.78
0.9803,0.0197	-9921.89
0.9102,0.0898	-9953.74
0.9475,0.0525	-9924.67
0.9773,0.0227	-9917.95
0.9559,0.0441	-9915.41
0.9206,0.0794	-9937.71
0.9789,0.0211	-9925.63
0.9095,0.0905	-9935.21
0.9519,0.0481	-9927.62
0.9775,0.0225	-9917.95
0.9518,0.0482	-9921.65
0.9342,0.0658	-9938.22
0.9813,0.0187	-9918.00
0.9158,0.0842	-9935.22
0.9453,0.0547	-9921.85
0.9803,0.0197	-9921.89
0.9527,0.0473	-9924.63
0.9167,0.0833	-9935.23
0.9794,0.0206	-9914.11
0.8980,0.1020	-9935.32
0.9494,0.0506	-9921.72
0.9825,0.0175	-9914.00
0.9646,0.0354	-9924.77
0.9071,0.0929	-9928.39
0.9800,0.0200	-9914.09
0.8952,0.1048	-9939.66
0.9513,0.0487	-9927.61
0.9827,0.0173	-9918.04
0.9683,0.0317	-9911.22
0.9099,0.0901	-9932.90
0.9804,0.0196	-9917.98
0.8881,0.1119	-9937.59
0.9442,0.0558	-9924.72
0.9823,0.0177	-9914.01
0.9712,0.0288	-9921.52
0.8961,0.1039	-9943.97
0.9810,0.0190	-9917.99
0.8529,0.1471	-9945.62
0.9614,0.0386	-9918.26
0.9804,0.0196	-9917.98
0.9750,0.0250	-9917.95
0.9094,0.0906	-9928.30
0.9787,0.0213	-9921.79
0.8551,0.1449	-9936.73
0.9637,0.0363	-9931.30
0.9820,0.0180	-9918.02
0.9803,0.0197	-9914.07
0.9022,0.0978	-9933.04
0.9768,0.0232	-9914.21
0.8545,0.1455	-9956.23
0.9687,0.0313	-9924.91
0.9803,0.0197	-9914.07
0.9824,0.0176	-9918.03
0.8954,0.1046	-9933.21
0.9728,0.0272	-9921.55
0.8296,0.1704	-9960.30
0.9657,0.0343	-9924.80
0.9758,0.0242	-9914.26
0.9821,0.0179	-9910.01
0.8876,0.1124	-9933.46
0.9669,0.0331	-9914.72
0.8024,0.1976	-9954.06
0.9699,0.0301	-9911.07
0.9781,0.0219	-9917.96
0.9835,0.0165	-9913.98
0.8836,0.1164	-9943.74
0.9644,0.0356	-9928.06
0.7547,0.2453	-9959.99
0.9712,0.0288	-9914.48
0.9739,0.0261	-9921.58
0.9845,0.0155	-9918.11
0.8836,0.1164	-9947.80
0.9688,0.0312	-9924.92
0.7583,0.2417	-9950.76
0.9677,0.0323	-9928.27
0.9752,0.0248	-9925.30
0.9841,0.0159	-9913.96
0.8771,0.1229	-9949.59
0.9635,0.0365	-9931.28
0.7446,0.2554	-9964.55
0.9740,0.0260	-9921.58
0.9754,0.0246	-9914.27
0.9831,0.0169	-9918.05
0.8659,0.1341	-9943.71
0.9583,0.0417	-9927.79
0.7282,0.2718	-9960.87
0.9756,0.0244	-9917.95
0.9741,0.0259	-9921.59
0.9861,0.0139	-9909.67
0.8532,0.1468	-9945.62
0.9495,0.0505	-9915.85
0.7398,0.2602	-9960.43
0.9808,0.0192	-9914.05
0.9782,0.0218	-9917.96
0.9868,0.0132	-9913.92
0.8203,0.1797	-9950.90
0.9558,0.0442	-9927.71
0.7861,0.2139	-9950.47
0.9764,0.0236	-9914.23
0.9730,0.0270	-9921.56
0.9900,0.0100	-9909.34
0.8047,0.1953	-9952.61
0.9676,0.0324	-9928.26
0.7987,0.2013	-9952.74
0.9766,0.0234	-9910.49
0.9664,0.0336	-9924.82
0.9871,0.0129	-9913.92
0.7741,0.2259	-9959.65
0.9659,0.0341	-9921.46
0.8068,0.1932	-9956.86
0.9774,0.0226	-9921.72
0.9673,0.0327	-9914.70
0.9901,0.0099	-9913.93
0.8153,0.1847	-9952.46
0.9639,0.0361	-9914.90
0.7945,0.2055	-9959.60
0.9801,0.0199	-9921.87
0.9708,0.0292	-9918.00
0.9907,0.0093	-9913.94
0.7757,0.2243	-9967.08
0.9570,0.0430	-9921.54
0.7746,0.2254	-9949.77
0.9798,0.0202	-9910.21
0.9751,0.0249	-9932.63
0.9908,0.0092	-9909.26
0.8066,0.1934	-9948.29
0.9616,0.0384	-9918.26
0.7618,0.2382	-9961.00
0.9812,0.0188	-9914.04
0.9753,0.0247	-9917.95
0.9893,0.0107	-9913.92
0.8320,0.1680	-9953.99
0.9636,0.0364	-9918.19
0.7665,0.2335	-9949.06
0.9790,0.0210	-9929.49
0.9781,0.0219	-9921.75
0.9902,0.0098	-9918.55
0.7937,0.2063	-9960.94
0.9595,0.0405	-9924.67
0.7845,0.2155	-9944.08
0.9736,0.0264	-9914.36
0.9818,0.0182	-9922.00
0.9901,0.0099	-9913.93
0.8011,0.1989	-9961.04
0.9686,0.0314	-9921.48
0.7480,0.2520	-9961.26
0.9713,0.0287	-9932.08
0.9830,0.0170	-9909.94
0.9871,0.0129	-9918.26
0.7856,0.2144	-9955.69
0.9715,0.0285	-9910.94
0.7106,0.2894	-9964.41
0.9709,0.0291	-9932.03
0.9868,0.0132	-9909.60
0.9867,0.0133	-9913.92
0.8000,0.2000	-9952.71
0.9751,0.0249	-9914.29
0.7264,0.2736	-9958.99
0.9722,0.0278	-9917.98
0.9858,0.0142	-9909.69
0.9864,0.0136	-9913.93
0.8282,0.1718	-9946.10
0.9768,0.0232	-9914.21
0.7309,0.2691	-9968.75
0.9641,0.0359	-9928.04
0.9862,0.0138	-9913.93
0.9893,0.0107	-9918.45
0.8467,0.1533	-9943.99
0.9757,0.0243	-9921.65
0.7137,0.2863	-9960.63
0.9612,0.0388	-9924.69
0.9899,0.0101	-9913.93
0.9883,0.0117	-9913.92
0.8726,0.1274	-9939.84
0.9733,0.0267	-9925.16
0.7026,0.2974	-9960.44
0.9536,0.0464	-9921.61
0.9915,0.0085	-9909.21
0.9892,0.0108	-9909.40
0.8969,0.1031	-9931.01
0.9750,0.0250	-9921.62
0.7490,0.2510	-9967.79
0.9574,0.0426	-9918.42
0.9913,0.0087	-9909.22
0.9878,0.0122	-9909.52
0.8699,0.1301	-9949.39
0.9701,0.0299	-9928.45
0.7861,0.2139	-9955.68
0.9594,0.0406	-9921.50
0.9887,0.0113	-9913.92
0.9890,0.0110	-9913.92
0.8902,0.1098	-9948.02
0.9686,0.0314	-9928.34
0.8040,0.1960	-9954.04
0.9486,0.0514	-9927.58
0.9852,0.0148	-9909.75
0.9876,0.0124	-9913.92
0.8971,0.1029	-9941.83
0.9668,0.0332	-9918.09
0.7974,0.2026	-9951.40
0.9387,0.0613	-9924.84
0.9821,0.0179	-9918.02
0.9807,0.0193	-9929.77
0.9066,0.0934	-9930.68
0.9630,0.0370	-9921.47
0.8046,0.1954	-9948.37
0.9438,0.0562	-9930.37
0.9822,0.0178	-9918.02
0.9817,0.0183	-9914.03
0.9059,0.0941	-9939.76
0.9609,0.0391	-9921.48
0.7788,0.2212	-9958.36
0.9271,0.0729	-9925.20
0.9813,0.0187	-9914.04
0.9791,0.0209	-9917.96
0.9312,0.0688	-9935.47
0.9547,0.0453	-9921.58
0.7715,0.2285	-9948.73
0.9120,0.0880	-9937.55
0.9805,0.0195	-9917.99
0.9834,0.0166	-9909.90
0.9381,0.0619	-9916.70
0.9497,0.0503	-9924.65
0.7848,0.2152	-9947.94
0.9137,0.0863	-9930.49
0.9781,0.0219	-9914.16
0.9807,0.0193	-9914.06
0.9453,0.0547	-9919.00
0.9482,0.0518	-9927.57
0.7838,0.2162	-9960.88
0.9078,0.0922	-9928.36
0.9825,0.0175	-9918.03
0.9791,0.0209	-9925.66
0.9401,0.0599	-9933.06
0.9492,0.0508	-9924.65
0.8149,0.1851	-9949.50
0.8914,0.1086	-9931.23
0.9771,0.0229	-9914.20
0.9774,0.0226	-9914.18
0.9485,0.0515	-9930.49
0.9385,0.0615	-9930.29
0.7894,0.2106	-9950.33
0.9049,0.0951	-9942.00
0.9761,0.0239	-9914.24
0.9741,0.0259	-9914.34
0.9498,0.0502	-9912.89
0.9401,0.0599	-9930.31
0.7523,0.2477	-9957.83
0.9048,0.0952	-9928.48
0.9749,0.0251	-9921.62
0.9710,0.0290	-9914.49
0.9607,0.0393	-9931.08
0.9316,0.0684	-9922.43
0.7264,0.2736	-9957.04
0.8917,0.1083	-9935.43
0.9751,0.0249	-9910.62
0.9662,0.0338	-9921.46
0.9567,0.0433	-9927.73
0.9356,0.0644	-9932.95
0.7411,0.2589	-9967.75
0.8899,0.1101	-9937.56
0.9758,0.0242	-9910.56
0.9670,0.0330	-9921.47
0.9587,0.0413	-9918.37
0.9232,0.0768	-9920.38
0.6851,0.3149	-9969.50
0.8942,0.1058	-9931.12
0.9766,0.0234	-9914.22
0.9675,0.0325	-9924.86
0.9530,0.0470	-9924.63
0.9180,0.0820	-9942.48
0.6814,0.3186	-9965.07
0.8899,0.1101	-9943.83
0.9806,0.0194	-9910.14
0.9739,0.0261	-9917.96
0.9528,0.0472	-9930.64
0.9080,0.0920	-9942.09
0.7340,0.2660	-9961.65
0.8826,0.1174	-9951.80
0.9802,0.0198	-9917.98
0.9663,0.0337	-9921.46
0.9454,0.0546	-9927.55
0.9063,0.0937	-9942.04
0.7042,0.2958	-9960.33
0.8973,0.1027	-9941.83
0.9822,0.0178	-9918.02
0.9661,0.0339	-9918.11
0.9395,0.0605	-9944.02
0.8808,0.1192	-9939.71
0.7228,0.2772	-9960.15
0.8898,0.1102	-9937.57
0.9815,0.0185	-9914.03
0.9615,0.0385	-9924.70
0.9426,0.0574	-9921.95
0.8892,0.1108	-9947.98
0.8021,0.1979	-9958.26
0.9094,0.0906	-9939.83
0.9795,0.0205	-9917.97
0.9636,0.0364	-9918.19
0.9388,0.0612	-9927.56
0.8880,0.1120	-9935.52
0.8538,0.1462	-9935.03
0.9165,0.0835	-9932.83
0.9797,0.0203	-9914.10
0.9633,0.0367	-9918.20
0.9509,0.0491	-9918.71
0.8949,0.1051	-9943.94
0.8499,0.1501	-9950.86
0.9079,0.0921	-9942.08
0.9785,0.0215	-9910.32
0.9542,0.0458	-9918.56
0.9456,0.0544	-9930.41
0.8959,0.1041	-9941.81
0.8691,0.1309	-9947.48
0.9130,0.0870	-9937.56
0.9770,0.0230	-9914.20
0.9449,0.0551	-9930.39
0.9405,0.0595	-9938.59
0.8711,0.1289	-9943.69
0.8972,0.1028	-9941.83
0.9243,0.0757	-9925.30
0.9763,0.0237	-9917.95
0.9461,0.0539	-9927.56
0.9391,0.0609	-9933.03
0.8559,0.1441	-9945.60
0.8737,0.1263	-9945.62
0.9268,0.0732	-9948.06
0.9768,0.0232	-9921.69
0.9405,0.0595	-9930.32
0.9376,0.0624	-9941.12
0.8258,0.1742	-9947.72
0.8803,0.1197	-9935.73
0.9215,0.0785	-9930.35
0.9705,0.0295	-9925.00
0.9313,0.0687	-9927.66
0.9321,0.0679	-9922.41
0.8332,0.1668	-9947.57
0.8552,0.1448	-9945.60
0.9175,0.0825	-9935.23
0.9766,0.0234	-9910.49
0.9329,0.0671	-9919.73
0.9302,0.0698	-9925.09
0.8247,0.1753	-9952.40
0.8663,0.1337	-9943.71
0.8988,0.1012	-9952.78
0.9750,0.0250	-9910.63
0.9347,0.0653	-9951.55
0.9361,0.0639	-9924.90
0.8501,0.1499	-9959.53
0.8568,0.1432	-9942.01
0.9341,0.0659	-9927.61
0.9722,0.0278	-9910.87
0.9336,0.0664	-9927.62
0.9209,0.0791	-9942.63
0.8257,0.1743	-9946.17
0.8451,0.1549	-9942.33
0.9375,0.0625	-9938.41
0.9736,0.0264	-9925.18
0.9167,0.0833	-9925.63
0.9028,0.0972	-9928.57
0.7905,0.2095	-9959.58
0.8390,0.1610	-9944.18
0.9429,0.0571	-9933.16
0.9693,0.0307	-9921.49
0.9127,0.0873	-9928.17
0.8981,0.1019	-9941.85
0.8041,0.1959	-9945.57
0.8485,0.1515	-9950.84
0.9322,0.0678	-9935.51
0.9688,0.0312	-9918.04
0.9166,0.0834	-9947.21
0.9186,0.0814	-9937.66
0.8066,0.1934	-9948.29
0.8608,0.1392	-9947.40
0.9467,0.0533	-9933.31
0.9603,0.0397	-9915.12
0.8972,0.1028	-9924.50
0.9050,0.0950	-9939.75
0.8235,0.1765	-9950.86
0.8663,0.1337	-9947.44
0.9526,0.0474	-9921.63
0.9620,0.0380	-9921.47
0.8944,0.1056	-9946.06
0.8688,0.1312	-9936.13
0.7807,0.2193	-9955.79
0.8610,0.1390	-9941.93
0.9525,0.0475	-9939.63
0.9681,0.0319	-9914.65
0.9087,0.0913	-9937.52
0.8731,0.1269	-9941.76
0.7938,0.2062	-9958.25
0.8730,0.1270	-9939.83
0.9570,0.0430	-9918.44
0.9739,0.0261	-9914.34
0.9308,0.0692	-9927.67
0.8927,0.1073	-9933.30
0.7847,0.2153	-9960.88
0.8714,0.1286	-9939.86
0.9599,0.0401	-9921.49
0.9711,0.0289	-9921.51
0.9424,0.0576	-9924.75
0.8965,0.1035	-9939.66
0.7901,0.2099	-9959.58
0.8701,0.1299	-9945.59
0.9516,0.0484	-9927.62
0.9686,0.0314	-9935.20
0.9324,0.0676	-9930.26
0.9103,0.0897	-9935.21
0.7959,0.2041	-9952.80
0.9011,0.0989	-9935.28
0.9494,0.0506	-9927.58
0.9707,0.0293	-9914.50
0.9324,0.0676	-9925.02
0.9034,0.0966	-9944.19
0.7851,0.2149	-9962.18
0.9033,0.0967	-9930.79
0.9375,0.0625	-9919.45
0.9740,0.0260	-9925.21
0.9539,0.0461	-9918.57
0.9078,0.0922	-9935.22
0.8162,0.1838	-9946.49
0.9055,0.0945	-9942.02
0.9382,0.0618	-9930.29
0.9669,0.0331	-9924.84
0.9570,0.0430	-9927.74
0.9048,0.0952	-9937.49
0.8202,0.1798	-9949.38
0.9187,0.0813	-9932.82
0.9331,0.0669	-9922.36
0.9727,0.0273	-9921.55
0.9573,0.0427	-9924.64
0.9014,0.0986	-9935.27
0.7743,0.2257	-9958.42
0.9025,0.0975	-9935.26
0.9123,0.0877	-9942.24
0.9751,0.0249	-9921.62
0.9581,0.0419	-9915.26
0.8542,0.1458	-9950.92
0.7905,0.2095	-9958.26
0.9113,0.0887	-9930.55
0.9025,0.0975	-9921.91
0.9756,0.0244	-9929.02
0.9498,0.0502	-9930.53
0.8283,0.1717	-9950.82
0.8065,0.1935	-9948.30
0.9158,0.0842	-9935.22
0.9197,0.0803	-9923.06
0.9756,0.0244	-9914.26
0.9542,0.0458	-9915.52
0.8555,0.1445	-9945.60
0.8082,0.1918	-9956.87
0.9197,0.0803	-9927.94
0.9095,0.0905	-9932.91
0.9728,0.0272	-9925.13
0.9495,0.0505	-9933.45
0.8561,0.1439	-9940.25
0.8053,0.1947	-9949.76
0.9260,0.0740	-9925.24
0.9179,0.0821	-9942.47
0.9701,0.0299	-9924.98
0.9427,0.0573	-9927.55
0.8806,0.1194	-9941.72
0.8305,0.1695	-9947.62
0.9096,0.0904	-9925.98
0.9157,0.0843	-9937.61
0.9673,0.0327	-9935.02
0.9454,0.0546	-9919.00
0.8880,0.1120	-9933.45
0.8517,0.1483	-9947.38
0.8817,0.1183	-9941.71
0.9102,0.0898	-9923.63
0.9640,0.0360	-9914.89
0.9427,0.0573	-9927.55
0.8672,0.1328	-9951.21
0.8601,0.1399	-9940.13
0.8618,0.1382	-9949.23
0.9007,0.0993	-9928.67
0.9630,0.0370	-9921.47
0.9471,0.0529	-9918.91
0.8639,0.1361	-9954.81
0.8713,0.1287	-9939.86
0.8631,0.1369	-9943.73
0.9063,0.0937	-9930.69
0.9711,0.0289	-9918.00
0.9519,0.0481	-9915.68
0.8528,0.1472	-9954.41
0.8588,0.1412	-9941.97
0.8316,0.1684	-9944.41
0.8993,0.1007	-9933.11
0.9713,0.0287	-9914.48
0.9514,0.0486	-9921.66
0.8741,0.1259	-9941.75
0.8530,0.1470	-9947.38
0.8481,0.1519	-9945.68
0.8822,0.1178	-9947.75
0.9737,0.0263	-9914.35
0.9449,0.0551	-9936.08
0.8589,0.1411	-9943.78
0.8401,0.1599	-9949.13
0.8443,0.1557	-9944.04
0.8983,0.1017	-9941.85
0.9718,0.0282	-9921.53
0.9525,0.0475	-9921.63
0.8809,0.1191	-9933.71
0.8585,0.1415	-9936.57
0.8301,0.1699	-9946.05
0.8956,0.1044	-9935.36
0.9757,0.0243	-9925.33
0.9527,0.0473	-9927.64
0.8688,0.1312	-9949.36
0.8500,0.1500	-9940.45
0.8248,0.1752	-9952.40
0.8819,0.1181	-9927.64
0.9695,0.0305	-9931.87
0.9471,0.0529	-9927.56
0.8763,0.1237	-9941.73
0.8421,0.1579	-9949.12
0.8420,0.1580	-9944.10
0.8908,0.1092	-9939.65
0.9646,0.0354	-9928.07
0.9419,0.0581	-9921.98
0.8993,0.1007	-9937.49
0.8358,0.1642	-9954.04
0.8631,0.1369	-9941.89
0.8843,0.1157	-9939.68
0.9706,0.0294	-9921.51
0.9306,0.0694	-9940.65
0.9075,0.0925	-9928.37
0.8303,0.1697	-9952.39
0.8594,0.1406	-9949.20
0.8925,0.1075	-9939.65
0.9614,0.0386	-9934.34
0.9455,0.0545	-9918.99
0.8954,0.1046	-9937.51
0.8216,0.1784	-9949.36
0.8542,0.1458	-9945.61
0.8787,0.1213	-9955.58
0.9583,0.0417	-9915.25
0.9426,0.0574	-9919.15
0.9032,0.0968	-9928.55
0.8520,0.1480	-9952.63
0.8683,0.1317	-9958.79
0.8736,0.1264	-9947.55
0.9525,0.0475	-9921.64
0.9501,0.0499	-9918.76
0.9248,0.0752	-9945.36
0.8668,0.1332	-9936.21
0.8691,0.1309	-9956.94
0.8609,0.1391	-9949.22
0.9432,0.0568	-9927.55
0.9539,0.0461	-9933.72
0.9145,0.0855	-9930.48
0.8845,0.1155	-9931.54
0.8879,0.1121	-9950.00
0.8785,0.1215	-9941.72
0.9389,0.0611	-9927.56
0.9463,0.0537	-9939.04
0.9327,0.0673	-9935.52
0.8946,0.1054	-9924.68
0.8914,0.1086	-9945.97
0.8592,0.1408	-9943.77
0.9476,0.0524	-9930.46
0.9518,0.0482	-9927.62
0.9354,0.0646	-9943.63
0.8834,0.1166	-9935.64
0.8896,0.1104	-9945.91
0.8383,0.1617	-9959.01
0.9456,0.0544	-9930.41
0.9504,0.0496	-9924.64
0.9348,0.0652	-9927.60
0.8845,0.1155	-9945.79
0.9065,0.0935	-9930.68
0.8550,0.1450	-9947.38
0.9437,0.0563	-9919.09
0.9507,0.0493	-9939.44
0.9309,0.0691	-9925.06
0.8891,0.1109	-9945.90
0.9107,0.0893	-9942.18
0.8426,0.1574	-9947.44
0.9284,0.0716	-9930.27
0.9466,0.0534	-9921.81
0.9386,0.0614	-9924.84
0.8628,0.1372	-9951.09
0.8989,0.1011	-9937.49
0.8864,0.1136	-9947.89
0.9226,0.0774	-9932.81
0.9482,0.0518	-9924.66
0.9582,0.0418	-9943.44
0.8604,0.1396	-9940.12
0.9103,0.0897	-9935.21
0.8744,0.1256	-9945.63
0.9127,0.0873	-9935.21
0.9450,0.0550	-9913.34
0.9560,0.0440	-9933.87
0.8515,0.1485	-9942.14
0.9097,0.0903	-9932.90
0.8703,0.1297	-9937.98
0.9063,0.0937	-9935.23
0.9436,0.0564	-9938.81
0.9381,0.0619	-9922.13
0.8553,0.1447	-9956.26
0.9117,0.0883	-9932.88
0.8532,0.1468	-9949.14
0.9251,0.0749	-9927.79
0.9451,0.0549	-9921.86
0.9383,0.0617	-9930.29
0.8654,0.1346	-9953.01
0.9071,0.0929	-9935.22
0.8614,0.1386	-9941.92
0.9239,0.0761	-9935.31
0.9482,0.0518	-9930.48
0.9272,0.0728	-9925.19
0.8694,0.1306	-9943.69
0.9042,0.0958	-9941.98
0.8809,0.1191	-9943.72
0.9124,0.0876	-9937.55
0.9617,0.0383	-9937.59
0.9426,0.0574	-9919.15
0.8714,0.1286	-9949.42
0.9092,0.0908	-9935.22
0.8941,0.1059	-9935.39
0.9247,0.0753	-9932.81
0.9614,0.0386	-9921.48
0.9385,0.0615	-9922.12
0.8620,0.1380	-9940.08
0.9364,0.0636	-9922.21
0.8976,0.1024	-9937.50
0.9004,0.0996	-9939.69
0.9642,0.0358	-9918.17
0.9168,0.0832	-9930.43
0.8686,0.1314	-9947.47
0.9361,0.0639	-9924.90
0.9187,0.0813	-9930.39
0.8867,0.1133	-9931.44
0.9561,0.0439	-9924.64
0.9098,0.0902	-9939.84
0.8784,0.1216	-9939.74
0.9235,0.0765	-9940.28
0.8902,0.1098	-9937.56
0.8987,0.1013	-9935.31
0.9449,0.0551	-9938.92
0.8945,0.1055	-9948.20
0.8802,0.1198	-9937.73
0.9350,0.0650	-9922.27
0.8878,0.1122	-9952.07
0.8960,0.1040	-9939.66
0.9429,0.0571	-9935.96
0.8981,0.1019	-9939.67
0.9032,0.0968	-9933.02
0.9302,0.0698	-9927.68
0.8703,0.1297	-9941.78
0.8937,0.1063	-9943.91
0.9400,0.0600	-9922.05
0.9102,0.0898	-9932.90
0.9021,0.0979	-9944.15
0.9303,0.0697	-9927.67
0.8776,0.1224	-9951.57
0.8651,0.1349	-9936.28
0.9316,0.0684	-9922.43
0.8947,0.1053	-9935.38
0.9126,0.0874	-9937.56
0.9253,0.0747	-9932.82
0.8732,0.1268	-9949.47
0.8880,0.1120	-9945.87
0.9239,0.0761	-9935.31
0.9102,0.0898	-9942.16
0.9118,0.0882	-9944.55
0.9207,0.0793	-9940.17
0.8814,0.1186	-9937.70
0.8956,0.1044	-9946.11
0.9177,0.0823	-9942.47
0.9157,0.0843	-9925.68
0.9208,0.0792	-9930.36
0.9009,0.0991	-9928.66
0.9055,0.0945	-9946.54
0.9154,0.0846	-9925.69
0.9265,0.0735	-9927.75
0.9024,0.0976	-9937.49
0.9190,0.0810	-9930.39
0.8651,0.1349	-9945.57
0.8907,0.1093	-9933.36
0.9177,0.0823	-9928.00
0.9187,0.0813	-9937.67
0.8992,0.1008	-9935.30
0.9286,0.0714	-9927.71
0.8623,0.1377	-9936.40
0.8913,0.1087	-9937.55
0.9077,0.0923	-9930.65
0.9197,0.0803	-9927.94
0.9026,0.0974	-9924.13
0.9224,0.0776	-9932.81
0.8545,0.1455	-9940.30
0.9057,0.0943	-9948.81
0.8989,0.1011	-9924.38
0.9163,0.0837	-9937.62
0.9037,0.0963	-9935.25
0.9223,0.0777	-9940.23
0.8367,0.1633	-9952.42
0.9033,0.0967	-9935.25
0.9141,0.0859	-9939.94
0.9040,0.0960	-9928.52
0.8736,0.1264	-9941.75
0.9057,0.0943	-9935.23
0.8185,0.1815	-9937.36
0.8874,0.1126	-9945.86
0.9316,0.0684	-9927.65
0.9081,0.0919	-9937.51
0.8398,0.1602	-9949.13
0.9193,0.0807	-9930.38
0.8360,0.1640	-9944.27
0.8997,0.1003	-9930.91
0.9154,0.0846	-9935.22
0.8865,0.1135	-9937.61
0.8128,0.1872	-9949.55
0.9308,0.0692	-9953.66
0.8171,0.1829	-9952.44
0.9075,0.0925	-9944.36
0.9234,0.0766	-9940.28
0.8912,0.1088	-9924.93
0.8285,0.1715	-9953.96
0.9376,0.0624	-9924.86
0.8112,0.1888	-9952.51
0.8919,0.1081	-9941.76
0.9155,0.0845	-9928.07
0.8767,0.1233	-9937.81
0.8039,0.1961	-9952.63
0.9198,0.0802	-9925.49
0.7879,0.2121	-9958.27
0.8929,0.1071	-9933.29
0.9192,0.0808	-9932.81
0.8605,0.1395	-9941.94
0.8441,0.1559	-9935.60
0.9167,0.0833	-9932.83
0.7837,0.2163	-9945.43
0.8792,0.1208	-9945.69
0.9258,0.0742	-9927.77
0.8833,0.1167	-9947.79
0.8010,0.1990	-9954.08
0.9205,0.0795	-9925.46
0.7683,0.2317	-9968.12
0.8753,0.1247	-9933.94
0.9291,0.0709	-9932.84
0.8867,0.1133	-9943.78
0.8136,0.1864	-9948.06
0.9230,0.0770	-9930.33
0.7817,0.2183	-9954.50
0.8768,0.1232	-9947.62
0.9282,0.0718	-9927.72
0.8832,0.1168	-9939.69
0.8310,0.1690	-9952.39
0.9241,0.0759	-9937.81
0.8188,0.1812	-9949.41
0.8611,0.1389	-9934.63
0.9236,0.0764	-9927.83
0.8854,0.1146	-9943.76
0.8242,0.1758	-9950.85
0.9308,0.0692	-9927.67
0.8349,0.1651	-9960.51
0.8864,0.1136	-9954.05
0.9311,0.0689	-9919.85
0.8749,0.1251	-9943.69
0.8431,0.1569	-9949.12
0.9318,0.0682	-9943.34
0.8584,0.1416	-9941.98
0.8708,0.1292	-9943.69
0.9299,0.0701	-9938.02
0.8833,0.1167	-9939.69
0.8515,0.1485	-9957.86
0.9293,0.0707	-9943.15
0.8549,0.1451	-9947.38
0.8679,0.1321	-9956.87
0.9245,0.0755	-9930.31
0.8930,0.1070	-9937.53
0.8804,0.1196	-9937.72
0.9320,0.0680	-9932.88
0.8592,0.1408	-9936.54
0.8701,0.1299	-9945.59
0.9450,0.0550	-9927.55
0.8749,0.1251	-9935.91
0.8997,0.1003	-9941.88
0.9421,0.0579	-9933.13
0.8510,0.1490	-9943.90
0.8380,0.1620	-9950.79
0.9555,0.0445	-9924.63
0.8829,0.1171	-9939.69
0.9257,0.0743	-9927.77
0.9396,0.0604	-9922.07
0.8609,0.1391	-9938.28
0.8154,0.1846	-9958.40
0.9582,0.0418	-9918.39
0.8575,0.1425	-9947.38
0.9396,0.0604	-9927.56
0.9424,0.0576	-9933.14
0.8367,0.1633	-9950.78
0.7939,0.2061	-9959.60
0.9626,0.0374	-9924.72
0.8823,0.1177	-9949.77
0.9376,0.0624	-9916.73
0.9524,0.0476	-9918.64
0.8314,0.1686	-9953.99
0.7806,0.2194	-9963.41
0.9621,0.0379	-9921.47
0.8636,0.1364	-9941.88
0.9402,0.0598	-9935.82
0.9634,0.0366	-9918.20
0.8321,0.1679	-9957.20
0.7982,0.2018	-9945.87
0.9640,0.0360	-9924.75
0.8663,0.1337	-9945.57
0.9372,0.0628	-9927.58
0.9653,0.0347	-9924.79
0.8472,0.1528	-9943.98
0.7975,0.2025	-9962.36
0.9683,0.0317	-9921.47
0.8391,0.1609	-9945.83
0.9330,0.0670	-9943.43
0.9684,0.0316	-9921.48
0.8405,0.1595	-9955.77
0.8089,0.1911	-9955.43
0.9777,0.0223	-9917.95
0.8676,0.1324	-9945.58
0.9182,0.0818	-9935.24
0.9743,0.0257	-9925.23
0.8929,0.1071	-9939.65
0.8189,0.1811	-9946.39
0.9768,0.0232	-9925.43
0.8683,0.1317	-9945.58
0.9249,0.0751	-9932.81
0.9751,0.0249	-9910.62
0.8868,0.1132	-9947.90
0.7990,0.2010	-9947.21
0.9814,0.0186	-9914.04
0.8411,0.1589	-9937.46
0.9248,0.0752	-9935.32
0.9725,0.0275	-9921.54
0.8940,0.1060	-9943.92
0.8268,0.1732	-9938.32
0.9821,0.0179	-9918.02
0.8649,0.1351	-9947.43
0.9325,0.0675	-9930.26
0.9668,0.0332	-9914.72
0.8726,0.1274	-9941.76
0.8315,0.1685	-9953.99
0.9846,0.0154	-9913.95
0.8682,0.1318	-9939.92
0.9263,0.0737	-9922.69
0.9574,0.0426	-9921.53
0.8498,0.1502	-9952.59
0.8320,0.1680	-9950.80
0.9860,0.0140	-9909.68
0.8696,0.1304	-9941.79
0.9443,0.0557	-9924.72
0.9627,0.0373	-9918.22
0.8509,0.1491	-9936.94
0.8134,0.1866	-9948.06
0.9886,0.0114	-9909.45
0.8627,0.1373	-9938.22
0.9573,0.0427	-9927.75
0.9649,0.0351	-9924.77
0.8260,0.1740	-9955.51
0.8306,0.1694	-9942.85
0.9870,0.0130	-9913.92
0.8412,0.1588	-9945.79
0.9420,0.0580	-9927.55
0.9614,0.0386	-9921.48
0.8283,0.1717	-9946.10
0.8510,0.1490	-9954.35
0.9851,0.0149	-9909.75
0.8528,0.1472	-9938.60
0.9364,0.0636	-9932.96
0.9480,0.0520	-9927.57
0.8618,0.1382	-9940.08
0.8546,0.1454	-9954.46
0.9862,0.0138	-9918.19
0.8634,0.1366	-9945.57
0.9414,0.0586	-9935.88
0.9514,0.0486	-9924.64
0.8723,0.1277	-9937.92
0.8299,0.1701	-9944.47
0.9868,0.0132	-9913.92
0.8687,0.1313	-9951.25
0.9608,0.0392	-9934.28
0.9408,0.0592	-9927.55
0.8706,0.1294	-9949.41
0.7969,0.2031	-9952.78
0.9872,0.0128	-9913.92
0.8815,0.1185	-9931.68
0.9560,0.0440	-9936.95
0.9342,0.0658	-9927.61
0.8844,0.1156	-9937.65
0.8111,0.1889	-9953.97
0.9877,0.0123	-9918.30
0.8752,0.1248	-9949.53
0.9568,0.0432	-9921.54
0.9259,0.0741	-9935.34
0.8648,0.1352	-9945.57
0.8242,0.1758	-9941.58
0.9895,0.0105	-9923.01
0.8493,0.1507	-9942.20
0.9722,0.0278	-9917.98
0.9317,0.0683	-9940.72
0.8435,0.1565	-9944.06
0.7805,0.2195	-9967.22
0.9883,0.0117	-9913.92
0.8655,0.1345	-9939.99
0.9667,0.0333	-9924.83
0.9457,0.0543	-9924.70
0.8188,0.1812	-9967.51
0.8013,0.1987	-9945.71
0.9900,0.0100	-9909.34
0.8552,0.1448	-9947.38
0.9490,0.0510	-9927.58
0.9389,0.0611	-9927.56
0.8238,0.1762	-9961.65
0.7739,0.2261	-9959.66
0.9905,0.0095	-9913.94
0.8592,0.1408	-9963.67
0.9495,0.0505	-9927.59
0.9276,0.0724	-9932.83
0.8199,0.1801	-9955.45
0.7696,0.2304	-9957.30
0.9896,0.0104	-9918.47
0.8749,0.1251	-9937.85
0.9405,0.0595	-9935.83
0.9272,0.0728	-9927.74
0.8603,0.1397	-9940.12
0.7875,0.2125	-9956.96
0.9894,0.0106	-9918.46
0.8697,0.1303	-9947.49
0.9430,0.0570	-9930.35
0.9381,0.0619	-9922.13
0.8641,0.1359	-9945.57
0.8192,0.1808	-9950.91
0.9846,0.0154	-9909.79
0.8745,0.1255	-9935.92
0.9211,0.0789	-9932.81
0.9433,0.0567	-9924.74
0.8664,0.1336	-9949.31
0.8026,0.1974	-9952.65
0.9867,0.0133	-9909.62
0.8992,0.1008	-9933.11
0.9149,0.0851	-9937.59
0.9397,0.0603	-9938.55
0.8635,0.1365	-9949.26
0.7998,0.2002	-9955.48
0.9838,0.0162	-9909.87
0.9045,0.0955	-9928.50
0.9169,0.0831	-9935.23
0.9269,0.0731	-9935.37
0.8869,0.1131	-9937.60
0.8304,0.1696	-9950.80
0.9849,0.0151	-9918.13
0.9107,0.0893	-9925.92
0.8956,0.1044	-9933.21
0.9219,0.0781	-9925.40
0.8862,0.1138	-9945.83
0.7847,0.2153	-9954.41
0.9843,0.0157	-9913.96
0.9109,0.0891	-9932.89
0.9224,0.0776	-9937.76
0.9298,0.0702	-9930.27
0.8980,0.1020	-9935.32
0.8019,0.1981	-9956.86
0.9878,0.0122	-9913.92
0.9016,0.0984	-9941.92
0.9216,0.0784	-9937.74
0.9279,0.0721	-9922.61
0.8848,0.1152	-9931.52
0.8014,0.1986	-9945.70
0.9870,0.0130	-9909.59
0.9104,0.0896	-9935.21
0.9308,0.0692	-9927.67
0.9255,0.0745	-9925.26
0.8825,0.1175	-9941.71
0.8084,0.1916	-9949.67
0.9882,0.0118	-9913.92
0.8895,0.1105	-9937.57
0.9339,0.0661	-9924.97
0.9208,0.0792	-9937.72
0.8882,0.1118	-9935.51
0.8118,0.1882	-9952.50
0.9902,0.0098	-9909.32
0.8628,0.1372	-9947.41
0.9455,0.0545	-9924.70
0.9061,0.0939	-9930.70
0.9048,0.0952	-9944.25
0.8008,0.1992	-9959.65
0.9895,0.0105	-9909.38
0.8534,0.1466	-9945.62
0.9521,0.0479	-9924.64
0.9197,0.0803	-9937.69
0.9057,0.0943	-9939.76
0.7754,0.2246	-9957.16
0.9883,0.0117	-9913.92
0.8362,0.1638	-9947.53
0.9585,0.0415	-9927.79
0.9141,0.0859	-9928.12
0.9261,0.0739	-9937.88
0.7700,0.2300	-9954.87
0.9900,0.0100	-9913.93
0.8344,0.1656	-9954.02
0.9535,0.0465	-9918.59
0.9314,0.0686	-9938.09
0.9323,0.0677	-9932.88
0.7558,0.2442	-9956.58
0.9899,0.0101	-9918.52
0.8357,0.1643	-9954.04
0.9530,0.0470	-9921.62
0.9380,0.0620	-9935.72
0.9264,0.0736	-9930.29
0.7546,0.2454	-9960.00
0.9900,0.0100	-9923.12
0.8368,0.1632	-9944.25
0.9420,0.0580	-9916.40
0.9449,0.0551	-9927.55
0.9413,0.0587	-9927.55
0.7468,0.2532	-9955.88
0.9915,0.0085	-9909.20
0.8450,0.1550	-9945.72
0.9478,0.0522	-9927.57
0.9439,0.0561	-9941.67
0.9319,0.0681	-9930.26
0.7596,0.2404	-9966.79
0.9921,0.0079	-9913.99
0.8204,0.1796	-9947.86
0.9362,0.0638	-9932.96
0.9432,0.0568	-9930.36
0.9224,0.0776	-9937.76
0.7625,0.2375	-9955.16
0.9928,0.0072	-9918.94
0.8037,0.1963	-9955.45
0.9352,0.0648	-9922.26
0.9433,0.0567	-9933.17
0.9031,0.0969	-9941.95
0.8186,0.1814	-9950.92
0.9927,0.0073	-9918.94
0.8118,0.1882	-9951.04
0.9393,0.0607	-9927.56
0.9389,0.0611	-9924.83
0.8988,0.1012	-9939.68
0.8729,0.1271	-9939.83
0.9939,0.0061	-9914.10
0.7961,0.2039	-9951.44
0.9370,0.0630	-9919.48
0.9225,0.0775	-9927.86
0.8911,0.1089	-9933.34
0.8814,0.1186	-9951.74
0.9927,0.0073	-9909.11
0.7992,0.2008	-9958.25
0.9490,0.0510	-9924.66
0.9248,0.0752	-9925.28
0.8756,0.1244	-9943.69
0.8872,0.1128	-9937.60
0.9917,0.0083	-9918.76
0.7874,0.2126	-9954.35
0.9491,0.0509	-9924.65
0.9315,0.0685	-9927.65
0.8745,0.1255	-9939.80
0.8642,0.1358	-9940.02
0.9933,0.0067	-9914.05
0.7940,0.2060	-9956.90
0.9302,0.0698	-9925.09
0.9252,0.0748	-9922.76
0.8743,0.1257	-9935.93
0.8558,0.1442	-9950.94
0.9936,0.0064	-9919.13
0.8112,0.1888	-9949.59
0.9250,0.0750	-9935.33
0.9098,0.0902	-9932.90
0.8773,0.1227	-9933.86
0.8349,0.1651	-9944.30
0.9932,0.0068	-9909.06
0.7744,0.2256	-9962.12
0.9230,0.0770	-9917.91
0.9279,0.0721	-9935.39
0.8650,0.1350	-9953.00
0.8768,0.1232	-9939.77
0.9936,0.0064	-9909.03
0.7697,0.2303	-9959.71
0.9159,0.0841	-9932.83
0.9241,0.0759	-9935.31
0.8577,0.1423	-9943.79
0.8651,0.1349	-9941.85
0.9944,0.0056	-9908.96
0.8004,0.1996	-9947.14
0.9167,0.0833	-9928.03
0.9248,0.0752	-9925.28
0.8920,0.1080	-9943.87
0.8861,0.1139	-9949.93
0.9951,0.0049	-9908.90
0.8021,0.1979	-9955.46
0.8712,0.1288	-9937.95
0.9342,0.0658	-9932.92
0.8754,0.1246	-9945.64
0.8861,0.1139	-9943.77
0.9943,0.0057	-9914.13
0.7830,0.2170	-9960.87
0.7997,0.2003	-9947.18
0.9362,0.0638	-9941.02
0.9038,0.0962	-9937.49
0.8687,0.1313	-9939.91
0.9940,0.0060	-9908.99
0.7992,0.2008	-9949.96
0.7980,0.2020	-9956.87
0.9405,0.0595	-9922.03
0.8836,0.1164	-9931.58
0.8762,0.1238	-9939.78
0.9945,0.0055	-9914.15
0.7942,0.2058	-9952.84
0.8252,0.1748	-9952.39
0.9339,0.0661	-9932.91
0.8833,0.1167	-9945.76
0.8597,0.1403	-9951.02
0.9946,0.0054	-9914.16
0.8327,0.1673	-9952.40
0.8338,0.1662	-9947.56
0.9256,0.0744	-9935.34
0.8706,0.1294	-9932.25
0.8703,0.1297	-9937.98
0.9945,0.0055	-9919.36
0.8437,0.1563	-9944.06
0.8253,0.1747	-9950.84
0.9344,0.0656	-9924.95
0.8822,0.1178	-9933.66
0.8701,0.1299	-9947.49
0.9940,0.0060	-9909.00
0.8532,0.1468	-9949.14
0.8243,0.1757	-9950.85
0.9462,0.0538	-9933.29
0.8530,0.1470	-9952.66
0.8898,0.1102	-9952.19
0.9925,0.0075	-9909.12
0.8379,0.1621	-9952.43
0.8205,0.1795	-9943.30
0.9166,0.0834	-9940.02
0.8468,0.1532	-9947.41
0.8890,0.1110	-9941.74
0.9908,0.0092	-9913.95
0.8307,0.1693	-9941.26
0.8212,0.1788	-9944.79
0.9300,0.0700	-9940.61
0.8462,0.1538	-9945.71
0.8749,0.1251	-9947.58
0.9909,0.0091	-9909.26
0.8180,0.1820	-9949.43
0.8286,0.1714	-9950.81
0.9398,0.0602	-9933.05
0.8511,0.1489	-9950.87
0.8668,0.1332	-9938.08
0.9930,0.0070	-9909.08
0.8475,0.1525	-9950.83
0.8551,0.1449	-9942.05
0.9560,0.0440	-9924.64
0.8259,0.1741	-9949.28
0.8502,0.1498	-9945.65
0.9946,0.0054	-9908.94
0.8356,0.1644	-9942.66
0.8530,0.1470	-9950.90
0.9608,0.0392	-9915.09
0.8447,0.1553	-9947.42
0.8668,0.1332	-9938.08
0.9951,0.0049	-9908.90
0.8125,0.1875	-9952.49
0.8286,0.1714	-9953.97
0.9660,0.0340	-9914.77
0.8104,0.1896	-9962.69
0.8823,0.1177	-9947.76
0.9960,0.0040	-9914.34
0.8684,0.1316	-9936.15
0.8568,0.1432	-9952.75
0.9664,0.0336	-9931.54
0.8154,0.1846	-9948.00
0.8915,0.1085	-9943.86
0.9956,0.0044	-9908.86
0.8692,0.1308	-9939.90
0.8818,0.1182	-9939.70
0.9688,0.0312	-9924.91
0.8479,0.1521	-9945.68
0.8628,0.1372	-9947.41
0.9959,0.0041	-9914.33
0.8731,0.1269	-9949.47
0.8652,0.1348	-9932.56
0.9611,0.0389	-9918.27
0.8854,0.1146	-9935.58
0.8475,0.1525	-9940.54
0.9959,0.0041	-9919.83
0.8973,0.1027	-9944.00
0.8585,0.1415	-9940.18
0.9577,0.0423	-9930.89
0.8969,0.1031	-9931.01
0.8229,0.1771	-9952.40
0.9952,0.0048	-9914.23
0.8727,0.1273	-9953.31
0.8513,0.1487	-9952.62
0.9507,0.0493	-9924.64
0.9104,0.0896	-9928.26
0.8412,0.1588	-9949.13
0.9951,0.0049	-9908.90
0.9083,0.0917	-9939.80
0.8615,0.1385	-9938.26
0.9489,0.0511	-9933.42
0.8899,0.1101	-9933.38
0.8363,0.1637	-9954.05
0.9957,0.0043	-9914.30
0.9159,0.0841	-9930.45
0.8489,0.1511	-9945.67
0.9352,0.0648	-9932.94
0.8953,0.1047	-9931.07
0.8276,0.1724	-9953.96
0.9961,0.0039	-9908.82
0.8979,0.1021	-9941.84
0.8556,0.1444	-9942.04
0.9447,0.0553	-9921.88
0.8809,0.1191	-9939.71
0.8144,0.1856	-9961.34
0.9958,0.0042	-9908.84
0.9101,0.0899	-9932.90
0.8517,0.1483	-9945.64
0.9409,0.0591	-9935.85
0.8705,0.1295	-9945.59
0.8337,0.1663	-9942.73
0.9959,0.0041	-9908.84
0.8997,0.1003	-9937.49
0.8391,0.1609	-9952.44
0.9381,0.0619	-9930.29
0.8610,0.1390	-9932.81
0.8219,0.1781	-9953.94
0.9967,0.0033	-9908.77
0.9091,0.0909	-9932.91
0.8330,0.1670	-9941.15
0.9373,0.0627	-9924.87
0.8499,0.1501	-9942.19
0.8095,0.1905	-9945.30
0.9968,0.0032	-9914.51
0.9345,0.0655	-9924.95
0.7896,0.2104	-9952.97
0.9352,0.0648	-9924.93
0.8644,0.1356	-9945.57
0.8109,0.1891	-9955.43
0.9964,0.0036	-9920.03
0.9424,0.0576	-9933.14
0.8132,0.1868	-9955.43
0.9272,0.0728	-9925.19
0.8499,0.1501	-9947.39
0.8188,0.1812	-9941.87
0.9959,0.0041	-9908.83
0.9436,0.0564	-9921.91
0.8228,0.1772	-9952.40
0.9453,0.0547	-9930.40
0.8614,0.1386	-9936.44
0.8576,0.1424	-9942.00
0.9960,0.0040	-9908.83
0.9534,0.0466	-9924.63
0.8368,0.1632	-9945.88
0.9519,0.0481	-9921.65
0.8631,0.1369	-9943.73
0.8495,0.1505	-9940.47
0.9960,0.0040	-9908.83
0.9586,0.0414	-9912.09
0.8594,0.1406	-9945.58
0.9596,0.0404	-9931.00
0.8494,0.1506	-9943.93
0.8503,0.1497	-9938.70
0.9954,0.0046	-9908.88
0.9531,0.0469	-9933.67
0.8523,0.1477	-9947.38
0.9531,0.0469	-9927.64
0.8391,0.1609	-9945.83
0.7996,0.2004	-9962.40
0.9941,0.0059	-9908.98
0.9508,0.0492	-9924.64
0.8614,0.1386	-9936.44
0.9516,0.0484	-9927.62
0.7880,0.2120	-9950.39
0.7819,0.2181	-9953.21
0.9939,0.0061	-9909.01
0.9605,0.0395	-9921.49
0.8837,0.1163	-9937.66
0.9504,0.0496	-9927.60
0.8122,0.1878	-9945.17
0.7613,0.2387	-9965.65
0.9949,0.0051	-9908.92
0.9549,0.0451	-9927.69
0.8901,0.1099	-9941.74
0.9564,0.0436	-9924.64
0.8368,0.1632	-9950.78
0.7920,0.2080	-9951.57
0.9932,0.0068	-9909.06
0.9511,0.0489	-9930.58
0.8857,0.1143	-9939.67
0.9662,0.0338	-9918.11
0.8457,0.1543	-9940.61
0.8125,0.1875	-9951.03
0.9935,0.0065	-9909.03
0.9396,0.0604	-9919.32
0.8658,0.1342	-9953.03
0.9690,0.0310	-9928.37
0.8579,0.1421	-9952.78
0.8071,0.1929	-9952.57
0.9936,0.0064	-9919.12
0.9290,0.0710	-9935.42
0.8317,0.1683	-9947.60
0.9596,0.0404	-9918.33
0.8761,0.1239	-9953.47
0.7934,0.2066	-9964.97
0.9938,0.0062	-9909.01
0.9087,0.0913	-9932.92
0.8739,0.1261	-9941.75
0.9591,0.0409	-9921.51
0.8689,0.1311	-9938.02
0.7334,0.2666	-9964.71
0.9925,0.0075	-9909.12
0.8967,0.1033	-9937.50
0.8143,0.1857	-9952.47
0.9559,0.0441	-9927.71
0.8508,0.1492	-9942.16
0.7425,0.2575	-9965.63
0.9941,0.0059	-9908.99
0.9063,0.0937	-9937.50
0.7632,0.2368	-9960.98
0.9614,0.0386	-9937.55
0.8400,0.1600	-9950.79
0.7966,0.2034	-9959.61
0.9955,0.0045	-9914.26
0.9001,0.0999	-9933.09
0.7589,0.2411	-9963.34
0.9661,0.0339	-9918.11
0.8177,0.1823	-9946.43
0.7852,0.2148	-9966.07
0.9961,0.0039	-9919.90
0.8979,0.1021	-9933.15
0.7726,0.2274	-9960.90
0.9609,0.0391	-9921.48
0.8113,0.1887	-9952.51
0.7433,0.2567	-9962.44
0.9952,0.0048	-9908.90
0.9026,0.0974	-9930.81
0.7782,0.2218	-9948.32
0.9602,0.0398	-9927.86
0.8285,0.1715	-9950.82
0.7503,0.2497	-9954.60
0.9962,0.0038	-9908.81
0.9158,0.0842	-9925.68
0.8144,0.1856	-9945.07
0.9572,0.0428	-9921.54
0.8444,0.1556	-9955.88
0.7525,0.2475	-9953.37
0.9969,0.0031	-9908.76
0.9132,0.0868	-9930.50
0.8175,0.1825	-9946.44
0.9647,0.0353	-9928.08
0.8557,0.1443	-9945.60
0.7588,0.2412	-9959.90
0.9969,0.0031	-9908.76
0.8973,0.1027	-9935.33
0.8101,0.1899	-9949.62
0.9720,0.0280	-9917.99
0.8685,0.1315	-9941.81
0.7578,0.2422	-9963.34
0.9969,0.0031	-9908.75
0.9009,0.0991	-9933.07
0.8310,0.1690	-9949.21
0.9766,0.0234	-9921.68
0.8672,0.1328	-9932.44
0.7237,0.2763	-9969.73
0.9971,0.0029	-9908.74
0.8947,0.1053	-9937.52
0.8012,0.1988	-9952.68
0.9710,0.0290	-9914.49
0.8567,0.1433	-9949.17
0.7261,0.2739	-9961.93
0.9975,0.0025	-9908.70
0.8731,0.1269	-9937.90
0.7898,0.2102	-9955.61
0.9693,0.0307	-9918.03
0.8504,0.1496	-9959.55
0.7362,0.2638	-9961.58
0.9977,0.0023	-9914.75
0.8815,0.1185	-9943.72
0.8151,0.1849	-9950.98
0.9703,0.0297	-9924.99
0.8576,0.1424	-9942.00
0.7358,0.2642	-9967.74
0.9975,0.0025	-9914.70
0.8928,0.1072	-9939.65
0.8289,0.1711	-9941.35
0.9688,0.0312	-9918.04
0.8573,0.1427	-9942.00
0.7357,0.2643	-9958.53
0.9976,0.0024	-9914.72
0.8790,0.1210	-9935.77
0.8275,0.1725	-9953.96
0.9671,0.0329	-9921.47
0.8684,0.1316	-9938.03
0.7504,0.2496	-9954.60
0.9977,0.0023	-9908.68
0.8762,0.1238	-9941.73
0.8415,0.1585	-9944.11
0.9656,0.0344	-9924.80
0.8689,0.1311	-9941.80
0.7560,0.2440	-9950.91
0.9979,0.0021	-9908.67
0.8830,0.1170	-9951.82
0.8390,0.1610	-9947.48
0.9570,0.0430	-9930.84
0.8723,0.1277	-9957.13
0.7373,0.2627	-9961.55
0.9977,0.0023	-9908.68
0.8854,0.1146	-9945.81
0.8544,0.1456	-9940.30
0.9585,0.0415	-9927.79
0.8982,0.1018	-9937.49
0.7337,0.2663	-9959.64
0.9975,0.0025	-9908.70
0.8648,0.1352	-9940.00
0.8350,0.1650	-9958.90
0.9426,0.0574	-9933.15
0.8932,0.1068	-9937.53
0.7199,0.2801	-9963.13
0.9975,0.0025	-9908.70
0.8549,0.1451	-9940.29
0.8444,0.1556	-9942.35
0.9378,0.0622	-9933.00
0.8905,0.1095	-9929.17
0.6855,0.3145	-9970.27
0.9973,0.0027	-9908.72
0.8423,0.1577	-9940.75
0.8790,0.1210	-9943.70
0.9420,0.0580	-9933.12
0.8691,0.1309	-9947.48
0.6867,0.3133	-9971.02
0.9972,0.0028	-9908.73
0.8241,0.1759	-9943.13
0.8753,0.1247	-9943.69
0.9346,0.0654	-9932.93
0.8836,0.1164	-9947.80
0.7139,0.2861	-9964.28
0.9973,0.0027	-9914.63
0.8439,0.1561	-9949.12
0.8488,0.1512	-9950.84
0.9422,0.0578	-9930.34
0.8598,0.1402	-9941.95
0.7186,0.2814	-9966.93
0.9971,0.0029	-9908.73
0.8124,0.1876	-9955.43
0.8477,0.1523	-9938.82
0.9292,0.0708	-9937.99
0.8303,0.1697	-9952.39
0.7270,0.2730	-9960.92
0.9966,0.0034	-9908.78
0.8207,0.1793	-9952.42
0.8261,0.1739	-9953.95
0.9276,0.0724	-9935.38
0.8276,0.1724	-9947.68
0.7267,0.2733	-9958.00
0.9972,0.0028	-9908.73
0.8457,0.1543	-9945.71
0.8489,0.1511	-9949.12
0.9479,0.0521	-9927.57
0.8316,0.1684	-9941.22
0.7377,0.2623	-9960.50
0.9974,0.0026	-9908.71
0.8409,0.1591	-9944.13
0.8308,0.1692	-9952.39
0.9570,0.0430	-9924.64
0.8426,0.1574	-9945.77
0.7311,0.2689	-9962.75
0.9966,0.0034	-9908.77
0.8628,0.1372	-9951.09
0.8143,0.1857	-9948.04
0.9611,0.0389	-9918.27
0.8323,0.1677	-9949.19
0.7686,0.2314	-9958.52
0.9973,0.0027	-9908.72
0.8787,0.1213	-9937.76
0.8596,0.1404	-9938.33
0.9592,0.0408	-9930.98
0.8381,0.1619	-9955.72
0.7420,0.2580	-9966.69
0.9973,0.0027	-9914.64
0.8742,0.1258	-9949.50
0.8513,0.1487	-9950.87
0.9593,0.0407	-9921.50
0.8687,0.1313	-9945.58
0.7773,0.2227	-9957.13
0.9976,0.0024	-9908.70
0.8867,0.1133	-9933.49
0.8072,0.1928	-9942.55
0.9594,0.0406	-9924.66
0.8683,0.1317	-9936.15
0.7611,0.2389	-9954.06
0.9979,0.0021	-9914.84
0.8905,0.1095	-9937.56
0.8393,0.1607	-9955.75
0.9558,0.0442	-9918.49
0.8666,0.1334	-9956.80
0.7431,0.2569	-9961.38
0.9980,0.0020	-9908.66
0.8880,0.1120	-9933.45
0.8589,0.1411	-9941.97
0.9453,0.0547	-9930.40
0.8858,0.1142	-9931.48
0.7470,0.2530	-9955.87
0.9982,0.0018	-9908.65
0.9201,0.0799	-9925.48
0.8767,0.1233	-9937.81
0.9390,0.0610	-9927.56
0.8892,0.1108	-9939.66
0.7497,0.2503	-9957.93
0.9981,0.0019	-9908.65
0.9145,0.0855	-9937.59
0.8979,0.1021	-9939.67
0.9374,0.0626	-9922.16
0.8865,0.1135	-9933.50
0.7355,0.2645	-9962.63
0.9977,0.0023	-9908.68
0.9100,0.0900	-9939.84
0.9099,0.0901	-9939.84
0.9425,0.0575	-9927.55
0.8465,0.1535	-9954.24
0.7765,0.2235	-9950.91
0.9979,0.0021	-9914.84
0.9331,0.0669	-9932.90
0.9022,0.0978	-9937.49
0.9553,0.0447	-9921.57
0.8772,0.1228	-9949.59
0.8011,0.1989	-9952.68
0.9976,0.0024	-9908.70
0.9439,0.0561	-9924.73
0.8814,0.1186	-9935.70
0.9594,0.0406	-9934.15
0.9045,0.0955	-9941.99
0.7901,0.2099	-9958.26
0.9973,0.0027	-9914.62
0.9535,0.0465	-9918.59
0.8750,0.1250	-9937.85
0.9594,0.0406	-9921.50
0.9023,0.0977	-9944.16
0.7955,0.2045	-9954.17
0.9976,0.0024	-9908.69
0.9532,0.0468	-9921.62
0.8661,0.1339	-9960.51
0.9533,0.0467	-9915.58
0.8876,0.1124	-9941.73
0.8234,0.1766	-9952.40
0.9981,0.0019	-9908.65
0.9472,0.0528	-9927.56
0.8592,0.1408	-9941.96
0.9550,0.0450	-9918.52
0.9007,0.0993	-9939.69
0.8233,0.1767	-9943.17
0.9977,0.0023	-9908.69
0.9394,0.0606	-9930.30
0.8409,0.1591	-9949.13
0.9488,0.0512	-9924.66
0.8759,0.1241	-9949.55
0.7907,0.2093	-9951.61
0.9971,0.0029	-9908.74
0.9381,0.0619	-9924.85
0.8413,0.1587	-9945.79
0.9445,0.0555	-9933.22
0.8670,0.1330	-9943.70
0.8096,0.1904	-9948.19
0.9971,0.0029	-9914.56
0.9230,0.0770	-9942.75
0.8463,0.1537	-9944.00
0.9448,0.0552	-9927.55
0.8611,0.1389	-9947.40
0.7978,0.2022	-9952.76
0.9974,0.0026	-9908.71
0.9276,0.0724	-9932.83
0.8358,0.1642	-9950.79
0.9517,0.0483	-9927.62
0.8810,0.1190	-9945.72
0.8245,0.1755	-9946.21
0.9976,0.0024	-9908.70
0.9306,0.0694	-9925.07
0.8632,0.1368	-9943.73
0.9491,0.0509	-9924.66
0.8748,0.1252	-9949.52
0.8441,0.1559	-9954.19
0.9975,0.0025	-9908.70
0.9306,0.0694	-9925.07
0.8588,0.1412	-9941.97
0.9474,0.0526	-9930.46
0.8827,0.1173	-9941.71
0.8428,0.1572	-9940.72
0.9974,0.0026	-9914.67
0.9034,0.0966	-9935.25
0.8691,0.1309	-9951.27
0.9384,0.0616	-9930.29
0.8639,0.1361	-9934.48
0.8529,0.1471	-9938.59
0.9976,0.0024	-9908.69
0.8989,0.1011	-9935.31
0.8914,0.1086	-9943.86
0.9406,0.0594	-9919.27
0.8636,0.1364	-9949.26
0.8570,0.1430	-9945.59
0.9976,0.0024	-9908.69
0.8949,0.1051	-9941.80
0.9110,0.0890	-9935.21
0.9349,0.0651	-9919.61
0.8804,0.1196	-9945.71
0.8491,0.1509	-9943.94
0.9970,0.0030	-9908.74
0.8880,0.1120	-9937.59
0.9072,0.0928	-9935.22
0.9300,0.0700	-9917.34
0.8840,0.1160	-9933.59
0.8454,0.1546	-9949.12
0.9972,0.0028	-9908.73
0.8663,0.1337	-9945.57
0.8732,0.1268	-9943.68
0.9382,0.0618	-9938.45
0.8662,0.1338	-9938.10
0.8374,0.1626	-9958.98
0.9973,0.0027	-9914.63
0.8643,0.1357	-9938.16
0.8943,0.1057	-9933.25
0.9203,0.0797	-9927.92
0.8691,0.1309	-9945.58
0.8468,0.1532	-9938.86
0.9981,0.0019	-9908.66
0.8699,0.1301	-9943.69
0.8711,0.1289	-9945.60
0.9221,0.0779	-9935.28
0.8640,0.1360	-9941.87
0.8492,0.1508	-9952.58
0.9984,0.0016	-9908.63
0.8478,0.1522	-9943.97
0.8518,0.1482	-9943.89
0.9327,0.0673	-9922.38
0.8857,0.1143	-9951.96
0.8763,0.1237	-9939.77
0.9985,0.0015	-9908.62
0.8410,0.1590	-9959.12
0.8611,0.1389	-9943.75
0.9282,0.0718	-9930.28
0.8813,0.1187	-9939.71
0.8775,0.1225	-9939.76
0.9982,0.0018	-9908.64
0.8166,0.1834	-9959.91
0.8786,0.1214	-9929.85
0.9449,0.0551	-9919.02
0.8563,0.1437	-9949.17
0.8881,0.1119	-9939.66
0.9984,0.0016	-9908.62
0.8506,0.1494	-9966.52
0.8521,0.1479	-9943.88
0.9567,0.0433	-9918.45
0.8562,0.1438	-9943.81
0.9193,0.0807	-9937.68
0.9983,0.0017	-9908.64
0.8484,0.1516	-9962.90
0.8578,0.1422	-9940.19
0.9407,0.0593	-9922.03
0.8360,0.1640	-9947.53
0.9162,0.0838	-9928.05
0.9983,0.0017	-9908.63
0.8504,0.1496	-9945.65
0.8599,0.1401	-9941.95
0.9325,0.0675	-9922.38
0.8389,0.1611	-9942.54
0.9294,0.0706	-9932.85
0.9983,0.0017	-9908.63
0.8429,0.1571	-9940.72
0.8495,0.1505	-9945.66
0.9397,0.0603	-9924.81
0.8489,0.1511	-9943.94
0.9298,0.0702	-9927.68
0.9986,0.0014	-9908.61
0.8610,0.1390	-9949.22
0.8511,0.1489	-9943.90
0.9419,0.0581	-9933.12
0.8755,0.1245	-9935.89
0.9184,0.0816	-9935.24
0.9987,0.0013	-9908.60
0.8735,0.1265	-9935.96
0.8533,0.1467	-9942.10
0.9260,0.0740	-9930.29
0.8718,0.1282	-9943.69
0.9349,0.0651	-9924.94
0.9987,0.0013	-9908.60
0.8847,0.1153	-9947.83
0.8922,0.1078	-9950.22
0.9174,0.0826	-9923.19
0.8578,0.1422	-9936.60
0.9318,0.0682	-9935.49
0.9985,0.0015	-9908.62
0.9034,0.0966	-9941.96
0.9146,0.0854	-9925.73
0.8997,0.1003	-9944.07
0.8774,0.1226	-9945.66
0.9341,0.0659	-9932.92
0.9985,0.0015	-9908.62
0.9175,0.0825	-9942.46
0.9176,0.0824	-9935.23
0.9152,0.0848	-9932.84
0.8841,0.1159	-9939.68
0.9393,0.0607	-9924.82
0.9987,0.0013	-9908.60
0.9185,0.0815	-9927.97
0.9201,0.0799	-9935.26
0.9138,0.0862	-9939.93
0.8723,0.1277	-9937.92
0.9520,0.0480	-9930.61
0.9989,0.0011	-9908.58
0.8976,0.1024	-9944.01
0.9259,0.0741	-9922.72
0.9104,0.0896	-9935.21
0.8743,0.1257	-9943.69
0.9426,0.0574	-9921.95
0.9985,0.0015	-9921.65
0.8776,0.1224	-9951.58
0.9338,0.0662	-9930.26
0.8875,0.1125	-9939.66
0.8672,0.1328	-9951.21
0.9416,0.0584	-9927.55
0.9988,0.0012	-9908.59
0.8736,0.1264	-9947.55
0.9407,0.0593	-9924.79
0.8928,0.1072	-9946.01
0.8579,0.1421	-9940.19
0.9427,0.0573	-9921.95
0.9988,0.0012	-9908.59
0.8977,0.1023	-9930.98
0.9454,0.0546	-9936.11
0.8907,0.1093	-9935.46
0.8508,0.1492	-9938.68
0.9384,0.0616	-9922.12
0.9988,0.0012	-9908.60
0.8933,0.1067	-9943.90
0.9416,0.0584	-9933.11
0.8910,0.1090	-9943.85
0.8506,0.1494	-9947.39
0.9496,0.0504	-9918.78
0.9987,0.0013	-9908.60
0.8795,0.1205	-9945.69
0.9413,0.0587	-9935.87
0.8744,0.1256	-9949.51
0.8602,0.1398	-9945.58
0.9347,0.0653	-9927.61
0.9990,0.0010	-9908.58
0.8498,0.1502	-9949.12
0.9401,0.0599	-9927.56
0.8818,0.1182	-9937.69
0.8633,0.1367	-9949.26
0.9460,0.0540	-9924.69
0.9990,0.0010	-9908.58
0.8596,0.1404	-9951.02
0.9577,0.0423	-9915.29
0.8702,0.1298	-9939.88
0.8766,0.1234	-9955.46
0.9555,0.0445	-9924.63
0.9989,0.0011	-9915.41
0.8653,0.1347	-9949.29
0.9622,0.0378	-9924.71
0.8672,0.1328	-9941.82
0.8910,0.1090	-9941.75
0.9555,0.0445	-9927.70
0.9989,0.0011	-9908.58
0.8740,0.1260	-9943.68
0.9721,0.0279	-9921.54
0.8689,0.1311	-9938.02
0.8887,0.1113	-9941.73
0.9596,0.0404	-9921.50
0.9988,0.0012	-9908.59
0.8899,0.1101	-9939.65
0.9714,0.0286	-9910.95
0.8404,0.1596	-9949.13
0.8707,0.1293	-9949.41
0.9397,0.0603	-9933.05
0.9989,0.0011	-9908.58
0.9100,0.0900	-9928.27
0.9683,0.0317	-9931.74
0.7903,0.2097	-9956.93
0.8787,0.1213	-9941.72
0.9309,0.0691	-9927.66
0.9989,0.0011	-9908.58
0.8969,0.1031	-9935.34
0.9705,0.0295	-9918.01
0.7868,0.2132	-9954.36
0.8595,0.1405	-9936.52
0.9267,0.0733	-9927.75
0.9992,0.0008	-9908.56
0.8810,0.1190	-9945.72
0.9691,0.0309	-9921.48
0.7467,0.2533	-9964.53
0.8601,0.1399	-9949.21
0.9335,0.0665	-9930.26
0.9991,0.0009	-9908.57
0.8920,0.1080	-9935.43
0.9743,0.0257	-9914.33
0.7662,0.2338	-9962.13
0.8484,0.1516	-9949.12
0.9320,0.0680	-9932.88
0.9991,0.0009	-9908.57
0.8972,0.1028	-9928.83
0.9743,0.0257	-9910.69
0.7484,0.2516	-9952.53
0.8181,0.1819	-9958.45
0.9004,0.0996	-9928.68
0.9992,0.0008	-9908.56
0.8977,0.1023	-9939.67
0.9775,0.0225	-9925.49
0.8025,0.1975	-9945.65
0.8127,0.1873	-9949.56
0.8885,0.1115	-9941.73
0.9991,0.0009	-9908.57
0.8736,0.1264	-9943.68
0.9797,0.0203	-9917.97
0.7607,0.2393	-9964.49
0.8034,0.1966	-9955.45
0.8840,0.1160	-9933.59
0.9991,0.0009	-9908.57
0.8714,0.1286	-9941.77
0.9821,0.0179	-9914.02
0.7657,0.2343	-9952.66
0.7950,0.2050	-9947.40
0.8599,0.1401	-9945.58
0.9990,0.0010	-9908.58
0.8862,0.1138	-9935.56
0.9816,0.0184	-9910.05
0.7870,0.2130	-9954.36
0.8292,0.1708	-9957.13
0.8517,0.1483	-9952.63
0.9988,0.0012	-9908.59
0.9042,0.0958	-9930.76
0.9832,0.0168	-9926.19
0.8548,0.1452	-9947.38
0.8279,0.1721	-9950.82
0.8714,0.1286	-9945.60
0.9988,0.0012	-9908.59
0.9017,0.0983	-9937.49
0.9808,0.0192	-9921.93
0.8803,0.1197	-9939.72
0.8098,0.1902	-9955.43
0.8731,0.1269	-9947.54
0.9985,0.0015	-9908.61
0.9085,0.0915	-9942.10
0.9844,0.0156	-9909.81
0.8541,0.1459	-9947.38
0.8119,0.1881	-9946.65
0.8927,0.1073	-9935.41
0.9985,0.0015	-9908.62
0.9037,0.0963	-9933.01
0.9856,0.0144	-9909.71
0.8439,0.1561	-9944.05
0.8311,0.1689	-9961.95
0.8871,0.1129	-9943.79
0.9986,0.0014	-9908.61
0.8971,0.1029	-9941.83
0.9843,0.0157	-9913.96
0.8562,0.1438	-9947.38
0.8625,0.1375	-9945.57
0.8837,0.1163	-9933.60
0.9988,0.0012	-9908.59
0.8989,0.1011	-9939.68
0.9841,0.0159	-9913.96
0.8843,0.1157	-9945.78
0.8572,0.1428	-9945.59
0.8622,0.1378	-9934.57
0.9987,0.0013	-9908.60
0.9000,0.1000	-9939.69
0.9869,0.0131	-9909.60
0.8891,0.1109	-9943.82
0.8669,0.1331	-9932.46
0.8533,0.1467	-9945.62
0.9986,0.0014	-9908.61
0.9197,0.0803	-9930.38
0.9886,0.0114	-9913.92
0.8886,0.1114	-9956.27
0.8723,0.1277	-9939.84
0.8400,0.1600	-9950.79
0.9989,0.0011	-9908.59
0.9244,0.0756	-9952.84
0.9897,0.0103	-9913.93
0.8884,0.1116	-9931.36
0.8768,0.1232	-9949.58
0.8673,0.1327	-9934.31
0.9991,0.0009	-9908.56
0.9109,0.0891	-9930.56
0.9919,0.0081	-9913.98
0.8688,0.1312	-9945.58
0.8409,0.1591	-9944.13
