#isoforms=['ENSG00000186575.SE.4.A.up_ENSG00000186575.SE.4.A.SE1_ENSG00000186575.SE.4.A.dn','ENSG00000186575.SE.4.B.up_ENSG00000186575.SE.4.B.dn']	exon_lens=('ENSG00000186575.SE.4.A.up',128),('ENSG00000186575.SE.4.A.SE1',163),('ENSG00000186575.SE.4.A.dn',3847),('ENSG00000186575.SE.4.B.up',128),('ENSG00000186575.SE.4.B.dn',194)	iters=5000	burn_in=500	lag=10	percent_accept=83.91	proposal_type=drift	counts=(0,0):563,(1,0):2834,(1,1):315	assigned_counts=0:3043,1:106	chrom=chr22	strand=+	mRNA_starts=29678196,29678196	mRNA_ends=29698598,29694945
sampled_psi	log_score
0.6752,0.3248	-26353.03
0.5910,0.4090	-26377.58
0.6201,0.3799	-26369.63
0.6669,0.3331	-26369.27
0.6350,0.3650	-26367.80
0.6544,0.3456	-26368.02
0.6590,0.3410	-26365.56
0.6217,0.3783	-26368.60
0.6524,0.3476	-26366.71
0.6454,0.3546	-26367.23
0.6228,0.3772	-26372.58
0.6505,0.3495	-26357.36
0.6264,0.3736	-26374.15
0.6398,0.3602	-26356.87
0.6222,0.3778	-26368.58
0.6191,0.3809	-26365.29
0.6037,0.3963	-26367.84
0.6412,0.3588	-26361.98
0.6396,0.3604	-26367.21
0.6215,0.3785	-26372.08
0.6394,0.3606	-26361.49
0.6111,0.3889	-26376.74
0.6072,0.3928	-26375.38
0.6021,0.3979	-26375.43
0.6382,0.3618	-26366.65
0.6382,0.3618	-26365.52
0.6768,0.3232	-26364.81
0.5889,0.4111	-26377.62
0.6323,0.3677	-26368.92
0.5675,0.4325	-26381.10
0.6664,0.3336	-26363.71
0.6282,0.3718	-26371.58
0.6620,0.3380	-26360.93
0.5841,0.4159	-26373.00
0.6176,0.3824	-26374.98
0.6345,0.3655	-26363.95
0.6378,0.3622	-26368.92
0.5912,0.4088	-26378.31
0.6796,0.3204	-26358.19
0.5735,0.4265	-26377.66
0.6134,0.3866	-26371.25
0.6057,0.3943	-26374.53
0.6192,0.3808	-26368.68
0.6782,0.3218	-26358.92
0.6804,0.3196	-26361.23
0.5698,0.4302	-26377.93
0.6218,0.3782	-26371.58
0.5967,0.4033	-26374.37
0.6502,0.3498	-26368.53
0.6935,0.3065	-26347.98
0.6740,0.3260	-26353.78
0.5866,0.4134	-26376.63
0.6516,0.3484	-26367.32
0.6020,0.3980	-26375.84
0.6191,0.3809	-26369.17
0.6697,0.3303	-26370.16
0.6374,0.3626	-26363.84
0.5898,0.4102	-26374.33
0.6505,0.3495	-26362.95
0.6335,0.3665	-26367.82
0.6479,0.3521	-26370.91
0.6489,0.3511	-26364.81
0.6436,0.3564	-26374.30
0.6300,0.3700	-26366.81
0.6951,0.3049	-26353.72
0.6495,0.3505	-26375.91
0.6578,0.3422	-26372.07
0.6523,0.3477	-26364.19
0.6560,0.3440	-26366.14
0.5981,0.4019	-26370.74
0.6643,0.3357	-26360.93
0.6788,0.3212	-26355.94
0.6757,0.3243	-26367.69
0.6941,0.3059	-26358.62
0.6263,0.3737	-26373.64
0.5963,0.4037	-26370.87
0.6540,0.3460	-26371.83
0.6627,0.3373	-26371.06
0.6345,0.3655	-26364.50
0.6952,0.3048	-26363.61
0.6191,0.3809	-26369.66
0.6213,0.3787	-26367.62
0.6080,0.3920	-26364.85
0.6583,0.3417	-26367.51
0.6190,0.3810	-26371.12
0.6971,0.3029	-26356.26
0.6270,0.3730	-26363.78
0.5901,0.4099	-26374.68
0.6234,0.3766	-26370.56
0.6419,0.3581	-26371.29
0.5911,0.4089	-26383.10
0.6770,0.3230	-26366.30
0.6115,0.3885	-26373.57
0.5906,0.4094	-26373.92
0.6479,0.3521	-26368.47
0.6231,0.3769	-26372.58
0.6207,0.3793	-26372.57
0.6579,0.3421	-26359.65
0.6590,0.3410	-26370.17
0.6134,0.3866	-26369.86
0.6824,0.3176	-26355.18
0.6364,0.3636	-26364.99
0.6060,0.3940	-26377.11
0.6533,0.3467	-26372.42
0.6618,0.3382	-26362.94
0.6549,0.3451	-26375.08
0.6879,0.3121	-26360.76
0.6359,0.3641	-26363.89
0.5837,0.4163	-26379.13
0.6415,0.3585	-26360.22
0.6774,0.3226	-26358.91
0.6214,0.3786	-26369.60
0.6855,0.3145	-26365.33
0.6908,0.3092	-26362.50
0.6039,0.3961	-26370.34
0.6432,0.3568	-26364.27
0.6555,0.3445	-26362.91
0.5993,0.4007	-26380.31
0.6749,0.3251	-26366.91
0.6836,0.3164	-26350.56
0.6159,0.3841	-26366.46
0.6552,0.3448	-26363.56
0.6417,0.3583	-26370.12
0.6070,0.3930	-26378.42
0.6877,0.3123	-26356.01
0.6375,0.3625	-26364.40
0.5921,0.4079	-26376.44
0.6389,0.3611	-26370.07
0.7158,0.2842	-26356.35
0.5830,0.4170	-26377.80
0.6433,0.3567	-26368.98
0.6390,0.3610	-26372.92
0.6428,0.3572	-26376.02
0.6732,0.3268	-26361.75
0.6550,0.3450	-26363.56
0.5693,0.4307	-26378.25
0.6508,0.3492	-26364.81
0.6456,0.3544	-26359.43
0.6480,0.3520	-26375.80
0.6718,0.3282	-26359.57
0.6723,0.3277	-26361.01
0.6091,0.3909	-26372.27
0.6160,0.3840	-26372.59
0.5958,0.4042	-26367.43
0.6335,0.3665	-26367.82
0.6902,0.3098	-26357.66
0.6565,0.3435	-26371.98
0.6210,0.3790	-26377.02
0.5779,0.4221	-26378.96
0.6018,0.3982	-26376.26
0.6088,0.3912	-26377.15
0.6547,0.3453	-26357.80
0.6310,0.3690	-26365.17
0.6431,0.3569	-26363.68
0.5876,0.4124	-26376.59
0.6101,0.3899	-26372.25
0.5985,0.4015	-26373.90
0.6393,0.3607	-26359.77
0.6361,0.3639	-26363.89
0.7106,0.2894	-26345.24
0.5665,0.4335	-26380.07
0.6191,0.3809	-26369.17
0.5825,0.4175	-26372.16
0.6319,0.3681	-26370.00
0.6238,0.3762	-26362.47
0.7048,0.2952	-26360.07
0.5539,0.4461	-26384.85
0.6145,0.3855	-26372.61
0.5909,0.4091	-26376.47
0.6588,0.3412	-26366.87
0.6174,0.3826	-26368.27
0.7466,0.2534	-26345.42
0.6167,0.3833	-26374.49
0.6651,0.3349	-26365.05
0.6460,0.3540	-26360.01
0.6697,0.3303	-26358.14
0.6298,0.3702	-26359.90
0.7704,0.2296	-26341.53
0.6283,0.3717	-26365.81
0.6822,0.3178	-26354.42
0.6044,0.3956	-26374.55
0.6399,0.3601	-26363.76
0.6272,0.3728	-26364.29
0.7425,0.2575	-26347.28
0.6348,0.3652	-26374.99
0.6815,0.3185	-26360.51
0.6027,0.3973	-26375.84
0.6373,0.3627	-26375.11
0.5989,0.4011	-26378.30
0.7268,0.2732	-26347.45
0.6318,0.3682	-26365.68
0.7126,0.2874	-26353.42
0.6190,0.3810	-26372.09
0.6311,0.3689	-26370.54
0.6239,0.3761	-26371.57
0.7377,0.2623	-26357.32
0.5976,0.4024	-26377.89
0.7009,0.2991	-26354.70
0.6065,0.3935	-26365.01
0.6058,0.3942	-26371.95
0.5919,0.4081	-26370.13
0.7072,0.2928	-26356.72
0.6115,0.3885	-26378.56
0.7035,0.2965	-26366.89
0.6180,0.3820	-26376.43
0.6441,0.3559	-26350.01
0.6064,0.3936	-26369.33
0.6776,0.3224	-26355.94
0.6176,0.3824	-26370.66
0.6636,0.3364	-26357.53
0.6266,0.3734	-26366.91
0.6713,0.3287	-26360.28
0.6217,0.3783	-26369.59
0.6848,0.3152	-26352.87
0.6306,0.3694	-26371.07
0.6177,0.3823	-26367.30
0.6378,0.3622	-26372.88
0.6755,0.3245	-26354.48
0.6430,0.3570	-26367.21
0.7794,0.2206	-26320.97
0.6315,0.3685	-26370.54
0.5743,0.4257	-26379.71
0.6943,0.3057	-26361.09
0.6640,0.3360	-26367.06
0.6357,0.3643	-26366.13
0.7748,0.2252	-26338.24
0.6000,0.4000	-26366.14
0.6189,0.3811	-26369.67
0.6945,0.3055	-26357.81
0.6962,0.3038	-26367.84
0.6480,0.3520	-26374.58
0.7748,0.2252	-26345.66
0.6037,0.3963	-26373.73
0.6356,0.3644	-26365.57
0.6856,0.3144	-26374.69
0.6672,0.3328	-26367.20
0.6475,0.3525	-26364.82
0.7331,0.2669	-26335.62
0.6487,0.3513	-26362.36
0.6452,0.3548	-26364.83
0.6754,0.3246	-26355.95
0.6532,0.3468	-26360.39
0.6443,0.3557	-26367.81
0.7351,0.2649	-26344.80
0.6286,0.3714	-26368.95
0.6832,0.3168	-26359.03
0.7257,0.2743	-26357.13
0.6556,0.3444	-26368.71
0.7021,0.2979	-26349.60
0.7092,0.2908	-26340.79
0.6338,0.3662	-26367.81
0.6690,0.3310	-26365.89
0.7264,0.2736	-26344.50
0.6842,0.3158	-26352.87
0.6959,0.3041	-26352.90
0.7026,0.2974	-26356.48
0.6379,0.3621	-26370.62
0.6556,0.3444	-26359.05
0.7493,0.2507	-26343.41
0.6767,0.3233	-26367.02
0.7051,0.2949	-26353.99
0.6857,0.3143	-26359.88
0.6400,0.3600	-26364.33
0.6354,0.3646	-26369.47
0.7248,0.2752	-26366.74
0.6770,0.3230	-26351.50
0.6272,0.3728	-26370.01
0.6811,0.3189	-26353.66
0.6604,0.3396	-26360.27
0.6833,0.3167	-26360.57
0.6913,0.3087	-26352.86
0.6438,0.3562	-26362.48
0.6135,0.3865	-26370.78
0.6992,0.3008	-26353.81
0.6713,0.3287	-26357.42
0.6890,0.3110	-26355.24
0.6728,0.3272	-26353.81
0.6170,0.3830	-26365.43
0.6306,0.3694	-26373.74
0.6662,0.3338	-26357.48
0.6653,0.3347	-26356.12
0.6574,0.3426	-26362.91
0.6555,0.3445	-26355.19
0.6644,0.3356	-26362.29
0.5991,0.4009	-26379.50
0.6763,0.3237	-26353.00
0.5939,0.4061	-26372.97
0.6262,0.3738	-26368.99
0.6084,0.3916	-26382.87
0.6767,0.3233	-26360.37
0.5912,0.4088	-26378.68
0.6548,0.3452	-26356.51
0.6634,0.3366	-26361.61
0.6470,0.3530	-26367.85
0.5777,0.4223	-26371.46
0.6649,0.3351	-26365.73
0.5871,0.4129	-26379.78
0.6488,0.3512	-26366.04
0.6428,0.3572	-26360.75
0.6410,0.3590	-26377.06
0.6024,0.3976	-26376.26
0.6546,0.3454	-26371.23
0.5955,0.4045	-26376.35
0.6563,0.3437	-26364.85
0.6045,0.3955	-26375.82
0.6754,0.3246	-26354.49
0.5880,0.4120	-26378.71
0.6602,0.3398	-26365.58
0.6011,0.3989	-26370.94
0.6187,0.3813	-26370.16
0.6155,0.3845	-26365.07
0.6598,0.3402	-26356.30
0.5930,0.4070	-26381.31
0.6194,0.3806	-26368.68
0.5913,0.4087	-26376.83
0.6307,0.3693	-26371.07
0.6277,0.3723	-26367.40
0.6622,0.3378	-26369.68
0.5922,0.4078	-26374.20
0.6250,0.3750	-26372.08
0.6320,0.3680	-26370.00
0.6159,0.3841	-26367.40
0.6285,0.3715	-26365.80
0.6424,0.3576	-26367.21
0.6104,0.3896	-26376.73
0.5965,0.4035	-26379.46
0.5820,0.4180	-26378.17
0.6206,0.3794	-26369.13
0.6506,0.3494	-26371.03
0.6633,0.3367	-26356.86
0.6016,0.3984	-26373.38
0.5988,0.4012	-26380.70
0.5823,0.4177	-26374.17
0.6285,0.3715	-26379.47
0.6066,0.3934	-26376.68
0.6693,0.3307	-26360.26
0.6107,0.3893	-26371.78
0.6186,0.3814	-26373.54
0.6304,0.3696	-26370.53
0.6036,0.3964	-26372.05
0.6108,0.3892	-26376.28
0.6199,0.3801	-26375.02
0.5925,0.4075	-26373.80
0.6135,0.3865	-26371.24
0.6253,0.3747	-26374.64
0.6142,0.3858	-26373.55
0.5983,0.4017	-26375.10
0.5761,0.4239	-26375.65
0.6199,0.3801	-26358.88
0.6137,0.3863	-26378.18
0.6301,0.3699	-26368.40
0.6431,0.3569	-26367.21
0.5993,0.4007	-26377.49
0.6225,0.3775	-26370.07
0.6658,0.3342	-26356.11
0.6010,0.3990	-26375.04
0.6147,0.3853	-26371.21
0.6080,0.3920	-26375.38
0.6149,0.3851	-26380.09
0.6255,0.3745	-26373.11
0.6532,0.3468	-26362.29
0.6065,0.3935	-26374.52
0.6301,0.3699	-26366.80
0.6306,0.3694	-26365.18
0.6159,0.3841	-26372.12
0.6248,0.3752	-26378.20
0.6367,0.3633	-26370.04
0.6062,0.3938	-26375.39
0.6518,0.3482	-26358.55
0.6184,0.3816	-26375.47
0.5879,0.4121	-26375.51
0.6300,0.3700	-26366.81
0.5771,0.4229	-26376.19
0.6496,0.3504	-26368.51
0.6346,0.3654	-26367.81
0.5382,0.4618	-26381.39
0.5911,0.4089	-26377.57
0.6373,0.3627	-26371.73
0.5548,0.4452	-26380.88
0.6551,0.3449	-26359.07
0.6132,0.3868	-26373.09
0.5196,0.4804	-26386.71
0.5664,0.4336	-26380.07
0.6001,0.3999	-26373.44
0.5960,0.4040	-26373.62
0.6791,0.3209	-26354.44
0.6406,0.3594	-26366.63
0.5695,0.4305	-26381.87
0.5911,0.4089	-26380.52
0.6539,0.3461	-26370.56
0.6476,0.3524	-26362.99
0.6750,0.3250	-26358.88
0.6221,0.3779	-26373.07
0.5830,0.4170	-26374.79
0.5981,0.4019	-26373.52
0.6395,0.3605	-26369.50
0.6208,0.3792	-26375.04
0.6821,0.3179	-26378.08
0.6475,0.3525	-26356.91
0.6721,0.3279	-26360.29
0.6218,0.3782	-26368.59
0.6223,0.3777	-26364.09
0.6097,0.3903	-26372.26
0.6095,0.3905	-26365.14
0.6312,0.3688	-26374.83
0.6136,0.3864	-26370.31
0.6581,0.3419	-26365.53
0.6159,0.3841	-26371.18
0.6143,0.3857	-26374.48
0.6808,0.3192	-26358.97
0.5906,0.4094	-26370.99
0.6212,0.3788	-26373.56
0.6322,0.3678	-26362.96
0.6074,0.3926	-26375.38
0.6382,0.3618	-26371.19
0.7202,0.2798	-26359.51
0.6031,0.3969	-26374.58
0.6424,0.3576	-26363.69
0.6518,0.3482	-26364.81
0.6308,0.3692	-26375.35
0.6755,0.3245	-26362.55
0.7075,0.2925	-26358.50
0.6220,0.3780	-26371.08
0.6159,0.3841	-26376.37
0.6747,0.3253	-26370.55
0.6877,0.3123	-26356.80
0.6775,0.3225	-26357.42
0.7362,0.2638	-26337.66
0.6678,0.3322	-26362.35
0.6211,0.3789	-26366.64
0.7185,0.2815	-26347.17
0.6812,0.3188	-26352.90
0.6678,0.3322	-26368.63
0.7091,0.2909	-26349.70
0.6691,0.3309	-26360.26
0.5965,0.4035	-26375.16
0.7068,0.2932	-26346.14
0.6715,0.3285	-26364.57
0.6752,0.3248	-26359.61
0.7158,0.2842	-26350.81
0.6749,0.3251	-26358.15
0.6127,0.3873	-26375.39
0.7669,0.2331	-26342.43
0.6547,0.3453	-26367.39
0.7072,0.2928	-26353.19
0.7194,0.2806	-26342.49
0.6840,0.3160	-26340.52
0.6660,0.3340	-26364.39
0.7154,0.2846	-26337.89
0.6904,0.3096	-26351.25
0.6990,0.3010	-26353.80
0.7006,0.2994	-26343.64
0.6099,0.3901	-26369.57
0.7075,0.2925	-26347.90
0.7174,0.2826	-26349.01
0.7126,0.2874	-26356.14
0.6960,0.3040	-26359.53
0.6903,0.3097	-26364.08
0.6136,0.3864	-26369.85
0.7315,0.2685	-26354.68
0.6604,0.3396	-26369.58
0.6786,0.3214	-26345.47
0.6980,0.3020	-26346.24
0.6992,0.3008	-26360.56
0.6301,0.3699	-26365.74
0.7183,0.2817	-26346.23
0.6497,0.3503	-26363.57
0.6812,0.3188	-26365.81
0.7343,0.2657	-26344.76
0.6868,0.3132	-26356.00
0.6320,0.3680	-26368.92
0.6940,0.3060	-26336.50
0.6061,0.3939	-26380.13
0.6245,0.3755	-26370.55
0.7419,0.2581	-26348.30
0.7149,0.2851	-26357.21
0.6521,0.3479	-26352.88
0.6731,0.3269	-26370.41
0.6025,0.3975	-26374.59
0.6380,0.3620	-26370.62
0.7061,0.2939	-26352.27
0.6744,0.3256	-26359.60
0.6998,0.3002	-26367.36
0.7018,0.2982	-26359.87
0.6047,0.3953	-26368.17
0.6343,0.3657	-26368.91
0.7371,0.2629	-26334.57
0.6769,0.3231	-26350.03
0.6625,0.3375	-26363.63
0.6785,0.3215	-26354.44
0.6030,0.3970	-26372.49
0.6693,0.3307	-26354.62
0.7195,0.2805	-26352.85
0.6937,0.3063	-26358.60
0.6391,0.3609	-26367.21
0.6901,0.3099	-26363.26
0.6306,0.3694	-26376.41
0.6543,0.3457	-26362.28
0.7022,0.2978	-26354.75
0.6481,0.3519	-26363.59
0.6522,0.3478	-26372.36
0.6854,0.3146	-26366.10
0.6381,0.3619	-26365.52
0.6867,0.3133	-26350.50
0.6545,0.3455	-26358.44
0.6798,0.3202	-26353.68
0.6651,0.3349	-26362.99
0.7012,0.2988	-26346.18
0.6659,0.3341	-26364.38
0.6888,0.3112	-26357.62
0.6332,0.3668	-26375.47
0.6610,0.3390	-26356.26
0.6404,0.3596	-26365.48
0.6656,0.3344	-26365.75
0.6400,0.3600	-26363.76
0.6932,0.3068	-26357.76
0.6009,0.3991	-26373.00
0.6483,0.3517	-26372.76
0.6201,0.3799	-26370.12
0.6559,0.3441	-26364.20
0.6253,0.3747	-26374.13
0.6651,0.3349	-26360.93
0.6532,0.3468	-26365.45
0.6256,0.3744	-26370.54
0.6172,0.3828	-26372.11
0.6549,0.3451	-26370.60
0.6218,0.3782	-26362.63
0.6842,0.3158	-26353.64
0.6269,0.3731	-26367.42
0.6558,0.3442	-26368.07
0.6004,0.3996	-26370.17
0.6457,0.3543	-26364.23
0.6363,0.3637	-26372.27
0.6774,0.3226	-26354.46
0.6645,0.3355	-26364.35
0.6263,0.3737	-26363.83
0.6264,0.3736	-26365.89
0.6977,0.3023	-26351.26
0.6882,0.3118	-26352.06
0.7000,0.3000	-26352.13
0.6469,0.3531	-26367.24
0.6362,0.3638	-26359.41
0.6440,0.3560	-26367.81
0.6097,0.3903	-26369.13
0.6511,0.3489	-26359.20
0.6687,0.3313	-26355.34
0.6611,0.3389	-26360.93
0.6515,0.3485	-26367.32
0.6121,0.3879	-26370.83
0.6045,0.3955	-26371.58
0.6296,0.3704	-26367.35
0.6420,0.3580	-26365.46
0.6825,0.3175	-26362.84
0.6189,0.3811	-26372.09
0.6479,0.3521	-26367.86
0.6402,0.3598	-26360.29
0.6524,0.3476	-26366.08
0.6433,0.3567	-26368.98
0.6788,0.3212	-26367.91
0.6436,0.3564	-26363.08
0.6457,0.3543	-26357.62
0.6506,0.3494	-26371.03
0.6688,0.3312	-26362.37
0.6335,0.3665	-26371.10
0.6498,0.3502	-26362.34
0.6787,0.3213	-26357.43
0.6606,0.3394	-26357.60
0.6365,0.3635	-26365.55
0.6808,0.3192	-26369.57
0.6308,0.3692	-26366.25
0.6939,0.3061	-26363.52
0.6779,0.3221	-26355.19
0.6779,0.3221	-26354.45
0.5716,0.4284	-26378.08
0.6860,0.3140	-26351.29
0.6666,0.3334	-26365.10
0.6819,0.3181	-26349.84
0.7027,0.2973	-26354.77
0.6651,0.3349	-26365.73
0.6058,0.3942	-26379.69
0.6984,0.3016	-26358.82
0.6777,0.3223	-26353.71
0.6999,0.3001	-26354.67
0.6896,0.3104	-26366.43
0.6893,0.3107	-26358.43
0.6271,0.3729	-26370.01
0.6978,0.3022	-26362.14
0.6472,0.3528	-26365.42
0.7115,0.2885	-26361.49
0.6716,0.3284	-26356.71
0.6645,0.3355	-26358.19
0.6628,0.3372	-26360.93
0.7145,0.2855	-26350.76
0.6877,0.3123	-26359.96
0.6619,0.3381	-26354.88
0.6643,0.3357	-26371.85
0.6597,0.3403	-26364.25
0.6923,0.3077	-26354.49
0.6821,0.3179	-26360.53
0.6957,0.3043	-26363.65
0.6559,0.3441	-26366.78
0.6362,0.3638	-26366.12
0.6730,0.3270	-26368.24
0.6837,0.3163	-26369.83
0.6321,0.3679	-26367.84
0.6830,0.3170	-26361.33
0.6535,0.3465	-26364.19
0.6363,0.3637	-26372.27
0.6822,0.3178	-26359.77
0.6908,0.3092	-26344.82
0.6489,0.3511	-26364.81
0.6836,0.3164	-26356.73
0.6641,0.3359	-26351.38
0.6079,0.3921	-26374.06
0.7042,0.2958	-26358.29
0.6960,0.3040	-26349.59
0.6183,0.3817	-26365.34
0.6613,0.3387	-26355.58
0.6967,0.3033	-26357.07
0.5893,0.4107	-26380.14
0.6957,0.3043	-26354.56
0.6788,0.3212	-26366.41
0.6617,0.3383	-26364.95
0.6444,0.3556	-26363.65
0.6971,0.3029	-26352.92
0.5798,0.4202	-26374.39
0.6788,0.3212	-26361.17
0.6171,0.3829	-26371.63
0.6826,0.3174	-26370.50
0.6755,0.3245	-26364.75
0.7009,0.2991	-26345.34
0.6053,0.3947	-26365.56
0.7018,0.2982	-26351.31
0.6048,0.3952	-26372.42
0.6406,0.3594	-26371.83
0.6599,0.3401	-26349.67
0.6693,0.3307	-26356.73
0.6176,0.3824	-26373.06
0.6853,0.3147	-26361.43
0.6451,0.3549	-26364.24
0.6964,0.3036	-26352.91
0.6593,0.3407	-26365.56
0.6673,0.3327	-26356.07
0.6258,0.3742	-26370.03
0.6819,0.3181	-26365.86
0.6251,0.3749	-26366.45
0.6725,0.3275	-26358.86
0.6313,0.3687	-26365.16
0.6956,0.3044	-26342.16
0.5723,0.4277	-26370.75
0.7070,0.2930	-26352.30
0.6288,0.3712	-26364.21
0.6239,0.3761	-26375.11
0.6455,0.3545	-26365.43
0.6970,0.3030	-26362.08
0.5820,0.4180	-26381.15
0.6768,0.3232	-26356.68
0.6432,0.3568	-26371.92
0.5753,0.4247	-26379.06
0.6179,0.3821	-26365.37
0.6930,0.3070	-26347.17
0.5786,0.4214	-26374.82
0.6557,0.3443	-26363.56
0.6718,0.3282	-26360.29
0.6320,0.3680	-26368.92
0.6414,0.3586	-26364.88
0.6554,0.3446	-26363.56
0.5755,0.4245	-26380.58
0.6949,0.3051	-26359.48
0.6746,0.3254	-26356.69
0.5804,0.4196	-26381.47
0.6460,0.3540	-26360.01
0.5926,0.4074	-26373.80
0.6297,0.3703	-26364.16
0.6504,0.3496	-26374.13
0.6453,0.3547	-26375.00
0.6152,0.3848	-26370.73
0.6828,0.3172	-26375.88
0.5390,0.4610	-26384.23
0.6326,0.3674	-26375.98
0.5783,0.4217	-26378.63
0.6469,0.3531	-26371.48
0.6901,0.3099	-26351.25
0.6587,0.3413	-26362.92
0.5716,0.4284	-26379.81
0.6533,0.3467	-26372.43
0.6527,0.3473	-26370.50
0.7019,0.2981	-26359.02
0.6486,0.3514	-26361.75
0.6799,0.3201	-26367.99
0.5868,0.4132	-26376.97
0.6506,0.3494	-26364.81
0.6497,0.3503	-26364.19
0.6677,0.3323	-26365.83
0.6336,0.3664	-26372.20
0.6251,0.3749	-26368.50
0.6421,0.3579	-26373.64
0.6076,0.3924	-26371.88
0.6651,0.3349	-26362.30
0.6923,0.3077	-26354.49
0.6318,0.3682	-26366.22
0.6043,0.3957	-26372.86
0.6345,0.3655	-26376.08
0.6066,0.3934	-26373.65
0.6548,0.3452	-26360.35
0.6521,0.3479	-26357.27
0.6150,0.3850	-26374.95
0.6030,0.3970	-26372.91
0.6483,0.3517	-26365.42
0.6240,0.3760	-26368.53
0.6666,0.3334	-26361.63
0.6129,0.3871	-26371.72
0.6067,0.3933	-26368.45
0.6267,0.3733	-26372.09
0.6357,0.3643	-26366.68
0.5970,0.4030	-26377.11
0.6807,0.3193	-26365.02
0.6109,0.3891	-26370.42
0.6271,0.3729	-26378.85
0.6077,0.3923	-26370.13
0.6235,0.3765	-26368.04
0.6178,0.3822	-26373.06
0.6615,0.3385	-26364.95
0.6359,0.3641	-26359.99
0.6013,0.3987	-26374.62
0.5619,0.4381	-26381.09
0.5607,0.4393	-26382.38
0.6211,0.3789	-26367.14
0.5770,0.4230	-26376.83
0.6690,0.3310	-26358.85
0.6206,0.3794	-26370.60
0.5374,0.4626	-26384.21
0.6326,0.3674	-26368.92
0.6029,0.3971	-26375.42
0.6049,0.3951	-26374.54
0.6305,0.3695	-26368.40
0.5970,0.4030	-26370.42
0.5958,0.4042	-26382.55
0.6387,0.3613	-26371.77
0.6487,0.3513	-26364.81
0.6284,0.3716	-26372.11
0.6004,0.3996	-26379.94
0.5962,0.4038	-26376.73
0.6033,0.3967	-26369.96
0.6144,0.3856	-26378.20
0.6287,0.3713	-26368.95
0.6200,0.3800	-26368.17
0.5924,0.4076	-26382.79
0.6382,0.3618	-26364.38
0.6008,0.3992	-26376.27
0.5954,0.4046	-26371.33
0.6626,0.3374	-26360.93
0.6603,0.3397	-26366.25
0.5992,0.4008	-26372.27
0.6244,0.3756	-26377.67
0.6026,0.3974	-26370.84
0.6167,0.3833	-26370.21
0.6860,0.3140	-26354.42
0.6473,0.3527	-26364.21
0.5994,0.4006	-26377.90
0.5789,0.4211	-26376.38
0.6360,0.3640	-26377.28
0.6351,0.3649	-26365.03
0.6768,0.3232	-26349.29
0.6281,0.3719	-26360.57
0.5937,0.4063	-26371.08
0.6003,0.3997	-26379.93
0.6500,0.3500	-26366.67
0.6591,0.3409	-26366.88
0.7371,0.2629	-26346.94
0.6563,0.3437	-26362.27
0.5913,0.4087	-26378.31
0.6539,0.3461	-26370.55
0.6066,0.3934	-26372.35
0.6200,0.3800	-26370.61
0.7032,0.2968	-26352.20
0.6520,0.3480	-26361.68
0.6137,0.3863	-26368.46
0.6456,0.3544	-26366.63
0.6181,0.3819	-26372.58
0.6054,0.3946	-26373.25
0.6547,0.3453	-26368.67
0.6336,0.3664	-26363.98
0.6188,0.3812	-26377.90
0.6590,0.3410	-26370.83
0.6596,0.3404	-26369.54
0.6609,0.3391	-26370.94
0.6437,0.3563	-26369.58
0.6173,0.3827	-26367.80
0.5787,0.4213	-26381.79
0.6615,0.3385	-26349.54
0.6603,0.3397	-26360.93
0.6249,0.3751	-26375.14
0.6327,0.3673	-26361.85
0.6279,0.3721	-26368.96
0.5934,0.4066	-26375.65
0.6132,0.3868	-26367.56
0.6397,0.3603	-26368.93
0.6234,0.3766	-26369.55
0.6181,0.3819	-26374.99
0.5839,0.4161	-26378.45
0.6071,0.3929	-26372.33
0.6248,0.3752	-26372.59
0.6561,0.3439	-26362.27
0.6307,0.3693	-26375.89
0.5910,0.4090	-26381.99
0.6017,0.3983	-26380.80
0.6250,0.3750	-26371.06
0.6319,0.3681	-26370.00
0.6903,0.3097	-26356.86
0.6325,0.3675	-26370.55
0.5867,0.4133	-26382.58
0.6100,0.3900	-26370.01
0.6243,0.3757	-26362.43
0.6591,0.3409	-26353.69
0.7166,0.2834	-26340.64
0.6427,0.3573	-26369.56
0.6021,0.3979	-26378.33
0.6216,0.3784	-26372.57
0.6044,0.3956	-26377.10
0.6336,0.3664	-26374.39
0.7298,0.2702	-26345.59
0.6224,0.3776	-26379.57
0.6178,0.3822	-26374.02
0.6491,0.3509	-26370.96
0.6515,0.3485	-26369.19
0.6502,0.3498	-26364.81
0.6887,0.3113	-26351.26
0.6286,0.3714	-26376.32
0.5959,0.4041	-26373.63
0.6239,0.3761	-26375.11
0.6592,0.3408	-26361.60
0.6060,0.3940	-26371.94
0.7003,0.2997	-26358.93
0.6359,0.3641	-26365.01
0.6178,0.3822	-26373.06
0.6569,0.3431	-26370.71
0.6408,0.3592	-26370.10
0.5941,0.4059	-26379.05
0.7210,0.2790	-26337.75
0.6474,0.3526	-26362.99
0.6321,0.3679	-26368.92
0.6179,0.3821	-26375.94
0.6766,0.3234	-26354.47
0.6039,0.3961	-26368.23
0.7050,0.2950	-26356.60
0.6559,0.3441	-26360.98
0.6004,0.3996	-26373.42
0.6469,0.3531	-26369.66
0.6674,0.3326	-26362.34
0.6388,0.3612	-26367.78
0.7048,0.2952	-26355.72
0.6391,0.3609	-26365.50
0.6806,0.3194	-26354.43
0.6625,0.3375	-26364.97
0.6236,0.3764	-26367.53
0.5908,0.4092	-26377.95
0.6980,0.3020	-26362.15
0.6738,0.3262	-26368.30
0.6574,0.3426	-26362.91
0.6042,0.3958	-26370.75
0.6388,0.3612	-26366.07
0.5838,0.4162	-26376.76
0.7009,0.2991	-26349.59
0.6859,0.3141	-26373.17
0.6507,0.3493	-26359.21
0.5793,0.4207	-26375.40
0.6275,0.3725	-26366.36
0.5953,0.4047	-26374.04
0.7203,0.2797	-26358.57
0.6298,0.3702	-26370.00
0.6555,0.3445	-26369.99
0.6030,0.3970	-26375.00
0.6574,0.3426	-26368.78
0.6046,0.3954	-26372.85
0.7340,0.2660	-26362.01
0.6990,0.3010	-26354.64
0.6459,0.3541	-26357.02
0.6858,0.3142	-26359.11
0.6341,0.3659	-26370.01
0.6291,0.3709	-26368.95
0.7286,0.2714	-26352.46
0.7114,0.2886	-26351.56
0.6538,0.3462	-26362.28
0.6716,0.3284	-26359.57
0.6801,0.3199	-26361.97
0.6461,0.3539	-26373.25
0.7001,0.2999	-26358.91
0.6840,0.3160	-26365.23
0.6672,0.3328	-26367.21
0.6518,0.3482	-26360.42
0.7074,0.2926	-26359.38
0.6519,0.3481	-26367.95
0.6675,0.3325	-26356.77
0.6848,0.3152	-26350.54
0.6665,0.3335	-26354.71
0.6839,0.3161	-26360.59
0.6487,0.3513	-26362.36
0.6570,0.3430	-26364.21
0.6559,0.3441	-26362.91
0.6886,0.3114	-26364.76
0.6887,0.3113	-26365.56
0.6549,0.3451	-26373.81
0.6725,0.3275	-26365.34
0.6222,0.3778	-26369.58
0.6748,0.3252	-26362.52
0.6668,0.3332	-26358.17
0.6954,0.3046	-26352.07
0.6835,0.3165	-26362.12
0.6726,0.3274	-26366.06
0.6477,0.3523	-26366.64
0.6113,0.3887	-26370.86
0.6900,0.3100	-26353.65
0.7064,0.2936	-26344.38
0.6834,0.3166	-26355.96
0.6725,0.3275	-26363.89
0.7146,0.2854	-26349.85
0.6661,0.3339	-26359.55
0.6780,0.3220	-26362.64
0.6715,0.3285	-26366.72
0.7062,0.2938	-26352.28
0.6329,0.3671	-26364.56
0.6480,0.3520	-26356.27
0.6629,0.3371	-26356.87
0.6966,0.3034	-26354.58
0.6574,0.3426	-26359.65
0.6318,0.3682	-26365.14
0.6072,0.3928	-26381.05
0.6508,0.3492	-26367.92
0.6336,0.3664	-26362.89
0.7045,0.2955	-26346.15
0.7133,0.2867	-26362.57
0.6091,0.3909	-26374.05
0.5751,0.4249	-26378.47
0.6874,0.3126	-26366.25
0.6089,0.3911	-26369.18
0.7156,0.2844	-26348.03
0.6862,0.3138	-26355.99
0.7120,0.2880	-26352.48
0.6151,0.3849	-26371.20
0.7013,0.2987	-26353.01
0.6376,0.3624	-26361.01
0.7039,0.2961	-26366.94
0.7097,0.2903	-26365.80
0.6976,0.3024	-26354.60
0.5824,0.4176	-26378.82
0.6640,0.3360	-26356.16
0.6672,0.3328	-26374.16
0.6424,0.3576	-26362.52
0.6966,0.3034	-26356.24
0.6843,0.3157	-26365.25
0.5903,0.4097	-26370.65
0.6925,0.3075	-26356.93
0.6328,0.3672	-26372.18
0.6425,0.3575	-26370.14
0.6933,0.3067	-26360.21
0.6709,0.3291	-26360.99
0.6131,0.3869	-26378.16
0.7159,0.2841	-26358.21
0.6747,0.3253	-26358.14
0.6359,0.3641	-26364.45
0.6830,0.3170	-26367.46
0.6284,0.3716	-26372.63
0.6498,0.3502	-26366.67
0.6998,0.3002	-26346.20
0.6697,0.3303	-26361.68
0.6690,0.3310	-26365.19
0.6698,0.3302	-26372.29
0.6571,0.3429	-26368.12
0.6330,0.3670	-26359.65
0.6771,0.3229	-26356.68
0.6142,0.3858	-26374.48
0.6821,0.3179	-26363.58
0.7013,0.2987	-26355.57
0.5918,0.4082	-26380.16
0.6684,0.3316	-26358.85
0.6656,0.3344	-26358.18
0.5976,0.4024	-26369.19
0.6823,0.3177	-26374.30
0.7055,0.2945	-26357.50
0.5657,0.4343	-26378.53
0.6223,0.3777	-26369.08
0.6700,0.3300	-26353.18
0.5949,0.4051	-26369.45
0.6726,0.3274	-26363.18
0.6726,0.3274	-26359.58
0.6108,0.3892	-26374.93
0.5888,0.4112	-26374.75
0.6127,0.3873	-26369.89
0.6233,0.3767	-26368.55
0.6865,0.3135	-26364.61
0.6694,0.3306	-26361.67
0.6419,0.3581	-26371.88
0.6062,0.3938	-26368.05
0.6205,0.3795	-26367.16
0.6244,0.3756	-26374.11
0.6717,0.3283	-26355.28
0.6797,0.3203	-26363.46
0.6889,0.3111	-26364.77
0.5730,0.4270	-26381.23
0.6176,0.3824	-26371.14
0.6303,0.3697	-26359.33
0.6128,0.3872	-26373.10
0.6292,0.3708	-26367.36
0.7044,0.2956	-26345.28
0.5960,0.4040	-26375.17
0.6274,0.3726	-26370.53
0.6662,0.3338	-26374.06
0.6011,0.3989	-26375.86
0.6309,0.3691	-26379.65
0.6977,0.3023	-26355.44
0.5952,0.4048	-26374.82
0.6479,0.3521	-26372.74
0.6485,0.3515	-26367.26
0.6335,0.3665	-26373.29
0.6427,0.3573	-26380.13
0.6677,0.3323	-26356.76
0.6072,0.3928	-26374.51
0.6779,0.3221	-26361.89
0.6558,0.3442	-26368.72
0.6216,0.3784	-26370.59
0.6631,0.3369	-26368.38
0.6904,0.3096	-26362.48
0.6435,0.3565	-26367.80
0.6953,0.3047	-26366.93
0.6172,0.3828	-26365.90
0.6274,0.3726	-26370.01
0.6782,0.3218	-26358.92
0.6937,0.3063	-26343.89
0.6236,0.3764	-26367.03
0.6536,0.3464	-26368.63
0.5913,0.4087	-26377.94
0.6762,0.3238	-26362.57
0.6507,0.3493	-26366.68
0.6371,0.3629	-26372.29
0.5857,0.4143	-26378.40
0.6499,0.3501	-26367.90
0.6039,0.3961	-26373.72
0.6696,0.3304	-26364.50
0.6220,0.3780	-26371.08
0.6325,0.3675	-26366.74
0.6032,0.3968	-26371.64
0.7353,0.2647	-26350.93
0.6211,0.3789	-26375.54
0.6446,0.3554	-26376.15
0.6587,0.3413	-26362.26
0.6604,0.3396	-26366.25
0.6209,0.3791	-26364.18
0.7241,0.2759	-26339.62
0.6392,0.3608	-26371.22
0.6283,0.3717	-26378.40
0.6401,0.3599	-26364.91
0.6515,0.3485	-26356.06
0.5848,0.4152	-26375.68
0.6957,0.3043	-26359.52
0.6055,0.3945	-26374.53
0.6237,0.3763	-26374.60
0.6384,0.3616	-26367.22
0.6391,0.3609	-26366.07
0.5961,0.4039	-26376.34
0.6929,0.3071	-26355.31
0.6288,0.3712	-26373.17
0.6010,0.3990	-26382.00
0.6203,0.3797	-26373.06
0.6667,0.3333	-26363.02
0.5782,0.4218	-26372.64
0.6736,0.3264	-26363.21
0.6499,0.3501	-26366.05
0.6162,0.3838	-26366.91
0.6374,0.3626	-26363.84
0.6176,0.3824	-26375.46
0.6276,0.3724	-26371.05
0.6820,0.3180	-26364.34
0.6198,0.3802	-26367.20
0.6256,0.3744	-26375.16
0.6430,0.3570	-26370.74
0.6329,0.3671	-26367.82
0.6340,0.3660	-26369.46
0.6498,0.3502	-26366.05
0.6219,0.3781	-26363.61
0.6560,0.3440	-26362.91
0.6349,0.3651	-26373.34
0.6382,0.3618	-26374.03
0.6636,0.3364	-26371.12
0.6909,0.3091	-26358.49
0.6640,0.3360	-26375.92
0.6516,0.3484	-26362.31
0.6251,0.3749	-26367.99
0.6189,0.3811	-26363.36
0.6219,0.3781	-26368.09
0.7314,0.2686	-26349.66
0.7049,0.2951	-26353.11
0.6580,0.3420	-26360.95
0.6170,0.3830	-26371.16
0.5898,0.4102	-26370.34
0.5931,0.4069	-26373.77
0.7476,0.2524	-26334.63
0.6973,0.3027	-26361.27
0.6584,0.3416	-26358.98
0.6438,0.3562	-26359.52
0.6117,0.3883	-26375.84
0.6414,0.3586	-26370.70
0.7501,0.2499	-26343.46
0.7070,0.2930	-26337.33
0.6678,0.3322	-26355.36
0.5915,0.4085	-26375.34
0.6542,0.3458	-26358.45
0.6506,0.3494	-26373.51
0.7430,0.2570	-26351.56
0.6706,0.3294	-26363.83
0.6588,0.3412	-26360.94
0.5789,0.4211	-26374.47
0.6629,0.3371	-26362.28
0.6355,0.3645	-26372.80
0.7196,0.2804	-26352.85
0.6875,0.3125	-26364.68
0.6177,0.3823	-26366.35
0.5952,0.4048	-26377.90
0.6108,0.3892	-26375.83
0.6726,0.3274	-26363.90
0.6714,0.3286	-26367.43
0.6359,0.3641	-26366.68
0.6402,0.3598	-26365.48
0.5976,0.4024	-26370.38
0.6372,0.3628	-26363.28
0.6553,0.3447	-26365.48
0.6517,0.3483	-26363.56
0.5956,0.4044	-26369.76
0.6338,0.3662	-26370.01
0.6140,0.3860	-26379.12
0.5908,0.4092	-26373.17
0.6731,0.3269	-26358.14
0.6295,0.3705	-26365.76
0.6181,0.3819	-26373.54
0.6556,0.3444	-26366.13
0.6312,0.3688	-26362.48
0.6373,0.3627	-26371.73
0.6299,0.3701	-26363.62
0.6385,0.3615	-26359.82
0.6064,0.3936	-26375.82
0.6686,0.3314	-26363.77
0.6224,0.3776	-26363.58
0.6502,0.3498	-26362.33
0.6463,0.3537	-26371.45
0.6276,0.3724	-26362.18
0.5993,0.4007	-26373.07
0.6925,0.3075	-26356.92
0.6164,0.3836	-26366.90
0.6676,0.3324	-26364.43
0.6536,0.3464	-26357.84
0.7035,0.2965	-26345.29
0.5573,0.4427	-26381.14
0.6696,0.3304	-26354.61
0.6238,0.3762	-26372.07
0.7003,0.2997	-26358.08
0.6221,0.3779	-26374.07
0.6784,0.3216	-26368.63
0.5878,0.4122	-26373.04
0.6734,0.3266	-26356.69
0.6428,0.3572	-26366.04
0.6757,0.3243	-26357.42
0.6212,0.3788	-26364.66
0.6553,0.3447	-26373.19
0.5646,0.4354	-26377.84
0.6595,0.3405	-26365.57
0.5793,0.4207	-26373.15
0.6538,0.3462	-26360.38
0.6433,0.3567	-26366.62
0.6691,0.3309	-26369.41
0.5688,0.4312	-26377.45
0.6541,0.3459	-26372.47
0.6038,0.3962	-26375.83
0.6532,0.3468	-26371.15
0.6586,0.3414	-26351.09
0.6794,0.3206	-26364.95
0.5745,0.4255	-26378.20
0.6259,0.3741	-26373.11
0.5980,0.4020	-26378.29
0.6852,0.3148	-26367.64
0.6718,0.3282	-26358.85
0.6950,0.3050	-26361.95
0.6144,0.3856	-26374.94
0.6182,0.3818	-26369.21
0.6355,0.3645	-26362.79
0.6900,0.3100	-26358.45
0.6533,0.3467	-26368.62
0.6982,0.3018	-26347.07
0.6038,0.3962	-26372.46
0.6184,0.3816	-26366.79
0.6419,0.3581	-26368.96
0.6608,0.3392	-26362.27
0.6804,0.3196	-26357.45
0.6523,0.3477	-26362.30
0.6031,0.3969	-26370.81
0.6466,0.3534	-26364.22
0.6243,0.3757	-26372.58
0.6073,0.3927	-26371.89
0.6677,0.3323	-26353.27
0.6231,0.3769	-26372.07
0.6106,0.3894	-26366.84
0.6522,0.3478	-26372.36
0.5915,0.4085	-26372.01
0.5632,0.4368	-26379.75
0.6590,0.3410	-26363.58
0.6386,0.3614	-26364.37
0.5845,0.4155	-26378.09
0.6179,0.3821	-26369.69
0.6551,0.3449	-26364.84
0.5391,0.4609	-26384.53
0.6588,0.3412	-26362.26
0.6090,0.3910	-26374.93
0.5942,0.4058	-26371.81
0.6157,0.3843	-26370.71
0.6420,0.3580	-26370.13
0.5677,0.4323	-26377.83
0.7055,0.2945	-26352.26
0.6473,0.3527	-26360.57
0.5973,0.4027	-26375.53
0.6565,0.3435	-26362.91
0.6889,0.3111	-26381.48
0.6241,0.3759	-26368.53
0.6289,0.3711	-26362.62
0.6699,0.3301	-26360.27
0.6236,0.3764	-26367.53
0.6747,0.3253	-26362.52
0.7026,0.2974	-26356.48
0.6137,0.3863	-26370.31
0.6561,0.3439	-26367.43
0.6615,0.3385	-26375.67
0.6371,0.3629	-26359.35
0.6619,0.3381	-26358.24
0.6572,0.3428	-26355.10
0.6352,0.3648	-26368.36
0.7075,0.2925	-26362.03
0.6013,0.3987	-26375.03
0.6635,0.3365	-26356.85
0.6237,0.3763	-26371.06
0.6704,0.3296	-26358.14
0.6524,0.3476	-26361.04
0.7143,0.2857	-26351.67
0.6276,0.3724	-26365.83
0.6388,0.3612	-26372.91
0.6488,0.3512	-26373.40
0.6781,0.3219	-26354.45
0.6821,0.3179	-26363.58
0.7015,0.2985	-26353.02
0.6221,0.3779	-26370.08
0.6577,0.3423	-26359.00
0.6256,0.3744	-26382.35
0.6588,0.3412	-26366.87
0.6298,0.3702	-26377.97
0.6389,0.3611	-26367.21
0.6552,0.3448	-26365.48
0.6982,0.3018	-26345.39
0.6564,0.3436	-26366.15
0.6724,0.3276	-26358.14
0.6548,0.3452	-26367.40
0.6422,0.3578	-26360.78
0.6348,0.3652	-26371.67
0.6886,0.3114	-26351.26
0.6572,0.3428	-26362.91
0.6586,0.3414	-26357.00
0.7073,0.2927	-26354.96
0.6251,0.3749	-26366.46
0.6184,0.3816	-26373.06
0.5969,0.4031	-26371.22
0.6368,0.3632	-26362.18
0.6543,0.3457	-26369.30
0.7038,0.2962	-26343.56
0.6969,0.3031	-26363.75
0.6354,0.3646	-26368.35
0.6455,0.3545	-26361.23
0.6360,0.3640	-26368.35
0.6718,0.3282	-26369.60
0.6907,0.3093	-26350.45
0.6946,0.3054	-26353.71
0.6122,0.3878	-26370.37
0.6678,0.3322	-26357.46
0.6000,0.4000	-26371.41
0.6830,0.3170	-26356.72
0.6944,0.3056	-26363.55
0.6820,0.3180	-26349.84
0.6078,0.3922	-26368.37
0.6384,0.3616	-26370.63
0.5977,0.4023	-26375.91
0.6995,0.3005	-26358.89
0.6952,0.3048	-26353.72
0.6252,0.3748	-26366.45
0.6196,0.3804	-26374.52
0.6432,0.3568	-26368.39
0.6252,0.3748	-26374.13
0.6110,0.3890	-26376.28
0.7302,0.2698	-26357.56
0.6297,0.3703	-26366.82
0.5882,0.4118	-26372.65
0.6360,0.3640	-26374.49
0.6159,0.3841	-26376.37
0.6138,0.3862	-26375.40
0.7014,0.2986	-26358.13
0.6406,0.3594	-26369.52
0.6113,0.3887	-26374.02
0.7023,0.2977	-26354.75
0.6391,0.3609	-26377.50
0.6138,0.3862	-26370.77
0.7072,0.2928	-26355.84
0.6041,0.3959	-26377.94
0.6202,0.3798	-26368.16
0.6654,0.3346	-26362.99
0.6752,0.3248	-26363.27
0.6288,0.3712	-26371.06
0.6428,0.3572	-26358.99
0.6594,0.3406	-26367.54
0.6325,0.3675	-26374.34
0.6791,0.3209	-26362.68
0.6706,0.3294	-26365.25
0.6249,0.3751	-26378.20
0.6109,0.3891	-26374.48
0.6452,0.3548	-26366.63
0.6231,0.3769	-26369.56
0.6984,0.3016	-26352.95
0.6797,0.3203	-26363.46
0.6649,0.3351	-26366.41
0.6532,0.3468	-26362.92
0.6732,0.3268	-26355.25
0.6366,0.3634	-26372.84
0.7088,0.2912	-26362.15
0.6714,0.3286	-26355.28
0.6995,0.3005	-26352.12
0.6491,0.3509	-26368.50
0.6919,0.3081	-26348.82
0.6469,0.3531	-26375.11
0.6817,0.3183	-26357.47
0.6766,0.3234	-26363.33
0.7171,0.2829	-26362.03
0.6310,0.3690	-26365.71
0.7008,0.2992	-26363.21
0.6470,0.3530	-26355.73
0.6663,0.3337	-26357.48
0.7277,0.2723	-26355.35
0.7017,0.2983	-26359.01
0.6801,0.3199	-26361.22
0.6346,0.3654	-26363.94
0.6425,0.3575	-26362.52
0.6472,0.3528	-26359.35
0.6801,0.3199	-26350.66
0.7445,0.2555	-26346.35
0.6920,0.3080	-26352.86
0.6448,0.3552	-26360.66
0.6112,0.3888	-26370.86
0.6562,0.3438	-26366.15
0.6528,0.3472	-26352.82
0.7540,0.2460	-26335.88
0.6572,0.3428	-26353.80
0.6351,0.3649	-26366.14
0.6226,0.3774	-26372.07
0.6618,0.3382	-26362.94
0.6831,0.3169	-26364.40
0.7142,0.2858	-26355.33
0.6533,0.3467	-26361.66
0.6157,0.3843	-26369.30
0.6228,0.3772	-26371.07
0.6284,0.3716	-26364.75
0.6915,0.3085	-26353.67
0.6792,0.3208	-26357.44
0.6585,0.3415	-26358.98
0.5926,0.4074	-26374.92
0.6503,0.3497	-26361.09
0.6149,0.3851	-26368.40
0.6749,0.3251	-26361.80
0.6476,0.3524	-26367.25
0.6577,0.3423	-26360.30
0.5610,0.4390	-26380.40
0.6488,0.3512	-26366.04
0.6437,0.3563	-26362.48
0.6327,0.3673	-26366.20
0.6308,0.3692	-26368.39
0.6836,0.3164	-26359.04
0.5821,0.4179	-26380.15
0.6709,0.3291	-26351.02
0.6665,0.3335	-26364.40
0.6395,0.3605	-26364.35
0.6507,0.3493	-26368.54
0.6626,0.3374	-26370.38
0.5745,0.4255	-26379.10
0.6264,0.3736	-26374.15
0.6764,0.3236	-26353.73
0.6070,0.3930	-26371.91
0.6371,0.3629	-26370.60
0.6621,0.3379	-26358.24
0.5748,0.4252	-26384.21
0.5987,0.4013	-26378.29
0.6567,0.3433	-26360.32
0.6113,0.3887	-26379.00
0.6626,0.3374	-26354.18
0.6215,0.3785	-26376.04
0.6023,0.3977	-26376.26
0.6009,0.3991	-26374.63
0.6181,0.3819	-26371.13
0.6592,0.3408	-26366.88
0.6158,0.3842	-26368.35
0.6165,0.3835	-26371.17
0.6135,0.3865	-26374.01
0.5980,0.4020	-26377.89
0.6186,0.3814	-26372.09
0.6209,0.3791	-26373.56
0.6497,0.3503	-26368.52
0.6196,0.3804	-26375.01
0.6041,0.3959	-26374.98
0.6085,0.3915	-26375.82
0.6329,0.3671	-26364.56
0.6738,0.3262	-26360.32
0.6177,0.3823	-26375.46
0.6187,0.3813	-26375.48
0.5909,0.4091	-26376.11
0.6074,0.3926	-26364.91
0.6276,0.3724	-26365.83
0.6645,0.3355	-26360.93
0.6632,0.3368	-26364.32
0.6055,0.3945	-26369.82
0.6323,0.3677	-26374.34
0.6175,0.3825	-26371.62
0.5974,0.4026	-26379.47
0.6285,0.3715	-26371.58
0.6789,0.3211	-26361.93
0.5982,0.4018	-26372.32
0.6183,0.3817	-26373.54
0.5976,0.4024	-26374.73
0.5845,0.4155	-26378.09
0.6784,0.3216	-26355.94
0.6683,0.3317	-26361.65
0.6669,0.3331	-26372.05
0.6267,0.3733	-26365.87
0.6095,0.3905	-26365.59
0.6126,0.3874	-26366.23
0.6942,0.3058	-26352.88
0.6274,0.3726	-26368.45
0.6587,0.3413	-26366.21
0.6124,0.3876	-26372.65
0.5962,0.4038	-26373.61
0.6089,0.3911	-26371.84
0.6647,0.3353	-26360.93
0.6041,0.3959	-26376.25
0.6553,0.3447	-26361.63
0.6120,0.3880	-26372.20
0.5808,0.4192	-26376.26
0.6212,0.3788	-26376.03
0.6947,0.3053	-26355.35
0.6101,0.3899	-26370.90
0.6250,0.3750	-26372.59
0.6447,0.3553	-26367.82
0.6291,0.3709	-26358.91
0.6380,0.3620	-26366.09
0.6113,0.3887	-26370.40
0.5873,0.4127	-26376.95
0.6208,0.3792	-26366.65
0.6620,0.3380	-26360.93
0.6012,0.3988	-26373.39
0.6580,0.3420	-26366.84
0.6310,0.3690	-26361.95
0.6251,0.3749	-26363.90
0.6278,0.3722	-26382.03
0.6620,0.3380	-26348.16
0.6117,0.3883	-26371.30
0.6805,0.3195	-26361.23
0.6105,0.3895	-26373.58
0.6439,0.3561	-26358.92
0.6324,0.3676	-26366.20
0.5988,0.4012	-26368.29
0.6400,0.3600	-26372.39
0.6593,0.3407	-26360.94
0.5829,0.4171	-26373.79
0.6297,0.3703	-26375.84
0.6795,0.3205	-26357.44
0.6139,0.3861	-26374.01
0.6721,0.3279	-26362.44
0.6449,0.3551	-26367.82
0.5959,0.4041	-26373.62
0.6066,0.3934	-26376.25
0.6894,0.3106	-26362.42
0.5875,0.4125	-26375.89
0.6681,0.3319	-26360.95
0.5953,0.4047	-26375.20
0.5950,0.4050	-26380.98
0.5958,0.4042	-26378.67
0.7051,0.2949	-26341.79
0.6192,0.3808	-26376.95
0.6133,0.3867	-26367.56
0.5934,0.4066	-26374.89
0.6700,0.3300	-26358.14
0.6428,0.3572	-26371.91
0.7061,0.2939	-26364.55
0.6546,0.3454	-26362.92
0.6540,0.3460	-26362.28
0.6385,0.3615	-26370.06
0.6378,0.3622	-26371.18
0.6422,0.3578	-26360.19
0.7169,0.2831	-26359.22
0.6471,0.3529	-26366.03
0.6295,0.3705	-26362.58
0.6311,0.3689	-26366.78
0.6434,0.3566	-26358.36
0.5992,0.4008	-26373.07
0.7052,0.2948	-26353.12
0.6188,0.3812	-26371.61
0.6720,0.3280	-26364.59
0.5937,0.4063	-26376.01
0.6592,0.3408	-26353.03
0.6041,0.3959	-26369.91
0.6942,0.3058	-26355.34
0.6341,0.3659	-26379.91
0.6733,0.3267	-26351.63
0.6333,0.3667	-26365.09
0.6520,0.3480	-26374.86
0.6310,0.3690	-26369.46
0.6813,0.3187	-26366.58
0.6672,0.3328	-26372.07
0.6525,0.3475	-26363.56
0.6480,0.3520	-26355.66
0.6654,0.3346	-26357.49
0.5848,0.4152	-26374.31
0.6127,0.3873	-26365.30
0.7013,0.2987	-26342.77
0.6652,0.3348	-26361.62
0.6879,0.3121	-26362.34
0.6196,0.3804	-26374.52
0.6614,0.3386	-26360.26
0.6245,0.3755	-26368.01
0.6713,0.3287	-26360.28
0.6942,0.3058	-26354.52
0.6641,0.3359	-26362.97
0.6067,0.3933	-26368.44
0.6707,0.3293	-26357.43
0.6222,0.3778	-26370.58
0.7180,0.2820	-26353.70
0.6366,0.3634	-26368.35
0.6585,0.3415	-26361.60
0.6261,0.3739	-26368.99
0.6954,0.3046	-26364.46
0.6373,0.3627	-26361.02
0.7601,0.2399	-26338.43
0.6115,0.3885	-26375.38
0.6752,0.3248	-26353.02
0.5916,0.4084	-26380.90
0.6835,0.3165	-26348.26
0.6116,0.3884	-26374.48
0.7743,0.2257	-26338.20
0.5765,0.4235	-26378.09
0.6414,0.3586	-26365.46
0.6141,0.3859	-26370.76
0.6278,0.3722	-26366.87
0.6657,0.3343	-26366.44
0.7758,0.2242	-26347.02
0.5722,0.4278	-26379.50
0.6376,0.3624	-26377.39
0.5997,0.4003	-26370.22
0.6558,0.3442	-26362.91
0.6595,0.3405	-26351.69
0.7561,0.2439	-26345.01
0.6331,0.3669	-26365.64
0.6172,0.3828	-26368.28
0.6029,0.3971	-26375.42
0.6500,0.3500	-26361.10
0.6665,0.3335	-26355.40
0.7485,0.2515	-26336.82
0.6467,0.3533	-26379.33
0.6479,0.3521	-26362.38
0.6024,0.3976	-26368.77
0.6427,0.3573	-26370.15
0.6023,0.3977	-26379.16
0.6921,0.3079	-26355.29
0.6711,0.3289	-26378.10
0.6696,0.3304	-26354.61
0.5891,0.4109	-26375.81
0.6269,0.3731	-26368.98
0.6515,0.3485	-26370.45
0.7011,0.2989	-26351.30
0.6428,0.3572	-26364.27
0.6948,0.3052	-26347.13
0.5663,0.4337	-26384.88
0.6313,0.3687	-26367.31
0.6494,0.3506	-26368.51
0.7024,0.2976	-26357.33
0.6196,0.3804	-26367.69
0.7334,0.2666	-26358.89
0.5939,0.4061	-26375.25
0.6169,0.3831	-26375.92
0.6842,0.3158	-26365.24
0.6896,0.3104	-26351.26
0.6090,0.3910	-26371.39
0.7152,0.2848	-26344.34
0.5924,0.4076	-26370.82
0.5934,0.4066	-26372.62
0.6794,0.3206	-26352.18
0.6649,0.3351	-26354.76
0.6057,0.3943	-26374.10
0.7088,0.2912	-26342.58
0.6750,0.3250	-26361.07
0.6191,0.3809	-26371.60
0.6572,0.3428	-26366.82
0.6271,0.3729	-26373.13
0.6414,0.3586	-26373.02
0.6940,0.3060	-26352.88
0.6497,0.3503	-26369.13
0.6179,0.3821	-26372.58
0.6715,0.3285	-26361.71
0.6129,0.3871	-26374.47
0.6710,0.3290	-26368.12
0.7268,0.2732	-26344.51
0.6218,0.3782	-26373.57
0.6129,0.3871	-26370.34
0.6395,0.3605	-26359.76
0.6827,0.3173	-26350.59
0.6583,0.3417	-26362.26
0.6439,0.3561	-26369.58
0.6333,0.3667	-26365.09
0.6632,0.3368	-26371.77
0.6289,0.3711	-26373.17
0.6884,0.3116	-26358.40
0.6555,0.3445	-26366.13
0.6707,0.3293	-26368.81
0.6871,0.3129	-26359.15
0.6830,0.3170	-26362.86
0.6317,0.3683	-26372.70
0.6761,0.3239	-26363.30
0.6478,0.3522	-26361.77
0.6374,0.3626	-26376.81
0.6143,0.3857	-26364.24
0.6733,0.3267	-26365.37
0.6198,0.3802	-26370.13
0.6228,0.3772	-26366.56
0.5907,0.4093	-26373.55
0.6002,0.3998	-26376.27
0.6202,0.3798	-26369.63
0.6708,0.3292	-26367.39
0.5808,0.4192	-26375.28
0.6171,0.3829	-26376.40
0.6490,0.3510	-26361.12
0.6028,0.3972	-26372.92
0.6232,0.3768	-26373.58
0.6180,0.3820	-26372.58
0.6003,0.3997	-26374.24
0.6653,0.3347	-26367.11
0.6614,0.3386	-26356.24
0.6413,0.3587	-26364.88
0.6337,0.3663	-26358.50
0.6399,0.3601	-26367.21
0.5784,0.4216	-26380.21
0.6600,0.3400	-26354.97
0.6917,0.3083	-26350.44
0.5930,0.4070	-26376.04
0.6537,0.3463	-26371.18
0.6329,0.3671	-26360.20
0.5824,0.4176	-26380.82
0.6614,0.3386	-26370.30
0.6883,0.3117	-26352.06
0.5909,0.4091	-26372.80
0.6659,0.3341	-26363.00
0.6594,0.3406	-26367.55
0.5981,0.4019	-26371.53
0.6955,0.3045	-26360.33
0.6410,0.3590	-26370.11
0.5727,0.4273	-26381.23
0.6461,0.3539	-26366.03
0.6940,0.3060	-26356.98
0.6320,0.3680	-26370.54
0.6824,0.3176	-26360.54
0.6772,0.3228	-26364.83
0.6102,0.3898	-26373.14
0.6930,0.3070	-26363.45
0.6594,0.3406	-26360.94
0.5918,0.4082	-26373.10
0.6455,0.3545	-26367.23
0.6714,0.3286	-26363.14
0.6170,0.3830	-26385.94
0.7207,0.2793	-26341.55
0.7072,0.2928	-26351.43
0.6198,0.3802	-26370.13
0.6416,0.3584	-26367.21
0.6404,0.3596	-26363.17
0.6367,0.3633	-26367.23
0.7423,0.2577	-26337.75
0.7097,0.2903	-26355.08
0.6067,0.3933	-26370.62
0.6940,0.3060	-26352.88
0.6384,0.3616	-26370.63
0.6536,0.3464	-26376.25
0.7023,0.2977	-26341.02
0.7052,0.2948	-26354.87
0.6242,0.3758	-26368.52
0.6406,0.3594	-26374.14
0.6340,0.3660	-26372.76
0.6894,0.3106	-26357.64
0.7082,0.2918	-26352.34
0.7059,0.2941	-26354.02
0.6050,0.3950	-26371.56
0.6272,0.3728	-26365.85
0.6206,0.3794	-26368.63
0.6837,0.3163	-26355.19
0.7295,0.2705	-26354.51
0.6947,0.3053	-26357.00
0.5695,0.4305	-26380.19
0.6185,0.3815	-26369.68
0.6089,0.3911	-26368.73
0.6689,0.3311	-26365.88
0.7169,0.2831	-26348.07
0.7274,0.2726	-26360.23
0.6355,0.3645	-26370.58
0.6849,0.3151	-26369.17
0.6916,0.3084	-26350.44
0.6794,0.3206	-26354.43
0.6798,0.3202	-26369.49
0.7770,0.2230	-26339.68
0.6388,0.3612	-26365.50
0.6972,0.3028	-26346.25
0.6683,0.3317	-26363.76
0.7024,0.2976	-26343.59
0.6532,0.3468	-26371.79
0.7249,0.2751	-26347.37
0.6031,0.3969	-26376.25
0.6681,0.3319	-26363.05
0.6773,0.3227	-26350.01
0.7078,0.2922	-26359.41
0.6183,0.3817	-26370.65
0.7217,0.2783	-26360.61
0.5760,0.4240	-26378.12
0.6518,0.3482	-26361.05
0.6692,0.3308	-26356.74
0.6916,0.3084	-26356.09
0.6482,0.3518	-26371.54
0.6696,0.3304	-26365.21
0.6094,0.3906	-26368.70
0.6431,0.3569	-26368.98
0.6931,0.3069	-26349.61
0.7010,0.2990	-26354.71
0.6345,0.3655	-26367.81
0.6802,0.3198	-26363.49
0.6395,0.3605	-26375.24
0.6383,0.3617	-26363.24
0.6842,0.3158	-26359.06
0.7169,0.2831	-26350.85
0.6686,0.3314	-26362.36
0.6742,0.3258	-26360.32
0.6528,0.3472	-26369.24
0.6245,0.3755	-26365.97
0.7090,0.2910	-26355.93
0.7225,0.2775	-26347.29
0.6464,0.3536	-26361.81
0.7119,0.2881	-26340.72
0.6587,0.3413	-26357.66
0.6286,0.3714	-26370.01
0.7364,0.2636	-26346.91
0.6953,0.3047	-26342.17
0.5911,0.4089	-26372.79
0.6853,0.3147	-26358.31
0.6396,0.3604	-26362.05
0.6620,0.3380	-26367.65
0.7198,0.2802	-26340.60
0.6397,0.3603	-26363.19
0.5498,0.4502	-26379.33
0.6517,0.3483	-26362.31
0.6073,0.3927	-26373.20
0.6415,0.3585	-26363.72
0.6825,0.3175	-26355.95
0.6483,0.3517	-26362.98
0.5696,0.4304	-26379.35
0.6002,0.3998	-26378.71
0.6177,0.3823	-26374.02
0.6847,0.3153	-26355.97
0.6650,0.3350	-26356.82
0.7034,0.2966	-26369.47
0.6201,0.3799	-26368.16
0.5808,0.4192	-26375.93
0.6084,0.3916	-26369.21
0.6654,0.3346	-26358.87
0.6608,0.3392	-26361.60
0.7060,0.2940	-26351.40
0.6697,0.3303	-26362.39
0.6526,0.3474	-26362.30
0.6515,0.3485	-26369.82
0.7085,0.2915	-26353.24
0.6298,0.3702	-26366.28
0.7050,0.2950	-26360.09
0.6311,0.3689	-26378.05
0.6556,0.3444	-26362.91
0.6168,0.3832	-26368.31
0.6802,0.3198	-26345.37
0.6712,0.3288	-26372.41
0.7042,0.2958	-26366.97
0.6824,0.3176	-26356.71
0.6727,0.3273	-26363.90
0.6050,0.3950	-26373.26
0.7208,0.2792	-26350.08
0.7136,0.2864	-26347.99
0.6888,0.3112	-26355.24
0.6612,0.3388	-26364.94
0.6402,0.3598	-26369.51
0.5828,0.4172	-26372.79
0.7067,0.2933	-26351.41
0.7123,0.2877	-26341.62
0.6853,0.3147	-26358.31
0.6145,0.3855	-26369.82
0.6209,0.3791	-26367.64
0.6280,0.3720	-26377.34
0.6829,0.3171	-26371.30
0.6658,0.3342	-26350.60
0.6924,0.3076	-26363.41
0.5872,0.4128	-26371.32
0.6543,0.3457	-26365.47
0.6450,0.3550	-26370.21
0.6408,0.3592	-26367.21
0.6590,0.3410	-26362.26
0.6970,0.3030	-26346.26
0.5862,0.4138	-26375.95
0.6108,0.3892	-26371.32
0.6382,0.3618	-26368.92
0.6420,0.3580	-26371.88
0.6865,0.3135	-26360.69
0.7334,0.2666	-26348.77
0.6569,0.3431	-26365.51
0.6701,0.3299	-26363.81
0.6353,0.3647	-26364.47
0.6189,0.3811	-26367.73
0.7173,0.2827	-26365.77
0.7044,0.2956	-26359.17
0.6751,0.3249	-26366.19
0.6443,0.3557	-26361.87
0.6522,0.3478	-26373.62
0.6421,0.3579	-26370.13
0.7106,0.2894	-26356.02
0.7187,0.2813	-26344.36
0.6666,0.3334	-26356.09
0.6276,0.3724	-26368.44
0.6712,0.3288	-26352.43
0.6731,0.3269	-26363.92
0.6531,0.3469	-26370.52
0.6778,0.3222	-26362.63
0.6527,0.3473	-26362.93
0.6740,0.3260	-26363.95
0.6886,0.3114	-26351.26
0.6843,0.3157	-26355.96
0.6538,0.3462	-26350.20
0.6878,0.3122	-26355.22
0.6126,0.3874	-26368.06
0.6443,0.3557	-26366.03
0.6833,0.3167	-26369.79
0.6764,0.3236	-26364.79
0.6409,0.3591	-26360.83
0.6735,0.3265	-26363.93
0.6071,0.3929	-26371.47
0.6670,0.3330	-26356.78
0.6742,0.3258	-26367.60
0.6868,0.3132	-26368.56
0.6325,0.3675	-26359.15
0.6965,0.3035	-26369.53
0.5695,0.4305	-26377.67
0.6246,0.3754	-26364.95
0.6663,0.3337	-26364.40
0.6747,0.3253	-26347.93
0.6103,0.3897	-26367.76
0.6720,0.3280	-26352.40
0.5996,0.4004	-26381.94
0.6402,0.3598	-26368.94
0.6457,0.3543	-26368.43
0.6606,0.3394	-26374.25
0.6465,0.3535	-26366.03
0.6868,0.3132	-26367.78
0.5830,0.4170	-26377.46
0.6445,0.3555	-26365.43
0.6805,0.3195	-26349.14
0.7059,0.2941	-26349.64
0.6032,0.3968	-26376.25
0.6682,0.3318	-26369.36
0.5932,0.4068	-26376.03
0.6400,0.3600	-26366.06
0.6617,0.3383	-26360.26
0.7166,0.2834	-26350.84
0.6169,0.3831	-26373.54
0.5988,0.4012	-26371.49
0.6204,0.3796	-26370.61
0.6311,0.3689	-26366.24
0.6449,0.3551	-26368.42
0.7200,0.2800	-26351.94
0.6028,0.3972	-26372.50
0.6068,0.3932	-26371.91
0.6382,0.3618	-26364.95
0.6490,0.3510	-26365.43
0.6127,0.3873	-26374.02
0.7222,0.2778	-26346.32
0.5887,0.4113	-26374.76
0.6376,0.3624	-26365.53
0.6015,0.3985	-26372.97
0.6254,0.3746	-26368.49
0.6242,0.3758	-26369.54
0.7301,0.2699	-26339.63
0.6120,0.3880	-26372.20
0.6736,0.3264	-26360.31
0.5974,0.4026	-26372.37
0.6369,0.3631	-26371.72
0.6622,0.3378	-26364.29
0.6986,0.3014	-26348.75
0.6495,0.3505	-26366.04
0.6466,0.3534	-26367.24
0.5620,0.4380	-26382.58
0.6571,0.3429	-26365.51
0.6685,0.3315	-26365.17
0.7226,0.2774	-26342.50
0.6753,0.3247	-26361.08
0.6782,0.3218	-26356.68
0.6019,0.3981	-26375.02
0.6516,0.3484	-26362.94
0.6259,0.3741	-26366.94
0.7171,0.2829	-26342.49
0.5984,0.4016	-26371.91
0.6773,0.3227	-26367.80
0.5953,0.4047	-26378.67
0.6266,0.3734	-26364.32
0.6080,0.3920	-26376.70
0.7176,0.2824	-26343.42
0.6200,0.3800	-26368.17
0.6874,0.3126	-26363.10
0.6338,0.3662	-26366.72
0.6098,0.3902	-26369.13
0.5823,0.4177	-26382.48
0.7117,0.2883	-26357.89
0.6392,0.3608	-26369.50
0.6910,0.3090	-26359.29
0.6547,0.3453	-26374.43
0.6004,0.3996	-26374.24
0.5922,0.4078	-26381.28
0.6874,0.3126	-26349.70
0.6118,0.3882	-26376.30
0.6616,0.3384	-26365.62
0.6511,0.3489	-26374.79
0.5683,0.4317	-26385.47
0.6657,0.3343	-26368.51
0.6494,0.3506	-26361.11
0.6211,0.3789	-26368.62
0.6443,0.3557	-26363.06
0.6449,0.3551	-26367.82
0.5810,0.4190	-26379.19
0.6927,0.3073	-26357.75
0.6579,0.3421	-26359.65
0.6178,0.3822	-26362.98
0.6425,0.3575	-26374.25
0.6359,0.3641	-26371.14
0.6318,0.3682	-26373.78
0.6537,0.3463	-26362.28
0.6425,0.3575	-26365.45
0.6301,0.3699	-26370.00
0.6775,0.3225	-26358.91
0.6833,0.3167	-26368.26
0.6684,0.3316	-26372.17
0.6337,0.3663	-26366.17
0.6596,0.3404	-26362.26
0.6678,0.3322	-26363.74
0.6269,0.3731	-26372.09
0.6739,0.3261	-26359.59
0.6895,0.3105	-26361.63
0.6406,0.3594	-26368.94
0.6337,0.3663	-26372.20
0.7164,0.2836	-26350.83
0.6231,0.3769	-26370.06
0.6304,0.3696	-26372.14
0.6564,0.3436	-26362.27
0.6611,0.3389	-26366.28
0.6348,0.3652	-26364.49
0.6461,0.3539	-26363.02
0.6490,0.3510	-26366.65
0.6213,0.3787	-26376.04
0.5947,0.4053	-26378.67
0.6503,0.3497	-26365.43
0.6296,0.3704	-26369.47
0.6383,0.3617	-26370.06
0.6633,0.3367	-26358.21
0.6067,0.3933	-26377.12
0.5740,0.4260	-26376.14
0.6406,0.3594	-26364.90
0.5959,0.4041	-26368.57
0.6567,0.3433	-26359.67
0.6518,0.3482	-26360.43
0.6148,0.3852	-26377.75
0.6096,0.3904	-26374.49
0.6005,0.3995	-26375.05
0.6296,0.3704	-26373.72
0.6440,0.3560	-26373.14
0.6565,0.3435	-26366.80
0.6366,0.3634	-26371.71
0.6408,0.3592	-26361.42
0.5905,0.4095	-26375.75
0.6416,0.3584	-26372.45
0.6368,0.3632	-26367.23
0.6929,0.3071	-26353.68
0.6275,0.3725	-26368.45
0.6119,0.3881	-26375.39
0.5954,0.4046	-26371.72
0.6888,0.3112	-26360.00
0.5907,0.4093	-26377.21
0.6771,0.3229	-26370.75
0.6175,0.3825	-26374.02
0.6009,0.3991	-26378.72
0.5773,0.4227	-26374.31
0.7085,0.2915	-26358.57
0.6072,0.3928	-26370.59
0.6559,0.3441	-26360.98
0.6677,0.3323	-26357.46
0.5602,0.4398	-26380.46
0.6149,0.3851	-26375.88
0.6644,0.3356	-26360.25
0.6136,0.3864	-26373.09
0.6482,0.3518	-26377.03
0.7037,0.2963	-26360.00
0.5784,0.4216	-26377.36
0.6069,0.3931	-26366.70
0.6792,0.3208	-26372.44
0.6364,0.3636	-26355.48
0.6561,0.3439	-26351.93
0.6456,0.3544	-26363.03
0.6302,0.3698	-26377.99
0.5882,0.4118	-26375.50
0.6738,0.3262	-26353.79
0.6365,0.3635	-26366.67
0.6753,0.3247	-26367.67
0.6240,0.3760	-26370.05
0.6396,0.3604	-26375.81
0.5599,0.4401	-26381.93
0.6714,0.3286	-26368.14
0.6304,0.3696	-26366.80
0.6279,0.3721	-26363.21
0.6556,0.3444	-26360.34
0.6053,0.3947	-26380.10
0.5857,0.4143	-26373.21
0.6868,0.3132	-26363.85
0.6016,0.3984	-26372.96
0.6778,0.3222	-26362.63
0.6801,0.3199	-26366.49
0.5844,0.4156	-26381.50
0.6078,0.3922	-26374.94
0.6436,0.3564	-26356.58
0.6391,0.3609	-26363.78
0.6996,0.3004	-26356.35
0.6485,0.3515	-26361.14
0.6008,0.3992	-26372.18
0.5934,0.4066	-26377.16
0.6436,0.3564	-26368.99
0.6337,0.3663	-26372.75
0.6724,0.3276	-26363.17
0.6235,0.3765	-26372.07
0.6320,0.3680	-26370.54
0.6254,0.3746	-26370.03
0.6662,0.3338	-26367.85
0.6839,0.3161	-26361.36
0.6463,0.3537	-26366.03
0.6363,0.3637	-26361.64
0.6032,0.3968	-26375.83
0.6423,0.3577	-26366.62
0.6545,0.3455	-26373.78
0.6818,0.3182	-26355.18
0.5913,0.4087	-26371.66
0.5652,0.4348	-26378.05
0.5951,0.4049	-26372.51
0.6530,0.3470	-26365.45
0.6484,0.3516	-26369.10
0.7075,0.2925	-26363.81
0.6390,0.3610	-26367.21
0.5526,0.4474	-26383.39
0.6079,0.3921	-26371.87
0.6495,0.3505	-26372.83
0.6874,0.3126	-26357.58
0.7158,0.2842	-26344.34
0.6422,0.3578	-26372.47
0.6354,0.3646	-26368.35
0.6071,0.3929	-26373.64
0.6500,0.3500	-26375.96
0.6552,0.3448	-26361.63
0.7209,0.2791	-26339.65
0.6770,0.3230	-26361.12
0.6410,0.3590	-26363.15
0.6064,0.3936	-26373.66
0.5827,0.4173	-26375.81
0.6316,0.3684	-26375.39
0.7415,0.2585	-26360.91
0.6498,0.3502	-26366.66
0.6545,0.3455	-26359.08
0.6052,0.3948	-26369.41
0.5716,0.4284	-26378.37
0.6646,0.3354	-26365.71
0.7448,0.2552	-26362.44
0.6254,0.3746	-26361.83
0.6592,0.3408	-26368.20
0.6421,0.3579	-26370.13
0.6286,0.3714	-26376.32
0.6576,0.3424	-26374.01
0.7290,0.2710	-26351.50
0.6310,0.3690	-26371.07
0.6979,0.3021	-26357.96
0.6313,0.3687	-26381.29
0.6692,0.3308	-26362.37
0.6636,0.3364	-26363.64
0.7262,0.2738	-26367.90
0.6605,0.3395	-26357.61
0.6215,0.3785	-26367.61
0.6315,0.3685	-26380.24
0.6753,0.3247	-26353.75
0.6031,0.3969	-26364.54
0.6846,0.3154	-26353.64
0.6598,0.3402	-26362.92
0.6671,0.3329	-26359.55
0.5901,0.4099	-26374.31
0.7043,0.2957	-26350.49
0.6431,0.3569	-26370.16
0.6558,0.3442	-26364.85
0.6637,0.3363	-26358.21
0.6280,0.3720	-26369.48
0.5867,0.4133	-26375.93
0.6611,0.3389	-26363.60
0.6209,0.3791	-26365.67
0.6665,0.3335	-26376.17
0.6556,0.3444	-26371.28
0.6601,0.3399	-26359.61
0.5853,0.4147	-26374.62
0.6852,0.3148	-26351.31
0.6331,0.3669	-26364.55
0.6224,0.3776	-26374.07
0.6525,0.3475	-26361.04
0.6836,0.3164	-26358.27
0.5888,0.4112	-26370.44
0.6704,0.3296	-26367.37
0.6111,0.3889	-26373.12
0.6031,0.3969	-26375.83
0.6098,0.3902	-26371.81
0.6925,0.3075	-26365.86
0.5994,0.4006	-26371.45
0.6695,0.3305	-26357.44
0.6325,0.3675	-26370.00
0.6276,0.3724	-26369.49
0.6327,0.3673	-26371.09
0.6827,0.3173	-26354.42
0.5924,0.4076	-26377.55
0.6661,0.3339	-26359.55
0.6775,0.3225	-26358.17
0.6149,0.3851	-26366.99
0.6660,0.3340	-26363.70
0.6682,0.3318	-26352.55
0.6602,0.3398	-26368.90
0.7039,0.2961	-26349.62
0.6439,0.3561	-26354.78
0.6303,0.3697	-26375.34
0.6961,0.3039	-26352.91
0.6498,0.3502	-26361.10
0.6683,0.3317	-26360.95
0.7080,0.2920	-26357.65
0.6363,0.3637	-26370.03
0.6457,0.3543	-26361.83
0.6420,0.3580	-26377.14
0.6560,0.3440	-26368.08
0.6287,0.3713	-26363.16
0.6819,0.3181	-26362.81
0.6738,0.3262	-26363.22
0.6576,0.3424	-26361.61
0.6413,0.3587	-26370.11
0.6084,0.3916	-26376.70
0.5909,0.4091	-26375.74
0.7108,0.2892	-26346.14
0.6520,0.3480	-26356.03
0.6874,0.3126	-26348.91
0.6486,0.3514	-26362.36
0.6514,0.3486	-26360.44
0.5728,0.4272	-26374.48
0.7274,0.2726	-26331.77
0.6649,0.3351	-26367.78
0.6760,0.3240	-26363.30
0.6301,0.3699	-26368.40
0.6516,0.3484	-26366.07
0.6181,0.3819	-26363.91
0.7066,0.2934	-26366.35
0.6521,0.3479	-26377.38
0.6941,0.3059	-26343.87
0.6138,0.3862	-26363.35
0.6758,0.3242	-26366.23
0.6540,0.3460	-26358.46
0.7164,0.2836	-26360.10
0.6309,0.3691	-26370.00
0.7123,0.2877	-26351.59
0.5940,0.4060	-26374.86
0.6890,0.3110	-26357.62
0.6345,0.3655	-26365.60
0.6651,0.3349	-26363.68
0.6141,0.3859	-26368.90
0.6982,0.3018	-26353.78
0.6072,0.3928	-26380.17
0.6912,0.3088	-26356.89
0.6463,0.3537	-26359.40
0.6192,0.3808	-26370.14
0.6137,0.3863	-26374.48
0.6549,0.3451	-26378.93
0.6536,0.3464	-26358.48
0.7141,0.2859	-26358.99
0.6906,0.3094	-26366.50
0.5858,0.4142	-26371.81
0.5802,0.4198	-26381.15
0.6520,0.3480	-26371.09
0.6714,0.3286	-26356.00
0.7028,0.2972	-26353.91
0.6620,0.3380	-26362.94
0.5891,0.4109	-26374.01
0.6397,0.3603	-26364.34
0.6184,0.3816	-26368.71
0.7357,0.2643	-26337.65
0.6868,0.3132	-26356.00
0.6557,0.3443	-26376.44
0.6099,0.3901	-26374.48
0.6425,0.3575	-26369.55
0.6261,0.3739	-26362.29
0.7434,0.2566	-26361.17
0.6581,0.3419	-26358.99
0.6946,0.3054	-26365.22
0.6302,0.3698	-26365.74
0.6508,0.3492	-26373.52
0.6107,0.3893	-26372.23
0.7287,0.2713	-26341.60
0.6711,0.3289	-26365.27
0.6426,0.3574	-26363.69
0.6425,0.3575	-26369.56
0.6192,0.3808	-26366.74
0.6671,0.3329	-26356.77
0.6962,0.3038	-26347.10
0.6587,0.3413	-26361.60
0.6488,0.3512	-26369.72
0.7051,0.2949	-26356.60
0.5804,0.4196	-26369.46
0.6581,0.3419	-26353.10
0.6576,0.3424	-26368.13
0.6320,0.3680	-26364.59
0.6417,0.3583	-26380.03
0.6704,0.3296	-26360.27
0.6220,0.3780	-26361.12
0.6824,0.3176	-26359.77
0.6737,0.3263	-26353.79
0.6078,0.3922	-26363.55
0.6259,0.3741	-26373.63
0.6640,0.3360	-26365.70
0.6396,0.3604	-26373.52
0.6547,0.3453	-26364.83
0.6574,0.3426	-26357.05
0.6193,0.3807	-26377.93
0.6108,0.3892	-26369.52
0.7136,0.2864	-26358.03
0.6102,0.3898	-26371.35
0.6906,0.3094	-26359.28
0.6604,0.3396	-26356.94
0.5804,0.4196	-26375.96
0.6435,0.3565	-26375.48
0.7215,0.2785	-26363.44
0.6343,0.3657	-26370.01
0.6908,0.3092	-26358.48
0.6821,0.3179	-26357.47
0.5932,0.4068	-26375.27
0.6582,0.3418	-26369.47
0.7053,0.2947	-26361.85
0.5930,0.4070	-26373.02
0.7067,0.2933	-26346.14
0.6689,0.3311	-26369.40
0.5962,0.4038	-26375.56
0.6529,0.3471	-26371.14
0.6631,0.3369	-26355.51
0.6180,0.3820	-26370.17
0.6370,0.3630	-26371.73
0.6871,0.3129	-26362.29
0.5877,0.4123	-26377.65
0.6175,0.3825	-26370.67
0.6507,0.3493	-26372.90
0.6346,0.3654	-26370.57
0.6382,0.3618	-26364.38
0.6875,0.3125	-26369.41
0.6520,0.3480	-26366.70
0.6091,0.3909	-26372.27
0.6078,0.3922	-26373.63
0.6521,0.3479	-26362.30
0.6551,0.3449	-26369.33
0.7109,0.2891	-26356.94
0.6357,0.3643	-26367.24
0.5755,0.4245	-26380.58
0.6209,0.3791	-26370.10
0.6166,0.3834	-26370.21
0.6555,0.3445	-26353.27
0.7006,0.2994	-26344.49
0.6346,0.3654	-26365.05
0.6154,0.3846	-26377.30
0.6102,0.3898	-26369.55
0.6153,0.3847	-26371.66
0.6554,0.3446	-26365.48
0.6997,0.3003	-26359.74
0.6190,0.3810	-26369.66
0.6199,0.3801	-26376.48
0.5934,0.4066	-26380.18
0.6062,0.3938	-26374.09
0.6546,0.3454	-26371.23
0.6916,0.3084	-26355.28
0.6595,0.3405	-26356.97
0.6180,0.3820	-26366.32
0.5720,0.4280	-26375.45
0.5745,0.4255	-26378.50
0.6714,0.3286	-26371.00
0.6620,0.3380	-26375.72
0.6174,0.3826	-26368.76
0.6413,0.3587	-26370.69
0.6045,0.3955	-26373.28
0.5794,0.4206	-26375.07
0.6615,0.3385	-26363.61
0.6816,0.3184	-26363.55
0.6084,0.3916	-26368.33
0.6981,0.3019	-26361.33
0.5845,0.4155	-26371.60
0.6049,0.3951	-26375.82
0.6349,0.3651	-26365.04
0.6792,0.3208	-26353.69
0.5646,0.4354	-26380.18
0.6511,0.3489	-26366.06
0.5879,0.4121	-26378.71
0.6071,0.3929	-26374.08
0.6787,0.3213	-26364.16
0.6620,0.3380	-26357.57
0.6055,0.3945	-26373.68
0.6742,0.3258	-26363.96
0.5999,0.4001	-26369.39
0.5980,0.4020	-26377.10
0.7302,0.2698	-26342.62
0.6415,0.3585	-26359.06
0.5886,0.4114	-26380.85
0.6141,0.3859	-26376.33
0.5669,0.4331	-26380.85
0.5681,0.4319	-26378.89
0.6814,0.3186	-26356.70
0.6362,0.3638	-26362.20
0.5695,0.4305	-26381.03
0.6366,0.3634	-26367.79
0.6046,0.3954	-26368.18
0.5658,0.4342	-26380.90
0.6852,0.3148	-26348.20
0.6163,0.3837	-26374.49
0.6307,0.3693	-26365.18
0.6475,0.3525	-26369.07
0.5970,0.4030	-26371.60
0.5760,0.4240	-26382.41
0.6675,0.3325	-26357.46
0.6235,0.3765	-26373.59
0.6720,0.3280	-26358.86
0.6581,0.3419	-26360.95
0.6368,0.3632	-26357.68
0.5769,0.4231	-26378.07
0.6589,0.3411	-26364.24
0.6333,0.3667	-26371.10
0.6234,0.3766	-26363.00
0.6436,0.3564	-26373.71
0.6417,0.3583	-26368.37
0.5996,0.4004	-26377.90
0.6720,0.3280	-26362.44
0.6039,0.3961	-26374.56
0.6095,0.3905	-26366.47
0.6553,0.3447	-26368.70
0.6587,0.3413	-26369.49
0.6023,0.3977	-26379.58
0.6650,0.3350	-26350.65
0.5533,0.4467	-26380.15
0.6241,0.3759	-26381.71
0.7009,0.2991	-26357.26
0.6499,0.3501	-26370.38
0.6429,0.3571	-26374.86
0.7063,0.2937	-26349.65
0.5830,0.4170	-26372.77
0.6550,0.3450	-26364.84
0.7182,0.2818	-26339.68
0.6757,0.3243	-26360.35
0.6024,0.3976	-26375.01
0.6285,0.3715	-26373.69
0.6051,0.3949	-26377.95
0.6495,0.3505	-26360.49
0.6983,0.3017	-26349.59
0.6681,0.3319	-26360.95
0.6055,0.3945	-26374.11
0.6531,0.3469	-26362.92
0.5690,0.4310	-26382.16
0.6408,0.3592	-26369.52
0.6933,0.3067	-26348.80
0.6396,0.3604	-26361.48
0.6076,0.3924	-26377.13
0.6969,0.3031	-26359.58
0.6419,0.3581	-26368.96
0.6389,0.3611	-26363.22
0.6576,0.3424	-26361.61
0.6121,0.3879	-26369.00
0.6426,0.3574	-26367.21
0.7188,0.2812	-26356.56
0.6232,0.3768	-26371.07
0.6211,0.3789	-26366.64
0.6848,0.3152	-26351.31
0.5864,0.4136	-26377.69
0.6120,0.3880	-26375.39
0.7337,0.2663	-26356.90
0.6590,0.3410	-26367.53
0.6268,0.3732	-26373.13
0.7001,0.2999	-26352.98
0.6232,0.3768	-26365.03
0.6001,0.3999	-26375.46
0.7130,0.2870	-26356.17
0.7162,0.2838	-26338.79
0.6514,0.3486	-26361.06
0.7427,0.2573	-26355.78
0.6685,0.3315	-26360.26
0.6510,0.3490	-26369.18
0.6858,0.3142	-26359.89
0.6950,0.3050	-26363.60
0.5898,0.4102	-26379.05
0.7277,0.2723	-26347.48
0.6778,0.3222	-26354.45
0.6859,0.3141	-26352.08
0.6449,0.3551	-26366.62
0.7096,0.2904	-26359.54
0.5825,0.4175	-26378.15
0.6883,0.3117	-26359.19
0.6623,0.3377	-26351.50
0.7038,0.2962	-26352.21
0.6238,0.3762	-26373.09
0.7135,0.2865	-26362.58
0.6259,0.3741	-26375.17
0.7395,0.2605	-26331.44
0.6588,0.3412	-26359.63
0.6912,0.3088	-26356.89
0.6247,0.3753	-26362.40
0.7273,0.2727	-26345.51
0.5986,0.4014	-26372.70
0.7362,0.2638	-26351.00
0.6412,0.3588	-26363.14
0.6818,0.3182	-26367.38
0.6418,0.3582	-26373.62
0.6787,0.3213	-26364.91
0.6164,0.3836	-26376.86
0.6992,0.3008	-26353.80
0.6533,0.3467	-26373.69
0.6516,0.3484	-26362.31
0.6110,0.3890	-26374.03
0.6774,0.3226	-26355.20
0.6237,0.3763	-26376.12
0.6550,0.3450	-26363.56
0.6983,0.3017	-26363.85
0.6716,0.3284	-26359.57
0.6098,0.3902	-26369.58
0.6543,0.3457	-26359.73
0.6253,0.3747	-26367.98
0.6182,0.3818	-26381.74
0.6725,0.3275	-26351.66
0.6615,0.3385	-26370.98
0.5980,0.4020	-26377.89
0.6369,0.3631	-26362.73
0.6461,0.3539	-26361.81
0.6124,0.3876	-26374.02
0.6810,0.3190	-26375.66
0.6623,0.3377	-26368.34
0.6078,0.3922	-26372.75
0.6354,0.3646	-26377.25
0.6487,0.3513	-26358.07
0.6522,0.3478	-26366.70
0.6853,0.3147	-26365.32
0.6668,0.3332	-26371.35
0.6032,0.3968	-26378.77
0.6281,0.3719	-26370.01
0.6595,0.3405	-26357.63
0.6391,0.3609	-26367.21
0.6299,0.3701	-26367.34
0.6806,0.3194	-26359.72
0.6110,0.3890	-26372.22
0.5980,0.4020	-26374.72
0.7126,0.2874	-26342.52
0.5860,0.4140	-26377.00
0.6232,0.3768	-26378.62
0.7071,0.2929	-26348.78
0.6232,0.3768	-26365.53
0.6233,0.3767	-26372.07
0.6499,0.3501	-26361.72
0.5821,0.4179	-26372.86
0.6781,0.3219	-26358.17
0.7455,0.2545	-26332.45
0.6627,0.3373	-26356.88
0.5759,0.4241	-26379.04
0.6013,0.3987	-26374.21
0.6053,0.3947	-26369.84
0.6820,0.3180	-26362.05
0.7070,0.2930	-26351.42
0.6356,0.3644	-26368.91
0.6041,0.3959	-26374.98
0.5875,0.4125	-26378.36
0.6233,0.3767	-26367.54
0.6665,0.3335	-26360.25
0.7066,0.2934	-26346.14
0.6589,0.3411	-26357.65
0.6225,0.3775	-26366.57
0.5980,0.4020	-26371.94
0.6426,0.3574	-26370.73
0.6775,0.3225	-26361.14
0.6782,0.3218	-26356.68
0.6416,0.3584	-26356.14
0.6211,0.3789	-26365.65
0.5745,0.4255	-26377.00
0.6191,0.3809	-26373.06
0.6635,0.3365	-26365.00
0.6729,0.3271	-26361.02
0.6472,0.3528	-26364.21
0.6393,0.3607	-26367.78
0.5690,0.4310	-26382.71
0.6352,0.3648	-26374.46
0.6566,0.3434	-26362.26
0.6801,0.3199	-26365.74
0.6486,0.3514	-26361.13
0.6508,0.3492	-26367.93
0.5663,0.4337	-26382.48
0.6580,0.3420	-26366.84
0.6583,0.3417	-26368.16
0.6782,0.3218	-26361.16
0.6518,0.3482	-26368.58
0.6336,0.3664	-26365.63
0.5999,0.4001	-26376.28
0.6521,0.3479	-26364.82
0.7105,0.2895	-26347.94
0.6633,0.3367	-26368.39
0.6545,0.3455	-26366.11
0.6359,0.3641	-26363.33
0.5809,0.4191	-26375.27
0.6481,0.3519	-26366.65
0.7117,0.2883	-26349.76
0.6237,0.3763	-26367.02
0.6190,0.3810	-26369.18
0.6277,0.3723	-26369.49
0.6088,0.3912	-26366.09
0.6550,0.3450	-26352.66
0.7074,0.2926	-26348.78
0.6194,0.3806	-26367.70
0.6462,0.3538	-26362.41
0.6154,0.3846	-26372.13
0.6466,0.3534	-26368.45
0.6540,0.3460	-26355.28
0.6928,0.3072	-26348.80
0.6299,0.3701	-26365.22
0.6697,0.3303	-26363.80
0.6356,0.3644	-26371.14
0.6980,0.3020	-26362.15
0.5963,0.4037	-26374.78
0.6594,0.3406	-26354.33
0.5471,0.4529	-26382.35
0.6417,0.3583	-26368.96
0.6204,0.3796	-26358.32
0.6864,0.3136	-26355.21
0.6030,0.3970	-26375.83
0.6842,0.3158	-26361.38
0.5653,0.4347	-26380.13
0.6337,0.3663	-26366.72
0.6038,0.3962	-26373.72
0.6701,0.3299	-26371.60
0.6329,0.3671	-26374.36
0.7225,0.2775	-26333.89
0.6228,0.3772	-26373.58
0.6395,0.3605	-26366.64
0.5786,0.4214	-26385.59
0.6575,0.3425	-26375.96
0.6233,0.3767	-26370.56
0.7074,0.2926	-26341.72
0.6181,0.3819	-26374.50
0.6591,0.3409	-26363.58
0.5527,0.4473	-26381.06
0.5969,0.4031	-26378.29
0.6682,0.3318	-26368.65
0.7158,0.2842	-26353.58
0.6518,0.3482	-26362.93
0.6536,0.3464	-26366.73
0.6083,0.3917	-26371.42
0.5944,0.4056	-26373.70
0.6854,0.3146	-26348.19
0.7276,0.2724	-26345.51
0.6401,0.3599	-26375.27
0.6699,0.3301	-26356.02
0.6319,0.3681	-26361.89
0.6113,0.3887	-26371.31
0.6536,0.3464	-26361.65
0.6767,0.3233	-26355.94
0.6674,0.3326	-26363.73
0.6702,0.3298	-26357.43
0.6172,0.3828	-26373.06
0.5890,0.4110	-26377.98
0.6602,0.3398	-26359.61
0.6419,0.3581	-26375.38
0.7230,0.2770	-26354.02
0.6369,0.3631	-26354.30
0.6494,0.3506	-26362.96
0.6168,0.3832	-26369.73
0.6273,0.3727	-26367.41
0.6559,0.3441	-26355.82
0.6900,0.3100	-26361.65
0.6715,0.3285	-26361.00
0.6915,0.3085	-26356.09
0.6680,0.3320	-26367.24
0.6390,0.3610	-26368.36
0.6832,0.3168	-26360.56
0.6436,0.3564	-26363.08
0.6690,0.3310	-26368.00
0.6940,0.3060	-26356.16
0.7119,0.2881	-26358.81
0.6613,0.3387	-26367.62
0.6633,0.3367	-26360.93
0.6221,0.3779	-26370.08
0.6642,0.3358	-26362.97
0.6797,0.3203	-26360.45
0.6668,0.3332	-26372.04
0.6589,0.3411	-26360.29
0.6805,0.3195	-26352.92
0.6195,0.3805	-26372.57
0.6559,0.3441	-26369.36
0.6902,0.3098	-26358.46
0.5984,0.4016	-26379.09
0.6443,0.3557	-26364.84
0.6936,0.3064	-26354.51
0.6276,0.3724	-26366.36
0.6635,0.3365	-26357.53
0.6736,0.3264	-26355.24
0.5819,0.4181	-26380.16
0.6367,0.3633	-26365.55
0.6367,0.3633	-26366.67
0.6253,0.3747	-26366.45
0.6723,0.3277	-26351.67
0.6750,0.3250	-26355.22
0.6025,0.3975	-26375.84
0.6388,0.3612	-26360.37
0.6706,0.3294	-26368.09
0.6618,0.3382	-26362.94
0.6112,0.3888	-26366.79
0.6163,0.3837	-26369.75
0.6399,0.3601	-26362.04
0.6337,0.3663	-26370.01
0.6449,0.3551	-26371.40
0.6729,0.3271	-26358.86
0.6450,0.3550	-26373.20
0.5849,0.4151	-26377.39
0.6406,0.3594	-26368.94
0.6328,0.3672	-26373.27
0.6544,0.3456	-26371.22
0.6520,0.3480	-26368.58
0.6554,0.3446	-26361.63
0.5647,0.4353	-26377.57
0.6200,0.3800	-26369.64
0.6262,0.3738	-26360.73
0.6414,0.3586	-26370.11
0.6568,0.3432	-26359.02
0.6927,0.3073	-26351.24
0.6371,0.3629	-26376.23
0.6093,0.3907	-26376.27
0.6300,0.3700	-26370.00
0.6763,0.3237	-26359.63
0.6640,0.3360	-26363.65
0.6901,0.3099	-26365.66
0.6736,0.3264	-26369.01
0.6068,0.3932	-26371.04
0.6367,0.3633	-26370.60
0.6662,0.3338	-26366.46
0.6316,0.3684	-26371.08
0.7004,0.2996	-26347.89
0.6709,0.3291	-26353.15
0.6032,0.3968	-26371.65
0.5899,0.4101	-26373.23
0.6792,0.3208	-26361.19
0.6353,0.3647	-26366.69
0.7200,0.2800	-26351.93
0.6698,0.3302	-26353.19
0.6272,0.3728	-26368.45
0.5966,0.4034	-26372.81
0.6396,0.3604	-26363.77
0.6352,0.3648	-26376.12
0.7039,0.2961	-26359.14
0.7008,0.2992	-26359.81
0.6110,0.3890	-26373.12
0.5907,0.4093	-26376.11
0.6296,0.3704	-26370.53
0.6716,0.3284	-26355.28
0.6788,0.3212	-26353.69
0.6932,0.3068	-26364.28
0.6360,0.3640	-26366.12
0.5629,0.4371	-26372.69
0.6475,0.3525	-26365.42
0.6830,0.3170	-26356.72
0.6541,0.3459	-26373.75
0.6815,0.3185	-26358.98
0.6180,0.3820	-26363.44
0.5638,0.4362	-26382.28
0.6513,0.3487	-26357.94
0.6091,0.3909	-26371.38
0.6365,0.3635	-26373.40
0.6539,0.3461	-26364.19
0.5869,0.4131	-26374.51
0.5902,0.4098	-26377.96
0.6361,0.3639	-26367.24
0.5998,0.4002	-26376.68
0.6409,0.3591	-26375.90
0.6819,0.3181	-26361.28
