#isoforms=['ENSG00000211445.SE.0.A.up_ENSG00000211445.SE.0.A.SE1_ENSG00000211445.SE.0.A.dn','ENSG00000211445.SE.0.B.up_ENSG00000211445.SE.0.B.dn']	exon_lens=('ENSG00000211445.SE.0.A.up',136),('ENSG00000211445.SE.0.A.SE1',426),('ENSG00000211445.SE.0.A.dn',154),('ENSG00000211445.SE.0.B.up',179),('ENSG00000211445.SE.0.B.dn',154)	iters=5000	burn_in=500	lag=10	percent_accept=96.55	proposal_type=drift	counts=(0,0):147,(0,1):5,(1,0):4,(1,1):9	assigned_counts=0:5,1:13	chrom=chr5	strand=+	mRNA_starts=151020606,151020563	mRNA_ends=151025493,151025493
sampled_psi	log_score
0.1236,0.8764	-118.53
0.3039,0.6961	-120.97
0.2588,0.7412	-117.68
0.2374,0.7626	-118.51
0.3433,0.6567	-121.89
0.3334,0.6666	-121.16
0.1246,0.8754	-120.46
0.3190,0.6810	-120.30
0.2559,0.7441	-118.70
0.1748,0.8252	-118.21
0.3334,0.6666	-121.16
0.2967,0.7033	-119.21
0.1319,0.8681	-114.66
0.2824,0.7176	-119.01
0.2567,0.7433	-118.70
0.1788,0.8212	-118.21
0.3161,0.6839	-121.81
0.2633,0.7367	-121.86
0.1518,0.8482	-118.27
0.2681,0.7319	-117.83
0.2767,0.7233	-120.86
0.1999,0.8001	-115.49
0.2450,0.7550	-118.58
0.2782,0.7218	-118.00
0.1274,0.8726	-114.63
0.2497,0.7503	-118.63
0.2850,0.7150	-118.13
0.2135,0.7865	-115.72
0.2650,0.7350	-120.84
0.2315,0.7685	-117.26
0.1366,0.8634	-116.53
0.2603,0.7397	-119.79
0.3155,0.6845	-120.26
0.2042,0.7958	-118.28
0.2899,0.7101	-120.90
0.1954,0.8046	-118.25
0.1259,0.8741	-118.50
0.2325,0.7675	-117.28
0.3691,0.6309	-121.49
0.1821,0.8179	-119.72
0.3208,0.6792	-121.07
0.2089,0.7911	-116.97
0.1445,0.8555	-114.76
0.2519,0.7481	-118.65
0.4182,0.5818	-121.75
0.2283,0.7717	-118.44
0.2804,0.7196	-120.87
0.2197,0.7803	-117.11
0.1719,0.8281	-115.07
0.2538,0.7462	-119.75
0.4342,0.5658	-123.10
0.2767,0.7233	-120.86
0.2705,0.7295	-119.86
0.1859,0.8141	-118.22
0.1651,0.8349	-114.98
0.2831,0.7169	-119.02
0.4774,0.5226	-122.99
0.2108,0.7892	-117.00
0.3327,0.6673	-120.46
0.1845,0.8155	-116.73
0.1839,0.8161	-118.22
0.2389,0.7611	-119.69
0.5146,0.4854	-123.44
0.2162,0.7838	-119.64
0.3403,0.6597	-119.23
0.1766,0.8234	-116.67
0.1578,0.8422	-118.24
0.2633,0.7367	-118.78
0.5265,0.4735	-124.12
0.1952,0.8048	-119.66
0.3611,0.6389	-120.27
0.1421,0.8579	-116.53
0.1716,0.8284	-116.64
0.2832,0.7168	-119.02
0.5037,0.4963	-123.47
0.2232,0.7768	-119.65
0.3230,0.6770	-118.87
0.1580,0.8420	-114.89
0.1908,0.8092	-116.79
0.2887,0.7113	-119.10
0.4389,0.5611	-122.38
0.2020,0.7980	-116.90
0.3571,0.6429	-120.78
0.1499,0.8501	-120.01
0.2086,0.7914	-119.64
0.2918,0.7082	-118.25
0.4023,0.5977	-121.87
0.2050,0.7950	-121.00
0.4160,0.5840	-122.05
0.1518,0.8482	-119.99
0.2212,0.7788	-118.38
0.2919,0.7081	-120.03
0.4272,0.5728	-122.79
0.2096,0.7904	-116.98
0.4395,0.5605	-122.14
0.1445,0.8555	-114.76
0.2261,0.7739	-115.96
0.2645,0.7355	-119.81
0.4109,0.5891	-121.26
0.1958,0.8042	-118.25
0.4274,0.5726	-121.62
0.1287,0.8713	-114.64
0.2525,0.7475	-117.57
0.2684,0.7316	-117.83
0.4456,0.5544	-122.70
0.1908,0.8092	-116.79
0.3451,0.6549	-121.90
0.1298,0.8702	-116.55
0.2178,0.7822	-119.64
0.2523,0.7477	-120.83
0.4510,0.5490	-121.77
0.1762,0.8238	-116.67
0.2967,0.7033	-120.07
0.1291,0.8709	-118.46
0.1932,0.8068	-121.10
0.2837,0.7163	-118.10
0.4342,0.5658	-122.31
0.1760,0.8240	-116.67
0.2456,0.7544	-119.71
0.1298,0.8702	-116.55
0.1729,0.8271	-115.08
0.2730,0.7270	-119.87
0.4362,0.5638	-122.34
0.2112,0.7888	-122.27
0.2447,0.7553	-117.45
0.1131,0.8869	-118.70
0.1446,0.8554	-116.53
0.2475,0.7525	-118.61
0.4456,0.5544	-122.26
0.1881,0.8119	-118.23
0.2602,0.7398	-117.70
0.1124,0.8876	-116.65
0.1544,0.8456	-119.96
0.2388,0.7612	-120.84
0.4805,0.5195	-122.97
0.1707,0.8293	-118.21
0.2931,0.7069	-119.16
0.1084,0.8916	-114.58
0.1265,0.8735	-116.56
0.2476,0.7524	-117.50
0.5094,0.4906	-123.42
0.1556,0.8444	-116.56
0.2566,0.7434	-119.77
0.0811,0.9189	-114.72
0.1123,0.8877	-116.65
0.2617,0.7383	-118.76
0.5541,0.4459	-124.06
0.1296,0.8704	-120.36
0.2729,0.7271	-120.85
0.0816,0.9184	-117.14
0.1052,0.8948	-118.86
0.2377,0.7623	-117.35
0.5650,0.4350	-124.21
0.1273,0.8727	-116.56
0.2646,0.7354	-117.77
0.1029,0.8971	-116.75
0.1283,0.8717	-118.47
0.2682,0.7318	-118.84
0.4990,0.5010	-123.40
0.1243,0.8757	-116.57
0.2673,0.7327	-117.82
0.0987,0.9013	-114.59
0.1409,0.8591	-116.53
0.3002,0.6998	-118.41
0.5154,0.4846	-123.69
0.1277,0.8723	-114.63
0.2317,0.7683	-117.27
0.0886,0.9114	-116.98
0.1580,0.8420	-116.57
0.3373,0.6627	-119.17
0.4930,0.5070	-123.24
0.1547,0.8453	-116.56
0.2085,0.7915	-118.30
0.1017,0.8983	-114.58
0.1787,0.8213	-118.21
0.3988,0.6012	-121.42
0.5086,0.4914	-123.59
0.1676,0.8324	-118.22
0.2127,0.7873	-118.33
0.0980,0.9020	-119.03
0.1846,0.8154	-119.70
0.4373,0.5627	-122.61
0.5046,0.4954	-123.46
0.1583,0.8417	-119.91
0.1901,0.8099	-118.23
0.1142,0.8858	-114.58
0.1880,0.8120	-119.69
0.3957,0.6043	-121.37
0.4895,0.5105	-123.21
0.1499,0.8501	-114.81
0.1826,0.8174	-121.21
0.1326,0.8674	-120.30
0.1676,0.8324	-119.82
0.3855,0.6145	-121.20
0.4710,0.5290	-122.77
0.1324,0.8676	-116.54
0.1644,0.8356	-116.60
0.1771,0.8229	-115.14
0.1885,0.8115	-119.69
0.4009,0.5991	-121.05
0.4740,0.5260	-123.04
0.1386,0.8614	-114.71
0.1889,0.8111	-115.31
0.1316,0.8684	-118.43
0.2012,0.7988	-119.65
0.4394,0.5606	-122.63
0.4513,0.5487	-122.18
0.1254,0.8746	-118.51
0.1777,0.8223	-115.15
0.1471,0.8529	-118.30
0.1961,0.8039	-118.25
0.3561,0.6439	-120.18
0.4274,0.5726	-122.21
0.1308,0.8692	-116.54
0.1951,0.8049	-116.83
0.1600,0.8400	-118.23
0.2314,0.7686	-119.66
0.2955,0.7045	-120.06
0.3929,0.6071	-122.19
0.1348,0.8652	-114.68
0.1570,0.8430	-118.24
0.1381,0.8619	-118.36
0.2328,0.7672	-120.86
0.2539,0.7461	-118.67
0.3795,0.6205	-120.62
0.1483,0.8517	-116.54
0.1607,0.8393	-116.58
0.1334,0.8666	-118.41
0.2203,0.7797	-117.11
0.2448,0.7552	-117.45
0.4179,0.5821	-121.75
0.1635,0.8365	-116.59
0.1923,0.8077	-118.24
0.1239,0.8761	-114.61
0.2041,0.7959	-116.92
0.2318,0.7682	-119.66
0.3996,0.6004	-122.25
0.1574,0.8426	-118.24
0.1946,0.8054	-115.40
0.1238,0.8762	-116.57
0.1774,0.8226	-122.81
0.2139,0.7861	-118.34
0.3461,0.6539	-120.00
0.1482,0.8518	-116.54
0.2332,0.7668	-117.29
0.1423,0.8577	-116.53
0.1902,0.8098	-116.78
0.2268,0.7732	-118.42
0.3284,0.6716	-121.13
0.1048,0.8952	-116.72
0.2298,0.7702	-119.66
0.1669,0.8331	-118.22
0.2353,0.7647	-117.32
0.2665,0.7335	-119.83
0.3444,0.6556	-119.97
0.1058,0.8942	-114.58
0.1893,0.8107	-119.68
0.1626,0.8374	-114.95
0.2539,0.7461	-117.60
0.2872,0.7128	-120.89
0.3421,0.6579	-119.93
0.1164,0.8836	-114.59
0.1829,0.8171	-118.22
0.1907,0.8093	-118.23
0.2437,0.7563	-118.57
0.3184,0.6816	-118.77
0.3254,0.6746	-120.38
0.1525,0.8475	-114.83
0.1826,0.8174	-115.22
0.1816,0.8184	-116.71
0.2252,0.7748	-120.88
0.3472,0.6528	-120.02
0.2702,0.7298	-118.86
0.1819,0.8181	-116.71
0.1563,0.8437	-116.56
0.1842,0.8158	-116.73
0.2450,0.7550	-121.96
0.3918,0.6082	-121.30
0.2044,0.7956	-119.64
0.1832,0.8168	-116.72
0.1555,0.8445	-114.87
0.1835,0.8165	-118.22
0.2394,0.7606	-120.84
0.3915,0.6085	-120.42
0.2397,0.7603	-119.69
0.1724,0.8276	-118.21
0.1468,0.8532	-114.78
0.1808,0.8192	-116.70
0.2120,0.7880	-115.70
0.3616,0.6384	-121.98
0.2192,0.7808	-118.37
0.1708,0.8292	-115.05
0.1140,0.8860	-116.63
0.1424,0.8576	-116.53
0.2312,0.7688	-122.06
0.3505,0.6495	-120.69
0.2380,0.7620	-119.68
0.1820,0.8180	-116.71
0.1189,0.8811	-114.59
0.2019,0.7981	-118.27
0.2250,0.7750	-122.12
0.3349,0.6651	-121.86
0.2744,0.7256	-119.88
0.1786,0.8214	-118.21
0.1128,0.8872	-120.77
0.2354,0.7646	-117.32
0.2208,0.7792	-117.12
0.2965,0.7035	-119.21
0.2420,0.7580	-120.84
0.1605,0.8395	-116.58
0.1138,0.8862	-118.69
0.2693,0.7307	-117.85
0.1995,0.8005	-115.48
0.2523,0.7477	-119.74
0.2298,0.7702	-119.66
0.1920,0.8080	-115.36
0.1144,0.8856	-116.63
0.2213,0.7787	-117.13
0.2117,0.7883	-123.58
0.2511,0.7489	-120.83
0.2109,0.7891	-117.00
0.2077,0.7923	-118.30
0.1097,0.8903	-114.58
0.1743,0.8257	-116.66
0.2034,0.7966	-122.38
0.2226,0.7774	-119.64
0.1960,0.8040	-121.07
0.2633,0.7367	-116.72
0.1138,0.8862	-116.63
0.2407,0.7593	-121.99
0.2246,0.7754	-117.17
0.2692,0.7308	-119.85
0.1592,0.8408	-118.24
0.3018,0.6982	-118.44
0.1147,0.8853	-116.63
0.1950,0.8050	-116.83
0.2432,0.7568	-116.30
0.2868,0.7132	-117.25
0.1312,0.8688	-118.43
0.3397,0.6603	-121.22
0.1080,0.8920	-120.91
0.2111,0.7889	-118.32
0.2196,0.7804	-117.10
0.3156,0.6844	-120.26
0.1331,0.8669	-114.67
0.4167,0.5833	-122.06
0.1122,0.8878	-116.65
0.2220,0.7780	-118.39
0.2129,0.7871	-118.33
0.2816,0.7184	-119.94
0.1536,0.8464	-116.55
0.4022,0.5978	-121.47
0.1276,0.8724	-116.55
0.2551,0.7449	-119.76
0.1918,0.8082	-118.24
0.2290,0.7710	-118.44
0.1611,0.8389	-118.23
0.3695,0.6305	-122.56
0.1212,0.8788	-114.60
0.2886,0.7114	-119.10
0.2778,0.7222	-119.91
0.1585,0.8415	-118.24
0.1814,0.8186	-118.21
0.3649,0.6351	-120.89
0.1118,0.8882	-114.58
0.3003,0.6997	-120.11
0.2901,0.7099	-118.22
0.1837,0.8163	-115.23
0.1954,0.8046	-116.83
0.3661,0.6339	-120.36
0.1151,0.8849	-116.62
0.2744,0.7256	-117.94
0.3176,0.6824	-121.05
0.2381,0.7619	-117.36
0.1824,0.8176	-116.72
0.3740,0.6260	-121.54
0.1107,0.8893	-114.58
0.2873,0.7127	-119.99
0.2795,0.7205	-118.03
0.2712,0.7288	-119.86
0.2113,0.7887	-118.32
0.3980,0.6020	-121.41
0.0766,0.9234	-114.79
0.2367,0.7633	-119.68
0.3229,0.6771	-120.35
0.2690,0.7310	-120.84
0.1957,0.8043	-116.83
0.4312,0.5688	-121.71
0.0937,0.9063	-114.62
0.2272,0.7728	-118.43
0.3316,0.6684	-121.15
0.3158,0.6842	-118.72
0.1787,0.8213	-119.74
0.4254,0.5746	-123.08
0.0922,0.9078	-116.91
0.1868,0.8132	-119.69
0.2900,0.7100	-120.91
0.2890,0.7110	-119.10
0.1652,0.8348	-114.98
0.4496,0.5504	-122.14
0.1060,0.8940	-114.58
0.1941,0.8059	-115.39
0.3114,0.6886	-118.63
0.2405,0.7595	-120.84
0.1636,0.8364	-119.86
0.4157,0.5843	-121.37
0.1021,0.8979	-114.58
0.1741,0.8259	-118.21
0.3257,0.6743	-121.83
0.2361,0.7639	-118.50
0.1625,0.8375	-114.95
0.3135,0.6865	-121.03
0.0891,0.9109	-114.65
0.1833,0.8167	-118.22
0.2970,0.7030	-119.21
0.2278,0.7722	-115.99
0.1919,0.8081	-118.24
0.3116,0.6884	-120.22
0.0964,0.9036	-116.84
0.1875,0.8125	-118.22
0.2768,0.7232	-121.82
0.2052,0.7948	-119.64
0.1896,0.8104	-119.68
0.2417,0.7583	-119.70
0.0918,0.9082	-116.92
0.1857,0.8143	-118.22
0.2051,0.7949	-115.58
0.1656,0.8344	-114.98
0.2058,0.7942	-116.94
0.2536,0.7464	-118.67
0.0935,0.9065	-114.62
0.2141,0.7859	-117.04
0.2234,0.7766	-117.15
0.1892,0.8108	-118.23
0.1845,0.8155	-118.22
0.2478,0.7522	-120.83
0.0945,0.9055	-116.87
0.2114,0.7886	-118.32
0.2150,0.7850	-119.64
0.2155,0.7845	-119.64
0.2066,0.7934	-115.60
0.3180,0.6820	-121.05
0.1288,0.8712	-114.64
0.1586,0.8414	-116.57
0.1823,0.8177	-119.72
0.2187,0.7813	-117.09
0.1855,0.8145	-115.26
0.3062,0.6938	-120.98
0.1323,0.8677	-118.42
0.1671,0.8329	-118.22
0.1603,0.8397	-118.23
0.1794,0.8206	-119.73
0.1727,0.8273	-118.21
0.3663,0.6337	-119.82
0.1562,0.8438	-118.25
0.1935,0.8065	-118.24
0.1719,0.8281	-116.64
0.1670,0.8330	-119.82
0.1543,0.8457	-118.26
0.4120,0.5880	-122.71
0.1303,0.8697	-120.34
0.1757,0.8243	-116.66
0.2036,0.7964	-119.64
0.1755,0.8245	-118.21
0.1402,0.8598	-114.72
0.4182,0.5818	-121.75
0.1223,0.8777	-116.58
0.1886,0.8114	-119.69
0.1983,0.8017	-118.26
0.1764,0.8236	-118.21
0.1447,0.8553	-121.86
0.4162,0.5838	-121.38
0.1285,0.8715	-118.47
0.1933,0.8067	-116.81
0.2122,0.7878	-119.64
0.1435,0.8565	-116.53
0.1352,0.8648	-120.25
0.4041,0.5959	-121.90
0.1405,0.8595	-116.53
0.2211,0.7789	-119.64
0.2580,0.7420	-117.66
0.1191,0.8809	-118.60
0.1239,0.8761	-118.53
0.3631,0.6369	-119.74
0.1429,0.8571	-116.53
0.2508,0.7492	-118.64
0.3068,0.6932	-119.36
0.1242,0.8758	-118.52
0.1413,0.8587	-114.73
0.3842,0.6158	-121.66
0.1265,0.8735	-116.56
0.2726,0.7274	-121.83
0.2914,0.7086	-120.02
0.1270,0.8730	-118.48
0.1327,0.8673	-116.54
0.3603,0.6397	-121.40
0.1472,0.8528	-114.78
0.2904,0.7096	-120.01
0.2760,0.7240	-118.93
0.1320,0.8680	-116.54
0.1575,0.8425	-119.92
0.3126,0.6874	-121.02
0.1573,0.8427	-116.56
0.3057,0.6943	-120.16
0.2642,0.7358	-117.76
0.1419,0.8581	-114.73
0.1462,0.8538	-118.30
0.3291,0.6709	-118.99
0.1348,0.8652	-114.68
0.3113,0.6887	-122.60
0.2670,0.7330	-119.83
0.1540,0.8460	-114.85
0.1451,0.8549	-118.31
0.3339,0.6661	-119.79
0.1634,0.8366	-116.59
0.3102,0.6898	-119.41
0.2494,0.7506	-117.53
0.1537,0.8463	-119.96
0.1350,0.8650	-116.54
0.3081,0.6919	-120.18
0.2155,0.7845	-117.05
0.3228,0.6772	-121.09
0.2255,0.7745	-117.18
0.1801,0.8199	-119.73
0.1400,0.8600	-114.72
0.3506,0.6494	-120.69
0.2372,0.7628	-117.34
0.3319,0.6681	-120.45
0.2359,0.7641	-118.50
0.1962,0.8038	-116.84
0.1368,0.8632	-116.53
0.3288,0.6712	-120.42
0.2411,0.7589	-120.84
0.3674,0.6326	-121.47
0.2573,0.7427	-118.71
0.1857,0.8143	-119.70
0.0975,0.9025	-119.05
0.3054,0.6946	-120.98
0.2359,0.7641	-118.50
0.3783,0.6217	-120.60
0.2859,0.7141	-121.81
0.1803,0.8197	-121.24
0.0940,0.9060	-114.61
0.3230,0.6770	-120.35
0.2644,0.7356	-118.79
0.3347,0.6653	-119.80
0.2650,0.7350	-119.82
0.1687,0.8313	-115.03
0.0835,0.9165	-114.70
0.3184,0.6816	-118.77
0.2129,0.7871	-117.02
0.3438,0.6562	-121.25
0.2148,0.7852	-117.04
0.1419,0.8581	-114.73
0.0907,0.9093	-114.63
0.3357,0.6643	-120.50
0.1672,0.8328	-115.01
0.2749,0.7251	-119.89
0.2442,0.7558	-118.58
0.1395,0.8605	-118.35
0.0858,0.9142	-114.67
0.3031,0.6969	-122.63
0.1461,0.8539	-114.77
0.2863,0.7137	-118.15
0.2427,0.7573	-120.84
0.1367,0.8633	-114.69
0.0837,0.9163	-114.69
0.3096,0.6904	-118.60
0.1823,0.8177	-116.71
0.2940,0.7060	-118.29
0.3025,0.6975	-119.29
0.0926,0.9074	-114.62
0.0957,0.9043	-114.60
0.2888,0.7112	-119.10
0.1611,0.8389	-116.58
0.2867,0.7133	-119.07
0.2736,0.7264	-117.92
0.1058,0.8942	-118.85
0.1250,0.8750	-114.62
0.2917,0.7083	-120.02
0.1697,0.8303	-118.21
0.2859,0.7141	-119.97
0.2598,0.7402	-117.69
0.1236,0.8764	-114.61
0.1648,0.8352	-114.98
0.3436,0.6564	-121.89
0.1646,0.8354	-118.22
0.2990,0.7010	-120.09
0.2749,0.7251	-120.86
0.1109,0.8891	-116.66
0.1291,0.8709	-118.46
0.3135,0.6865	-118.67
0.1357,0.8643	-116.54
0.3231,0.6769	-121.83
0.2692,0.7308	-117.85
0.1091,0.8909	-114.58
0.1620,0.8380	-114.94
0.3262,0.6738	-120.38
0.1248,0.8752	-116.57
0.3531,0.6469	-120.73
0.2560,0.7440	-119.76
0.1012,0.8988	-118.95
0.2272,0.7728	-119.65
0.3508,0.6492	-120.70
0.1299,0.8701	-114.65
0.3973,0.6027	-122.23
0.2806,0.7194	-118.99
0.1197,0.8803	-114.60
0.2074,0.7926	-118.30
0.3494,0.6506	-119.43
0.1203,0.8797	-116.59
0.4011,0.5989	-121.46
0.3117,0.6883	-121.01
0.1296,0.8704	-120.36
0.2511,0.7489	-119.74
0.3525,0.6475	-121.33
0.1417,0.8583	-116.53
0.3951,0.6049	-122.21
0.3351,0.6649	-121.86
0.1178,0.8822	-116.60
0.2670,0.7330	-118.82
0.3503,0.6497	-120.69
0.1215,0.8785	-116.58
0.3645,0.6355	-120.89
0.3307,0.6693	-119.73
0.1224,0.8776	-116.58
0.2143,0.7857	-118.34
0.3302,0.6698	-119.72
0.1150,0.8850	-116.62
0.3816,0.6184	-121.63
0.3239,0.6761	-119.62
0.1368,0.8632	-114.69
0.1933,0.8067	-121.10
0.3205,0.6795	-119.57
0.1128,0.8872	-118.70
0.3704,0.6296	-120.44
0.3158,0.6842	-120.27
0.1219,0.8781	-114.60
0.2180,0.7820	-115.81
0.3475,0.6525	-121.28
0.1078,0.8922	-114.58
0.3892,0.6108	-121.26
0.2504,0.7496	-117.54
0.1223,0.8777	-114.61
0.1814,0.8186	-118.21
0.3113,0.6887	-120.22
0.1289,0.8711	-118.46
0.4890,0.5110	-123.24
0.2672,0.7328	-120.84
0.1494,0.8506	-114.80
0.1907,0.8093	-119.68
0.2611,0.7389	-120.83
0.1216,0.8784	-116.58
0.5291,0.4709	-123.73
0.2583,0.7417	-116.61
0.1803,0.8197	-116.70
0.2057,0.7943	-119.64
0.3112,0.6888	-119.42
0.1425,0.8575	-114.74
0.5041,0.4959	-123.44
0.2445,0.7555	-117.45
0.1778,0.8222	-119.74
0.2059,0.7941	-119.64
0.2920,0.7080	-120.03
0.1606,0.8394	-118.23
0.5283,0.4717	-123.83
0.2525,0.7475	-121.92
0.2029,0.7971	-121.01
0.1916,0.8084	-116.80
0.3582,0.6418	-120.21
0.1682,0.8318	-116.62
0.5349,0.4651	-123.94
0.2361,0.7639	-116.15
0.2111,0.7889	-117.00
0.1786,0.8214	-115.16
0.3391,0.6609	-121.21
0.1906,0.8094	-119.68
0.5472,0.4528	-124.15
0.2184,0.7816	-117.09
0.2059,0.7941	-118.29
0.1466,0.8534	-120.06
0.3537,0.6463	-121.34
0.1568,0.8432	-116.56
0.5255,0.4745	-123.89
0.2096,0.7904	-122.29
0.1686,0.8314	-116.62
0.1029,0.8971	-114.58
0.3451,0.6549	-119.34
0.1426,0.8574	-118.33
0.5172,0.4828	-123.59
0.1773,0.8227	-119.75
0.1947,0.8053	-119.66
0.1085,0.8915	-114.58
0.3322,0.6678	-121.16
0.1450,0.8550	-120.08
0.4956,0.5044	-123.32
0.1556,0.8444	-116.56
0.1822,0.8178	-116.71
0.1496,0.8504	-116.54
0.3489,0.6511	-121.29
0.1386,0.8614	-118.36
0.4387,0.5613	-122.13
0.1684,0.8316	-118.22
0.1844,0.8156	-119.70
0.1863,0.8137	-121.17
0.3490,0.6510	-120.67
0.1274,0.8726	-118.48
0.5208,0.4792	-123.80
0.1717,0.8283	-116.64
0.1612,0.8388	-121.53
0.2131,0.7869	-119.64
0.3353,0.6647	-119.13
0.1178,0.8822	-114.59
0.4966,0.5034	-123.35
0.2012,0.7988	-118.27
0.1722,0.8278	-118.21
0.2303,0.7697	-119.66
0.3683,0.6317	-121.48
0.1260,0.8740	-116.56
0.4672,0.5328	-122.82
0.2533,0.7467	-119.75
0.1492,0.8508	-116.54
0.2804,0.7196	-118.99
0.3554,0.6446	-121.35
0.1544,0.8456	-118.26
0.4427,0.5573	-122.20
0.2529,0.7471	-118.66
0.1394,0.8606	-121.99
0.2814,0.7186	-121.81
0.3632,0.6368	-121.99
0.1758,0.8242	-118.21
0.4566,0.5434	-122.82
0.2315,0.7685	-119.66
0.1344,0.8656	-118.40
0.2966,0.7034	-119.21
0.3797,0.6203	-121.60
0.1673,0.8327	-116.61
0.4723,0.5277	-122.80
0.2117,0.7883	-118.32
0.1457,0.8543	-116.54
0.2891,0.7109	-120.00
0.3885,0.6115	-122.16
0.1757,0.8243	-118.21
0.4944,0.5056	-123.34
0.2148,0.7852	-115.75
0.1807,0.8193	-122.75
0.2954,0.7046	-118.32
0.3640,0.6360	-122.00
0.1502,0.8498	-114.81
0.5086,0.4914	-123.63
0.1796,0.8204	-119.73
0.1796,0.8204	-118.21
0.3102,0.6898	-120.21
0.3897,0.6103	-121.72
0.1402,0.8598	-116.53
0.5162,0.4838	-123.51
0.1564,0.8436	-116.56
0.1988,0.8012	-116.87
0.3332,0.6668	-120.47
0.3765,0.6235	-120.56
0.1283,0.8717	-114.64
0.4646,0.5354	-123.06
0.1510,0.8490	-118.27
0.2043,0.7957	-118.28
0.3044,0.6956	-120.15
0.3533,0.6467	-121.33
0.1413,0.8587	-114.73
0.3895,0.6105	-121.27
0.1609,0.8391	-116.58
0.2154,0.7846	-117.05
0.2773,0.7227	-119.91
0.3715,0.6285	-120.46
0.1238,0.8762	-116.57
0.3953,0.6047	-122.21
0.1605,0.8395	-114.92
0.2152,0.7848	-117.05
0.3085,0.6915	-120.19
0.3190,0.6810	-119.54
0.1116,0.8884	-114.58
0.4010,0.5990	-122.26
0.1398,0.8602	-120.17
0.2270,0.7730	-118.43
0.3060,0.6940	-119.34
0.3084,0.6916	-120.99
0.1305,0.8695	-116.55
0.4369,0.5631	-122.60
0.1030,0.8970	-116.75
0.2358,0.7642	-118.50
0.2643,0.7357	-118.79
0.3162,0.6838	-119.50
0.1037,0.8963	-116.74
0.4791,0.5209	-123.02
0.0995,0.9005	-114.59
0.2428,0.7572	-116.29
0.2488,0.7512	-118.62
0.3138,0.6862	-121.81
0.1036,0.8964	-116.74
0.4523,0.5477	-122.96
0.1009,0.8991	-114.59
0.2166,0.7834	-120.92
0.2956,0.7044	-120.93
0.3153,0.6847	-119.49
0.1027,0.8973	-114.58
0.5212,0.4788	-123.89
0.0996,0.9004	-116.79
0.1760,0.8240	-118.21
0.2843,0.7157	-119.96
0.3500,0.6500	-119.45
0.1093,0.8907	-116.67
0.5347,0.4653	-123.94
0.0858,0.9142	-119.41
0.2251,0.7749	-117.18
0.2836,0.7164	-119.03
0.3818,0.6182	-122.11
0.1039,0.8961	-121.04
0.4981,0.5019	-123.37
0.0918,0.9082	-119.21
0.2234,0.7766	-119.65
0.3042,0.6958	-120.14
0.3856,0.6144	-122.14
0.1332,0.8668	-116.54
0.4919,0.5081	-123.25
0.0945,0.9055	-119.13
0.1843,0.8157	-119.71
0.2510,0.7490	-118.64
0.3881,0.6119	-121.24
0.1387,0.8613	-120.19
0.3956,0.6044	-121.37
0.0886,0.9114	-114.65
0.1725,0.8275	-118.21
0.1924,0.8076	-115.37
0.4469,0.5531	-122.50
0.1115,0.8885	-114.58
0.3579,0.6421	-120.21
0.0765,0.9235	-119.77
0.1836,0.8164	-115.23
0.2059,0.7941	-116.94
0.4289,0.5711	-121.94
0.0989,0.9011	-114.59
0.3420,0.6580	-120.58
0.0771,0.9229	-119.74
0.1950,0.8050	-118.25
0.1995,0.8005	-116.87
0.3984,0.6016	-121.41
0.1386,0.8614	-114.71
0.3547,0.6453	-120.75
0.0761,0.9239	-117.29
0.2072,0.7928	-120.98
0.2530,0.7470	-118.66
0.3902,0.6098	-121.28
0.1390,0.8610	-120.18
0.4085,0.5915	-123.06
0.0872,0.9128	-117.01
0.2114,0.7886	-118.32
0.2574,0.7426	-119.77
0.3965,0.6035	-122.22
0.1515,0.8485	-118.27
0.3848,0.6152	-122.13
0.0974,0.9026	-119.05
0.1525,0.8475	-119.98
0.1916,0.8084	-116.80
0.4084,0.5916	-121.95
0.1909,0.8091	-116.79
0.2739,0.7261	-118.90
0.1260,0.8740	-116.56
0.1316,0.8684	-114.66
0.1824,0.8176	-119.72
0.3735,0.6265	-122.57
0.1854,0.8146	-119.70
0.2480,0.7520	-116.39
0.1194,0.8806	-114.60
0.1156,0.8844	-116.62
0.1621,0.8379	-119.87
0.3086,0.6914	-120.19
0.1914,0.8086	-115.35
0.2674,0.7326	-117.82
0.1225,0.8775	-114.61
0.1239,0.8761	-116.57
0.1614,0.8386	-118.23
0.2722,0.7278	-118.88
0.2269,0.7731	-117.20
0.2476,0.7524	-118.61
0.1331,0.8669	-114.67
0.1345,0.8655	-118.40
0.1731,0.8269	-116.65
0.2430,0.7570	-118.56
0.2279,0.7721	-119.65
0.2053,0.7947	-118.29
0.1831,0.8169	-118.22
0.1495,0.8505	-116.54
0.1577,0.8423	-118.24
0.2090,0.7910	-118.31
0.2215,0.7785	-117.13
0.2098,0.7902	-119.64
0.2349,0.7651	-117.31
0.1816,0.8184	-118.21
0.1528,0.8472	-118.26
0.2058,0.7942	-119.64
0.2532,0.7468	-118.67
0.2057,0.7943	-116.94
0.2174,0.7826	-115.80
0.1834,0.8166	-115.23
0.1546,0.8454	-114.86
0.2114,0.7886	-115.69
0.2355,0.7645	-119.67
0.1868,0.8132	-116.75
0.2676,0.7324	-118.83
0.1947,0.8053	-115.41
0.1607,0.8393	-116.58
0.2259,0.7741	-118.42
0.2890,0.7110	-120.90
0.2086,0.7914	-116.97
0.2784,0.7216	-120.87
0.1802,0.8198	-118.21
0.2031,0.7969	-119.64
0.1979,0.8021	-118.26
0.2676,0.7324	-118.83
0.2213,0.7787	-118.38
0.2891,0.7109	-120.00
0.1978,0.8022	-116.86
0.1715,0.8285	-118.21
0.1962,0.8038	-116.84
0.2959,0.7041	-120.93
0.2621,0.7379	-120.83
0.2937,0.7063	-120.04
0.1887,0.8113	-121.14
0.1464,0.8536	-116.54
0.2095,0.7905	-116.98
0.3598,0.6402	-120.82
0.2389,0.7611	-119.69
0.2974,0.7026	-120.94
0.1807,0.8193	-116.70
0.1388,0.8612	-114.71
0.1908,0.8092	-118.23
0.3283,0.6717	-118.98
0.2205,0.7795	-120.90
0.2449,0.7551	-117.46
0.1665,0.8335	-118.22
0.1603,0.8397	-118.23
0.1728,0.8272	-115.08
0.3826,0.6174	-123.07
0.1922,0.8078	-118.24
0.2408,0.7592	-117.40
0.1619,0.8381	-118.23
0.1569,0.8431	-116.56
0.2000,0.8000	-116.88
0.3883,0.6117	-120.79
0.1846,0.8154	-118.22
0.2894,0.7106	-120.00
0.1683,0.8317	-115.02
0.1617,0.8383	-119.87
0.2044,0.7956	-116.92
0.4097,0.5903	-122.70
0.1965,0.8035	-115.43
0.2808,0.7192	-118.05
0.1469,0.8531	-116.54
0.1595,0.8405	-116.57
0.2022,0.7978	-116.90
0.4181,0.5819	-122.41
0.2147,0.7853	-118.34
0.2819,0.7181	-119.94
0.1354,0.8646	-118.39
0.1671,0.8329	-116.61
0.2802,0.7198	-118.98
0.3952,0.6048	-122.21
0.2591,0.7409	-116.63
0.2473,0.7527	-116.38
0.1154,0.8846	-114.58
0.1534,0.8466	-116.55
0.3222,0.6778	-119.59
0.3397,0.6603	-121.21
0.2911,0.7089	-119.13
0.2189,0.7811	-118.37
0.1072,0.8928	-114.58
0.1625,0.8375	-116.59
0.3261,0.6739	-119.66
0.3342,0.6658	-120.48
0.2460,0.7540	-119.71
0.2196,0.7804	-119.64
0.1498,0.8502	-118.28
0.1791,0.8209	-118.21
0.3387,0.6613	-121.21
0.2581,0.7419	-119.78
0.2881,0.7119	-119.09
0.1842,0.8158	-119.71
0.1472,0.8528	-116.54
0.1303,0.8697	-118.44
0.3051,0.6949	-119.33
0.2665,0.7335	-117.80
0.2664,0.7336	-118.81
0.1691,0.8309	-116.62
0.1702,0.8298	-116.63
0.1139,0.8861	-116.63
0.3346,0.6654	-120.49
0.2792,0.7208	-118.97
0.2293,0.7707	-118.44
0.1623,0.8377	-118.23
0.2228,0.7772	-115.90
0.1232,0.8768	-116.57
0.3636,0.6364	-120.87
0.2306,0.7694	-118.46
0.2292,0.7708	-118.44
0.1393,0.8607	-118.35
0.2322,0.7678	-117.27
0.1109,0.8891	-116.66
0.3357,0.6643	-119.82
0.2376,0.7624	-118.51
0.2283,0.7717	-118.44
0.1555,0.8445	-116.56
0.2562,0.7438	-118.70
0.1293,0.8707	-114.64
0.3375,0.6625	-120.52
0.2277,0.7723	-120.87
0.2008,0.7992	-116.89
0.1486,0.8514	-114.80
0.2918,0.7082	-119.14
0.1156,0.8844	-118.65
0.2885,0.7115	-120.00
0.2695,0.7305	-119.85
0.1626,0.8374	-118.23
0.1346,0.8654	-114.68
0.3365,0.6635	-122.55
0.1348,0.8652	-116.54
0.2828,0.7172	-120.88
0.2843,0.7157	-119.04
0.1668,0.8332	-118.22
0.1162,0.8838	-114.59
0.2975,0.7025	-119.22
0.1409,0.8591	-120.15
0.3205,0.6795	-118.82
0.3219,0.6781	-121.08
0.2072,0.7928	-118.30
0.1230,0.8770	-118.54
0.2751,0.7249	-118.92
0.1715,0.8285	-116.64
0.3050,0.6950	-120.98
0.3316,0.6684	-121.85
0.1999,0.8001	-116.88
0.1514,0.8486	-116.55
0.2344,0.7656	-119.67
0.1595,0.8405	-116.57
0.3455,0.6545	-121.26
0.2758,0.7242	-118.93
0.1689,0.8311	-119.81
0.1408,0.8592	-118.34
0.2516,0.7484	-119.74
0.1126,0.8874	-118.71
0.3178,0.6822	-121.05
0.2397,0.7603	-120.84
0.1856,0.8144	-118.22
0.1494,0.8506	-116.54
0.2637,0.7363	-119.81
0.1182,0.8818	-118.61
0.2904,0.7096	-120.91
0.2516,0.7484	-118.65
0.1766,0.8234	-118.21
0.1092,0.8908	-116.68
0.2654,0.7346	-117.78
0.1281,0.8719	-118.47
0.2874,0.7126	-119.08
0.2193,0.7807	-117.10
0.2067,0.7933	-118.30
0.1113,0.8887	-114.58
0.2942,0.7058	-120.05
0.1205,0.8795	-122.55
0.2735,0.7265	-118.90
0.1975,0.8025	-116.85
0.2383,0.7617	-118.52
0.1232,0.8768	-114.61
0.3135,0.6865	-120.24
0.1111,0.8889	-118.74
0.2808,0.7192	-118.99
0.2038,0.7962	-116.92
0.2242,0.7758	-119.65
0.1238,0.8762	-114.61
0.2949,0.7051	-118.31
0.1375,0.8625	-116.53
0.2797,0.7203	-119.92
0.1732,0.8268	-115.08
0.2359,0.7641	-117.33
0.0951,0.9049	-116.86
0.2977,0.7023	-120.08
0.1220,0.8780	-116.58
0.2865,0.7135	-119.07
0.2051,0.7949	-115.58
0.2527,0.7473	-119.75
0.0836,0.9164	-117.09
0.2760,0.7240	-118.93
0.1225,0.8775	-118.55
0.2807,0.7193	-119.93
0.1856,0.8144	-118.22
0.2697,0.7303	-117.86
0.0814,0.9186	-114.72
0.2391,0.7609	-118.53
0.1582,0.8418	-114.90
0.2727,0.7273	-120.85
0.1995,0.8005	-116.87
0.2345,0.7655	-116.12
0.0755,0.9245	-114.80
0.2187,0.7813	-117.09
0.1657,0.8343	-114.99
0.2577,0.7423	-119.77
0.1883,0.8117	-118.23
0.2812,0.7188	-119.00
0.0820,0.9180	-114.71
0.2023,0.7977	-118.27
0.1948,0.8052	-119.66
0.2731,0.7269	-118.89
0.1780,0.8220	-116.68
0.2807,0.7193	-120.87
0.0842,0.9158	-114.69
0.1756,0.8244	-118.21
0.1985,0.8015	-119.65
0.2275,0.7725	-118.43
0.1882,0.8118	-116.76
0.3057,0.6943	-117.70
0.0752,0.9248	-114.81
0.2558,0.7442	-116.56
0.1834,0.8166	-119.71
0.2160,0.7840	-119.64
0.1777,0.8223	-116.68
0.2712,0.7288	-118.87
0.0904,0.9096	-116.94
0.2207,0.7793	-119.64
0.2768,0.7232	-117.98
0.2053,0.7947	-116.93
0.1563,0.8437	-116.56
0.2696,0.7304	-116.86
0.0836,0.9164	-117.09
0.2193,0.7807	-115.83
0.2997,0.7003	-120.95
0.1992,0.8008	-115.48
0.1399,0.8601	-116.53
0.2883,0.7117	-120.00
0.0873,0.9127	-114.66
0.2159,0.7841	-118.35
0.3801,0.6199	-122.59
0.1785,0.8215	-121.26
0.1230,0.8770	-116.57
0.2597,0.7403	-118.74
0.1000,0.9000	-116.79
0.2140,0.7860	-119.64
0.4098,0.5902	-121.60
0.1709,0.8291	-116.63
0.1481,0.8519	-114.79
0.2402,0.7598	-117.39
0.1054,0.8946	-114.58
0.2356,0.7644	-117.32
0.3674,0.6326	-120.93
0.1736,0.8264	-119.77
0.1532,0.8468	-116.55
0.2189,0.7811	-117.10
0.1154,0.8846	-114.58
0.2147,0.7853	-117.04
0.3557,0.6443	-120.17
0.1614,0.8386	-121.53
0.1521,0.8479	-118.27
0.2302,0.7698	-118.45
0.0820,0.9180	-114.71
0.2316,0.7684	-117.26
0.3159,0.6841	-120.27
0.1493,0.8507	-118.28
0.1651,0.8349	-118.22
0.2193,0.7807	-117.10
0.0811,0.9189	-117.15
0.2505,0.7495	-119.73
0.2700,0.7300	-118.86
0.1776,0.8224	-118.21
0.1632,0.8368	-118.22
0.2190,0.7810	-118.37
0.0662,0.9338	-117.63
0.2660,0.7340	-118.81
0.2789,0.7211	-118.02
0.1721,0.8279	-119.78
0.1479,0.8521	-116.54
0.1890,0.8110	-118.23
0.0596,0.9404	-115.15
0.2553,0.7447	-117.62
0.2922,0.7078	-119.14
0.1508,0.8492	-116.54
0.1540,0.8460	-118.26
0.1974,0.8026	-116.85
0.0649,0.9351	-117.68
0.2444,0.7556	-116.32
0.2401,0.7599	-120.84
0.1602,0.8398	-116.58
0.1601,0.8399	-116.58
0.2093,0.7907	-118.31
0.0933,0.9067	-114.62
0.2192,0.7808	-117.10
0.2479,0.7521	-120.83
0.2014,0.7986	-118.27
0.1601,0.8399	-114.92
0.1804,0.8196	-118.21
0.1089,0.8911	-118.78
0.2284,0.7716	-117.22
0.2062,0.7938	-118.29
0.2153,0.7847	-119.64
0.1581,0.8419	-118.24
0.2188,0.7812	-119.64
0.1261,0.8739	-116.56
0.2373,0.7627	-118.51
0.2179,0.7821	-118.36
0.1775,0.8225	-121.28
0.1801,0.8199	-118.21
0.2368,0.7632	-116.17
0.1249,0.8751	-116.57
0.2395,0.7605	-118.53
0.2450,0.7550	-118.58
0.1405,0.8595	-118.34
0.1918,0.8082	-115.36
0.2439,0.7561	-119.70
0.1089,0.8911	-114.58
0.2233,0.7767	-118.40
0.3096,0.6904	-118.60
0.1429,0.8571	-114.74
0.2175,0.7825	-118.36
0.2192,0.7808	-120.91
0.0857,0.9143	-114.68
0.2456,0.7544	-120.83
0.3153,0.6847	-121.04
0.1556,0.8444	-116.56
0.2315,0.7685	-118.46
0.2154,0.7846	-118.35
0.0812,0.9188	-114.72
0.2461,0.7539	-118.59
0.3348,0.6652	-121.86
0.1274,0.8726	-114.63
0.1952,0.8048	-118.25
0.2195,0.7805	-118.37
0.1024,0.8976	-116.75
0.2369,0.7631	-117.34
0.3221,0.6779	-119.59
0.1506,0.8494	-116.54
0.1894,0.8106	-118.23
0.2651,0.7349	-120.84
0.0862,0.9138	-114.67
0.2281,0.7719	-118.44
0.2681,0.7319	-119.84
0.1568,0.8432	-118.25
0.1722,0.8278	-116.64
0.3481,0.6519	-119.41
0.0829,0.9171	-114.70
0.2498,0.7502	-116.43
0.2525,0.7475	-117.57
0.1619,0.8381	-116.58
0.2058,0.7942	-116.94
0.3105,0.6895	-121.80
0.0810,0.9190	-114.73
0.2181,0.7819	-117.09
0.2445,0.7555	-117.45
0.1493,0.8507	-116.54
0.2236,0.7764	-118.40
0.2843,0.7157	-121.81
0.0824,0.9176	-119.53
0.2270,0.7730	-117.20
0.2412,0.7588	-117.40
0.1744,0.8256	-118.21
0.2175,0.7825	-117.08
0.3168,0.6832	-121.81
0.0879,0.9121	-114.66
0.2050,0.7950	-119.64
0.2718,0.7282	-118.88
0.1543,0.8457	-118.26
0.1788,0.8212	-119.74
0.3215,0.6785	-119.58
0.0645,0.9355	-117.70
0.1699,0.8301	-118.21
0.2910,0.7090	-119.13
0.1903,0.8097	-116.78
0.1694,0.8306	-118.21
0.3205,0.6795	-119.57
0.0908,0.9092	-114.63
0.1820,0.8180	-118.21
0.2681,0.7319	-119.84
0.2282,0.7718	-116.00
0.1444,0.8556	-118.31
0.3146,0.6854	-119.47
0.1032,0.8968	-114.58
0.1685,0.8315	-115.02
0.2371,0.7629	-117.34
0.2916,0.7084	-120.91
0.1669,0.8331	-119.83
0.3196,0.6804	-119.55
0.0923,0.9077	-119.19
0.1866,0.8134	-115.28
0.2463,0.7537	-119.72
0.2995,0.7005	-118.40
0.1507,0.8493	-116.54
0.3007,0.6993	-120.95
0.0800,0.9200	-119.62
0.1622,0.8378	-118.23
0.2537,0.7463	-118.67
0.2941,0.7059	-119.17
0.1336,0.8664	-120.28
0.3132,0.6868	-121.02
0.0968,0.9032	-116.83
0.1834,0.8166	-116.72
0.2468,0.7532	-116.37
0.3585,0.6415	-121.38
0.1286,0.8714	-114.64
0.2960,0.7040	-120.06
0.1141,0.8859	-114.58
0.2075,0.7925	-115.62
0.2626,0.7374	-118.77
0.3022,0.6978	-119.29
0.1346,0.8654	-118.40
0.3080,0.6920	-119.37
0.1090,0.8910	-118.78
0.2124,0.7876	-118.33
0.2658,0.7342	-119.82
0.2740,0.7260	-119.88
0.1322,0.8678	-116.54
0.2903,0.7097	-120.01
0.1301,0.8699	-118.45
0.2013,0.7987	-118.27
0.2930,0.7070	-120.04
0.3022,0.6978	-119.29
0.1156,0.8844	-120.69
0.3536,0.6464	-120.73
0.1326,0.8674	-116.54
0.2340,0.7660	-117.30
0.3163,0.6837	-121.04
0.3149,0.6851	-120.26
0.1068,0.8932	-114.58
0.2958,0.7042	-121.80
0.1568,0.8432	-119.93
0.2281,0.7719	-116.00
0.3440,0.6560	-121.25
0.3222,0.6778	-119.60
0.0934,0.9066	-116.89
0.2564,0.7436	-118.70
0.1433,0.8567	-114.75
0.2181,0.7819	-119.64
0.3447,0.6553	-121.90
0.2930,0.7070	-117.39
0.0856,0.9144	-117.05
0.2850,0.7150	-122.73
0.1238,0.8762	-114.61
0.2207,0.7793	-117.12
0.2934,0.7066	-118.28
0.3087,0.6913	-120.19
0.0846,0.9154	-114.69
0.2835,0.7165	-119.03
0.1197,0.8803	-114.60
0.2260,0.7740	-119.65
0.2758,0.7242	-118.93
0.2835,0.7165	-119.03
0.0900,0.9100	-119.27
0.2606,0.7394	-119.79
0.0996,0.9004	-114.59
0.2295,0.7705	-119.66
0.2692,0.7308	-117.85
0.3052,0.6948	-120.15
0.0788,0.9212	-114.75
0.2438,0.7562	-119.70
0.0881,0.9119	-116.99
0.2203,0.7797	-117.11
0.2416,0.7584	-117.41
0.2947,0.7053	-119.18
0.0682,0.9318	-122.78
0.2357,0.7643	-122.03
0.1152,0.8848	-122.74
0.1661,0.8339	-114.99
0.2446,0.7554	-118.58
0.2718,0.7282	-118.88
0.0674,0.9326	-114.95
0.2345,0.7655	-122.04
0.0966,0.9034	-114.60
0.1355,0.8645	-114.68
0.2288,0.7712	-119.66
0.3422,0.6578	-119.93
0.0654,0.9346	-115.00
0.2513,0.7487	-116.46
0.1006,0.8994	-116.78
0.1282,0.8718	-116.55
0.2174,0.7826	-119.64
0.3698,0.6302	-120.96
0.0712,0.9288	-117.44
0.2479,0.7521	-118.61
0.0990,0.9010	-116.80
0.1253,0.8747	-116.56
0.2237,0.7763	-117.16
0.3833,0.6167	-120.22
0.0788,0.9212	-114.76
0.2421,0.7579	-117.42
0.0903,0.9097	-119.26
0.1510,0.8490	-114.82
0.2253,0.7747	-119.65
0.3905,0.6095	-121.28
0.0765,0.9235	-117.28
0.2743,0.7257	-118.91
0.1161,0.8839	-114.59
0.1793,0.8207	-115.17
0.2238,0.7762	-118.40
0.3869,0.6131	-121.69
0.0721,0.9279	-114.86
0.2337,0.7663	-119.67
0.1066,0.8934	-114.58
0.1733,0.8267	-119.77
0.2315,0.7685	-119.66
0.4222,0.5778	-121.82
0.0744,0.9256	-117.34
0.2662,0.7338	-117.80
0.1136,0.8864	-116.64
0.1419,0.8581	-116.53
0.2475,0.7525	-120.83
0.4932,0.5068	-123.30
0.0790,0.9210	-114.75
0.2948,0.7052	-120.93
0.1017,0.8983	-121.12
0.0951,0.9049	-116.86
0.2741,0.7259	-118.91
0.4617,0.5383	-122.58
0.0868,0.9132	-117.02
0.2743,0.7257	-120.86
0.0841,0.9159	-117.08
0.1268,0.8732	-114.63
0.2653,0.7347	-119.82
0.5296,0.4704	-123.85
0.0731,0.9269	-114.84
0.2927,0.7073	-117.39
0.0913,0.9087	-114.63
0.1260,0.8740	-114.62
0.2831,0.7169	-121.81
0.5288,0.4712	-123.96
0.0667,0.9333	-120.25
0.3619,0.6381	-120.28
0.0742,0.9258	-114.82
0.1220,0.8780	-114.61
0.2920,0.7080	-119.14
0.4870,0.5130	-123.16
0.0623,0.9377	-117.79
0.3406,0.6594	-120.56
0.0816,0.9184	-117.14
0.1372,0.8628	-116.53
0.2651,0.7349	-118.80
0.4572,0.5428	-123.00
0.0575,0.9425	-115.22
0.3051,0.6949	-120.15
0.0946,0.9054	-114.61
0.1378,0.8622	-114.70
0.2760,0.7240	-118.93
0.4369,0.5631	-122.35
0.0701,0.9299	-120.07
0.3336,0.6664	-119.78
0.1065,0.8935	-116.70
0.1173,0.8827	-114.59
0.3070,0.6930	-120.99
0.4471,0.5529	-122.71
0.0494,0.9506	-118.48
0.3490,0.6510	-120.67
0.0956,0.9044	-114.61
0.1075,0.8925	-116.69
0.3025,0.6975	-120.96
0.4481,0.5519	-122.52
0.0478,0.9522	-115.59
0.3079,0.6921	-118.56
0.1155,0.8845	-118.66
0.1164,0.8836	-116.61
0.2754,0.7246	-119.89
0.4626,0.5374	-123.05
0.0404,0.9596	-115.99
0.3299,0.6701	-121.14
0.1271,0.8729	-116.56
0.1409,0.8591	-114.72
0.2721,0.7279	-118.88
0.4816,0.5184	-123.21
0.0321,0.9679	-116.60
0.2937,0.7063	-118.29
0.1216,0.8784	-118.56
0.1457,0.8543	-114.77
0.2792,0.7208	-118.97
0.4656,0.5344	-122.66
0.0349,0.9651	-116.36
0.2659,0.7341	-118.81
0.1309,0.8691	-114.65
0.1359,0.8641	-116.54
0.2853,0.7147	-119.05
0.5191,0.4809	-123.53
0.0349,0.9651	-116.37
0.2897,0.7103	-120.90
0.1410,0.8590	-116.53
0.1384,0.8616	-116.53
0.2909,0.7091	-120.02
0.5406,0.4594	-123.71
0.0447,0.9553	-118.81
0.2330,0.7670	-119.67
0.1431,0.8569	-116.53
0.1182,0.8818	-116.60
0.2874,0.7126	-123.62
0.5358,0.4642	-123.81
0.0421,0.9579	-115.89
0.2987,0.7013	-120.09
0.1648,0.8352	-116.60
0.1153,0.8847	-116.62
0.2718,0.7282	-120.85
0.5531,0.4469	-125.32
0.0390,0.9610	-116.08
0.3084,0.6916	-119.38
0.1550,0.8450	-118.25
0.1169,0.8831	-116.61
0.2402,0.7598	-119.69
0.5561,0.4439	-124.08
0.0340,0.9660	-119.78
0.2742,0.7258	-118.91
0.1391,0.8609	-118.36
0.1000,0.9000	-114.59
0.2207,0.7793	-118.38
0.5286,0.4714	-123.72
0.0408,0.9592	-119.12
0.3195,0.6805	-119.55
0.1397,0.8603	-116.53
0.1035,0.8965	-114.58
0.2186,0.7814	-118.37
0.5228,0.4772	-123.65
0.0421,0.9579	-115.89
0.3311,0.6689	-121.85
0.1218,0.8782	-114.60
0.1030,0.8970	-116.75
0.2075,0.7925	-116.96
0.5511,0.4489	-123.60
0.0406,0.9594	-115.97
0.2928,0.7072	-118.27
0.1602,0.8398	-118.23
0.0993,0.9007	-114.59
0.2078,0.7922	-115.62
0.5130,0.4870	-123.64
0.0420,0.9580	-119.02
0.3119,0.6881	-121.81
0.1548,0.8452	-119.95
0.1047,0.8953	-114.58
0.1701,0.8299	-116.63
0.4864,0.5136	-123.26
0.0473,0.9527	-115.62
0.2553,0.7447	-117.62
0.1512,0.8488	-118.27
0.1138,0.8862	-116.63
0.1454,0.8546	-116.54
0.5024,0.4976	-123.44
0.0572,0.9428	-118.03
0.2941,0.7059	-120.05
0.1482,0.8518	-114.79
0.1013,0.8987	-114.58
0.1276,0.8724	-116.55
0.5032,0.4968	-123.43
0.0484,0.9516	-118.55
0.2700,0.7300	-118.86
0.1477,0.8523	-114.79
0.1044,0.8956	-116.73
0.0926,0.9074	-114.62
0.4309,0.5691	-121.98
0.0480,0.9520	-115.59
0.3022,0.6978	-117.61
0.1688,0.8312	-115.03
0.0816,0.9184	-117.14
0.0824,0.9176	-117.12
0.4009,0.5991	-122.26
0.0534,0.9466	-115.36
0.2944,0.7056	-121.80
0.1758,0.8242	-116.67
0.1043,0.8957	-116.73
0.0721,0.9279	-114.86
0.4634,0.5366	-122.91
0.0609,0.9391	-120.59
0.3003,0.6997	-118.41
0.1827,0.8173	-118.22
0.0978,0.9022	-119.04
0.0875,0.9125	-117.00
0.4274,0.5726	-122.21
0.0542,0.9458	-118.19
0.3403,0.6597	-120.56
0.2203,0.7797	-117.11
0.0872,0.9128	-117.01
0.0758,0.9242	-117.30
0.4204,0.5796	-121.79
0.0575,0.9425	-115.22
0.2724,0.7276	-118.89
0.2167,0.7833	-118.35
0.0888,0.9112	-116.98
0.0826,0.9174	-117.11
0.4333,0.5667	-122.03
0.0556,0.9444	-118.12
0.3187,0.6813	-121.06
0.2279,0.7721	-117.21
0.0997,0.9003	-118.99
0.0939,0.9061	-114.61
0.4158,0.5842	-122.39
0.0667,0.9333	-114.97
0.3786,0.6214	-121.10
0.2096,0.7904	-116.98
0.0996,0.9004	-118.99
0.0905,0.9095	-114.64
0.4086,0.5914	-121.58
0.0790,0.9210	-114.75
0.4263,0.5737	-121.90
0.1562,0.8438	-114.87
0.0915,0.9085	-116.92
0.0758,0.9242	-119.80
0.4246,0.5754	-122.78
0.0785,0.9215	-114.76
0.4185,0.5815	-122.09
0.1750,0.8250	-118.21
0.0818,0.9182	-119.55
0.0863,0.9137	-117.03
0.4165,0.5835	-122.40
0.0704,0.9296	-114.89
0.4030,0.5970	-121.49
0.1549,0.8451	-116.56
0.0908,0.9092	-121.54
0.1020,0.8980	-114.58
0.4005,0.5995	-122.66
0.0726,0.9274	-114.85
0.3580,0.6420	-119.63
0.1533,0.8467	-116.55
0.0931,0.9069	-114.62
0.0931,0.9069	-114.62
0.3694,0.6306	-121.49
0.0705,0.9295	-114.89
0.3299,0.6701	-118.30
0.1408,0.8592	-118.34
0.0952,0.9048	-114.61
0.0892,0.9108	-116.97
0.3889,0.6111	-121.26
0.0858,0.9142	-117.04
0.3074,0.6926	-120.18
0.1019,0.8981	-114.58
0.0954,0.9046	-116.86
0.1018,0.8982	-116.76
0.3689,0.6311	-122.03
0.0758,0.9242	-114.80
0.2936,0.7064	-120.92
0.1126,0.8874	-118.71
0.1156,0.8844	-116.62
0.1081,0.8919	-118.80
0.3702,0.6298	-122.03
0.0935,0.9065	-121.43
0.2924,0.7076	-120.92
0.1451,0.8549	-116.53
0.1289,0.8711	-114.64
0.0924,0.9076	-114.62
0.4395,0.5605	-122.87
0.0892,0.9108	-116.97
0.2898,0.7102	-119.11
0.1179,0.8821	-118.62
0.1518,0.8482	-118.27
0.1065,0.8935	-118.83
0.4210,0.5790	-123.39
0.1135,0.8865	-116.64
0.2782,0.7218	-120.87
0.1091,0.8909	-118.78
0.1295,0.8705	-118.45
0.0870,0.9130	-114.66
0.4455,0.5545	-122.48
0.1407,0.8593	-114.72
0.2887,0.7113	-119.10
0.1061,0.8939	-116.71
0.1141,0.8859	-116.63
0.1097,0.8903	-116.67
0.4697,0.5303	-122.86
0.1577,0.8423	-116.57
0.2566,0.7434	-118.70
0.0838,0.9162	-114.69
0.1489,0.8511	-116.54
0.0965,0.9035	-116.84
0.4512,0.5488	-122.37
0.1693,0.8307	-118.21
0.2813,0.7187	-120.87
0.0833,0.9167	-114.70
0.1478,0.8522	-116.54
0.1173,0.8827	-114.59
0.3800,0.6200	-121.12
0.1349,0.8651	-118.40
0.2607,0.7393	-121.88
0.0879,0.9121	-114.66
0.1358,0.8642	-118.39
0.1071,0.8929	-116.70
0.3219,0.6781	-119.59
0.1140,0.8860	-116.63
0.2690,0.7310	-120.84
0.0925,0.9075	-114.62
0.1487,0.8513	-116.54
0.1217,0.8783	-114.60
0.2999,0.7001	-119.25
0.0898,0.9102	-114.64
0.2699,0.7301	-119.85
0.0825,0.9175	-119.53
0.1147,0.8853	-120.71
0.1105,0.8895	-118.75
0.2713,0.7287	-116.90
0.1160,0.8840	-116.62
0.2707,0.7293	-119.86
0.0945,0.9055	-116.87
0.1077,0.8923	-114.58
0.0985,0.9015	-116.81
0.2489,0.7511	-119.73
0.1544,0.8456	-119.96
0.2580,0.7420	-119.77
0.1013,0.8987	-114.58
0.1007,0.8993	-121.15
0.1209,0.8791	-118.57
0.2692,0.7308	-117.85
0.1705,0.8295	-119.79
0.2894,0.7106	-120.00
0.1130,0.8870	-114.58
0.1201,0.8799	-116.59
0.1172,0.8828	-116.61
0.2504,0.7496	-119.73
0.1843,0.8157	-115.24
0.3022,0.6978	-120.96
0.1162,0.8838	-118.64
0.1440,0.8560	-114.75
0.1093,0.8907	-116.67
0.2203,0.7797	-119.64
0.1815,0.8185	-115.20
0.2414,0.7586	-118.55
0.1140,0.8860	-114.58
0.1539,0.8461	-116.55
0.1221,0.8779	-114.61
0.1987,0.8013	-121.05
0.1765,0.8235	-116.67
0.2453,0.7547	-119.71
0.1138,0.8862	-114.58
0.1479,0.8521	-114.79
0.1601,0.8399	-118.23
0.1506,0.8494	-118.27
0.2062,0.7938	-115.60
0.2515,0.7485	-119.74
0.1039,0.8961	-116.73
0.1357,0.8643	-118.39
0.1824,0.8176	-116.72
0.1492,0.8508	-116.54
0.2483,0.7517	-119.72
0.2825,0.7175	-117.15
0.0892,0.9108	-116.97
0.1345,0.8655	-114.68
0.2605,0.7395	-117.70
0.1623,0.8377	-116.59
0.2526,0.7474	-118.66
0.2898,0.7102	-120.90
0.0893,0.9107	-116.97
0.1637,0.8363	-116.59
0.2289,0.7711	-116.01
0.1582,0.8418	-118.24
0.2407,0.7593	-118.54
0.3023,0.6977	-117.62
0.0930,0.9070	-114.62
0.2013,0.7987	-119.65
0.2135,0.7865	-120.94
0.1470,0.8530	-116.54
0.2436,0.7564	-120.84
0.2992,0.7008	-119.24
0.0881,0.9119	-114.65
0.2116,0.7884	-118.32
0.2602,0.7398	-117.70
0.1145,0.8855	-118.67
0.2319,0.7681	-117.27
0.3159,0.6841	-118.72
0.0685,0.9315	-117.54
0.2360,0.7640	-116.15
0.2605,0.7395	-117.70
0.1459,0.8541	-116.54
0.2396,0.7604	-118.53
0.3089,0.6911	-118.58
0.0521,0.9479	-115.41
0.2403,0.7597	-118.54
0.2872,0.7128	-119.08
0.1590,0.8410	-114.91
0.2516,0.7484	-120.83
0.3745,0.6255	-121.55
0.0601,0.9399	-117.89
0.2706,0.7294	-118.86
0.2546,0.7454	-117.61
0.1557,0.8443	-116.56
0.3032,0.6968	-121.80
0.3627,0.6373	-120.30
0.0656,0.9344	-115.00
0.2635,0.7365	-117.75
0.2135,0.7865	-117.03
0.1933,0.8067	-119.67
0.2803,0.7197	-117.10
0.3508,0.6492	-119.46
0.0597,0.9403	-115.15
0.2961,0.7039	-118.33
0.2366,0.7634	-119.68
0.1534,0.8466	-114.84
0.2602,0.7398	-121.88
0.3696,0.6304	-120.96
0.0594,0.9406	-117.92
0.3106,0.6894	-118.62
0.1863,0.8137	-118.22
0.1569,0.8431	-118.24
0.2728,0.7272	-118.89
0.3886,0.6114	-121.71
0.0739,0.9261	-117.36
0.2584,0.7416	-120.83
0.2183,0.7817	-119.64
0.1397,0.8603	-116.53
0.2700,0.7300	-119.85
0.3122,0.6878	-120.23
0.0786,0.9214	-114.76
0.2342,0.7658	-118.49
0.1851,0.8149	-121.18
0.1663,0.8337	-121.44
0.3239,0.6761	-122.57
0.3044,0.6956	-117.67
0.0785,0.9215	-114.76
0.2382,0.7618	-117.36
0.1865,0.8135	-116.75
0.1515,0.8485	-116.55
0.3473,0.6527	-120.65
0.2415,0.7585	-116.26
0.0740,0.9260	-114.83
0.2702,0.7298	-118.86
0.1943,0.8057	-118.24
0.1664,0.8336	-118.22
0.2945,0.7055	-120.92
0.2692,0.7308	-119.85
0.0810,0.9190	-114.73
0.2624,0.7376	-119.80
0.2335,0.7665	-117.29
0.1836,0.8164	-116.72
0.2537,0.7463	-117.59
0.2543,0.7457	-120.83
0.0586,0.9414	-117.96
0.2692,0.7308	-119.85
0.2514,0.7486	-120.83
0.1826,0.8174	-116.72
0.3223,0.6777	-120.34
0.2547,0.7453	-117.61
0.0514,0.9486	-115.44
0.2537,0.7463	-117.59
0.2766,0.7234	-119.90
0.1702,0.8298	-116.63
0.2928,0.7072	-119.15
0.2889,0.7111	-118.20
0.0409,0.9591	-115.96
0.2313,0.7687	-122.06
0.3066,0.6934	-120.98
0.1687,0.8313	-116.62
0.2409,0.7591	-118.55
0.2926,0.7074	-117.38
0.0360,0.9640	-116.28
0.1826,0.8174	-119.71
0.3346,0.6654	-122.55
0.2083,0.7917	-119.64
0.2814,0.7186	-117.13
0.3157,0.6843	-120.26
0.0322,0.9678	-116.59
0.1855,0.8145	-116.74
0.3830,0.6170	-122.12
0.2018,0.7982	-118.27
0.2691,0.7309	-119.85
0.3067,0.6933	-120.99
0.0386,0.9614	-119.32
0.1902,0.8098	-116.78
0.3609,0.6391	-120.84
0.1755,0.8245	-118.21
0.2618,0.7382	-119.80
0.2654,0.7346	-119.82
0.0438,0.9562	-118.88
0.1793,0.8207	-119.73
0.3043,0.6957	-121.80
0.1943,0.8057	-118.24
0.2356,0.7644	-119.67
0.2615,0.7385	-118.76
0.0520,0.9480	-118.32
0.1655,0.8345	-116.60
0.3480,0.6520	-120.03
0.1855,0.8145	-119.70
0.2368,0.7632	-119.68
0.2880,0.7120	-118.18
0.0583,0.9417	-115.19
0.1696,0.8304	-121.39
0.3303,0.6697	-121.14
0.2038,0.7962	-121.01
0.2235,0.7765	-118.40
0.3390,0.6610	-119.87
0.0836,0.9164	-117.09
0.1346,0.8654	-116.54
0.2969,0.7031	-118.35
0.2041,0.7959	-115.56
0.2431,0.7569	-120.84
0.3570,0.6430	-120.78
0.0692,0.9308	-114.92
0.1230,0.8770	-114.61
0.3291,0.6709	-119.71
0.2107,0.7893	-115.68
0.2228,0.7772	-119.64
0.3238,0.6762	-120.36
0.0769,0.9231	-114.78
0.1211,0.8789	-114.60
0.3732,0.6268	-121.02
0.2072,0.7928	-118.30
0.2851,0.7149	-120.89
0.3334,0.6666	-121.16
0.0651,0.9349	-115.01
0.1173,0.8827	-116.61
0.3288,0.6712	-120.42
0.2051,0.7949	-115.58
0.2938,0.7062	-118.29
0.3597,0.6403	-120.82
0.0609,0.9391	-115.12
0.1122,0.8878	-118.72
0.3532,0.6468	-120.73
0.1797,0.8203	-116.69
0.2729,0.7271	-118.89
0.3432,0.6568	-121.24
0.0681,0.9319	-114.94
0.1077,0.8923	-116.69
0.3149,0.6851	-120.26
0.1857,0.8143	-116.74
0.2859,0.7141	-119.06
0.3481,0.6519	-121.29
0.0774,0.9226	-114.77
0.0882,0.9118	-116.99
0.2747,0.7253	-117.94
0.1320,0.8680	-116.54
0.2000,0.8000	-116.88
0.3301,0.6699	-120.43
0.0631,0.9369	-115.06
0.1012,0.8988	-116.77
0.2964,0.7036	-120.07
0.1525,0.8475	-116.55
0.1946,0.8054	-119.66
0.3182,0.6818	-119.53
0.0796,0.9204	-119.64
0.1021,0.8979	-116.76
0.3226,0.6774	-119.60
0.1868,0.8132	-121.16
0.1953,0.8047	-121.08
0.2852,0.7148	-119.05
0.1019,0.8981	-114.58
0.1037,0.8963	-114.58
0.2855,0.7145	-119.05
0.1892,0.8108	-116.77
0.2230,0.7770	-115.90
0.2662,0.7338	-117.80
0.1346,0.8654	-114.68
0.1033,0.8967	-118.90
0.2942,0.7058	-119.17
0.1705,0.8295	-116.63
0.1687,0.8313	-118.21
0.2700,0.7300	-120.85
0.1442,0.8558	-118.31
0.1044,0.8956	-114.58
0.3094,0.6906	-120.20
0.2026,0.7974	-116.91
0.2071,0.7929	-118.30
0.2589,0.7411	-119.78
0.1605,0.8395	-118.23
0.1123,0.8877	-116.65
0.2967,0.7033	-120.07
0.1889,0.8111	-116.77
0.2246,0.7754	-118.41
0.1976,0.8024	-118.25
0.1542,0.8458	-114.85
0.0926,0.9074	-116.90
0.2903,0.7097	-121.80
0.1737,0.8263	-118.21
0.2287,0.7713	-118.44
0.2286,0.7714	-119.66
0.1527,0.8473	-116.55
0.0842,0.9158	-117.08
0.2937,0.7063	-119.17
0.1594,0.8406	-116.57
0.2173,0.7827	-118.36
0.2213,0.7787	-118.38
0.1294,0.8706	-116.55
0.0902,0.9098	-116.95
0.3053,0.6947	-120.16
0.1943,0.8057	-116.82
0.1928,0.8072	-118.24
0.2248,0.7752	-117.17
0.1241,0.8759	-116.57
0.0833,0.9167	-119.50
0.3022,0.6978	-120.96
0.1851,0.8149	-116.74
0.2454,0.7546	-120.83
0.1995,0.8005	-116.87
0.1512,0.8488	-118.27
0.0646,0.9354	-115.02
0.3007,0.6993	-120.95
0.1748,0.8252	-115.11
0.2497,0.7503	-118.63
0.1713,0.8287	-118.21
0.1162,0.8838	-118.64
0.0724,0.9276	-114.85
0.3525,0.6475	-121.33
0.1393,0.8607	-120.18
0.2641,0.7359	-120.84
0.1605,0.8395	-123.20
0.1117,0.8883	-114.58
0.0831,0.9169	-117.10
0.3336,0.6664	-119.78
0.1365,0.8635	-116.53
0.2829,0.7171	-118.09
0.1451,0.8549	-120.08
0.1354,0.8646	-116.54
0.0947,0.9053	-119.13
0.3522,0.6478	-120.10
0.1228,0.8772	-116.57
0.3285,0.6715	-121.13
0.1207,0.8793	-114.60
0.1852,0.8148	-119.70
0.1018,0.8982	-116.76
0.3618,0.6382	-120.85
0.1140,0.8860	-114.58
0.2986,0.7014	-117.53
0.1236,0.8764	-114.61
0.1675,0.8325	-116.61
0.0811,0.9189	-114.73
0.3857,0.6143	-120.74
0.1152,0.8848	-114.58
0.3164,0.6836	-121.04
0.1033,0.8967	-118.90
0.1938,0.8062	-116.82
0.0931,0.9069	-116.90
0.4376,0.5624	-122.61
0.1194,0.8806	-120.59
0.3376,0.6624	-121.20
0.1142,0.8858	-122.78
0.1990,0.8010	-121.05
0.0897,0.9103	-114.64
0.4659,0.5341	-122.94
0.1699,0.8301	-118.21
0.3213,0.6787	-121.08
0.0961,0.9039	-119.08
0.2574,0.7426	-117.65
0.0997,0.9003	-114.59
0.4797,0.5203	-123.03
0.1353,0.8647	-116.54
0.3259,0.6741	-122.56
0.0891,0.9109	-114.65
0.2580,0.7420	-117.66
0.1122,0.8878	-114.58
0.3929,0.6071	-121.76
0.1572,0.8428	-118.24
0.2661,0.7339	-117.80
0.0958,0.9042	-116.85
0.2256,0.7744	-119.65
0.1019,0.8981	-116.76
0.4216,0.5784	-121.81
0.1167,0.8833	-118.64
0.2424,0.7576	-117.42
0.0841,0.9159	-119.47
0.2884,0.7116	-118.19
0.1026,0.8974	-116.75
0.4572,0.5428	-122.31
0.1194,0.8806	-114.60
0.2319,0.7681	-119.66
0.0831,0.9169	-117.10
0.2996,0.7004	-119.25
0.1349,0.8651	-116.54
0.4948,0.5052	-123.30
0.1222,0.8778	-118.55
0.2208,0.7792	-118.38
0.0745,0.9255	-117.34
0.3273,0.6727	-118.96
0.1590,0.8410	-116.57
0.5056,0.4944	-123.46
0.1232,0.8768	-114.61
0.2282,0.7718	-120.87
0.0770,0.9230	-119.75
0.2931,0.7069	-120.04
0.1723,0.8277	-118.21
0.4676,0.5324	-123.09
0.0946,0.9054	-116.87
0.2395,0.7605	-117.38
0.0811,0.9189	-119.58
0.2813,0.7187	-119.00
0.1431,0.8569	-116.53
0.4324,0.5676	-121.47
0.1089,0.8911	-114.58
0.2311,0.7689	-119.66
0.0849,0.9151	-114.68
0.2370,0.7630	-120.85
0.1522,0.8478	-116.55
0.4305,0.5695	-122.25
0.1269,0.8731	-122.34
0.2776,0.7224	-117.99
0.0930,0.9070	-114.62
0.2404,0.7596	-121.99
0.1195,0.8805	-120.59
0.3878,0.6122	-121.70
0.1457,0.8543	-118.30
0.2478,0.7522	-118.61
0.1074,0.8926	-120.93
0.2762,0.7238	-117.97
0.1111,0.8889	-114.58
0.3499,0.6501	-121.30
0.1116,0.8884	-116.65
0.2467,0.7533	-118.60
0.0975,0.9025	-114.60
0.1895,0.8105	-115.32
0.1293,0.8707	-116.55
0.3132,0.6868	-119.45
0.1438,0.8562	-120.10
0.1880,0.8120	-122.61
0.0808,0.9192	-114.73
0.1832,0.8168	-119.71
0.1307,0.8693	-118.44
0.2605,0.7395	-121.88
0.1631,0.8369	-118.23
0.2046,0.7954	-121.00
0.0777,0.9223	-119.72
0.2053,0.7947	-118.29
0.1362,0.8638	-116.53
0.1998,0.8002	-116.88
0.1858,0.8142	-118.22
0.2364,0.7636	-117.33
0.0835,0.9165	-117.09
0.1720,0.8280	-118.21
0.1301,0.8699	-118.45
0.2605,0.7395	-119.79
0.1514,0.8486	-114.82
0.2169,0.7831	-118.36
0.0833,0.9167	-117.10
0.1798,0.8202	-115.18
0.1466,0.8534	-116.54
0.2703,0.7297	-116.87
0.1254,0.8746	-116.56
0.2186,0.7814	-117.09
0.1074,0.8926	-114.58
0.1571,0.8429	-118.24
0.1255,0.8745	-116.56
0.2475,0.7525	-118.61
0.1313,0.8687	-116.54
0.2698,0.7302	-116.86
0.1084,0.8916	-118.79
0.1837,0.8163	-119.71
0.1148,0.8852	-118.67
0.2348,0.7652	-117.31
0.1439,0.8561	-120.10
0.2921,0.7079	-119.14
0.1040,0.8960	-118.89
0.1842,0.8158	-118.22
0.1274,0.8726	-118.48
0.2204,0.7796	-117.11
0.1459,0.8541	-118.30
0.2838,0.7162	-121.81
0.0805,0.9195	-117.17
0.2224,0.7776	-118.39
0.1478,0.8522	-114.79
0.2535,0.7465	-120.83
0.1672,0.8328	-118.22
0.2781,0.7219	-118.96
0.0793,0.9207	-114.75
0.2001,0.7999	-118.26
0.1489,0.8511	-114.80
0.2615,0.7385	-119.80
0.1686,0.8314	-121.41
0.3278,0.6722	-119.69
0.0823,0.9177	-114.71
0.2051,0.7949	-116.93
0.1684,0.8316	-115.02
0.2326,0.7674	-118.47
0.2433,0.7567	-118.57
0.3352,0.6648	-121.18
0.0685,0.9315	-114.93
0.2009,0.7991	-115.51
0.1484,0.8516	-118.29
0.2040,0.7960	-116.92
0.2600,0.7400	-119.79
0.3652,0.6348	-119.79
0.0685,0.9315	-114.93
0.2098,0.7902	-116.99
0.1557,0.8443	-116.56
0.2108,0.7892	-118.32
0.2385,0.7615	-117.36
0.3425,0.6575	-121.24
0.0758,0.9242	-122.30
0.1697,0.8303	-116.63
0.1506,0.8494	-120.00
0.2025,0.7975	-119.65
0.2789,0.7211	-120.87
0.3472,0.6528	-121.28
0.1156,0.8844	-124.76
0.1875,0.8125	-119.69
0.1454,0.8546	-118.31
0.2143,0.7857	-119.64
0.2617,0.7383	-120.83
0.3479,0.6521	-122.54
0.1292,0.8708	-118.46
0.2172,0.7828	-115.79
0.1361,0.8639	-114.69
0.1908,0.8092	-115.34
0.2619,0.7381	-118.76
0.3544,0.6456	-121.94
0.1261,0.8739	-120.43
0.2380,0.7620	-119.68
0.1263,0.8737	-118.49
0.1792,0.8208	-115.17
0.2409,0.7591	-117.40
0.3473,0.6527	-120.65
0.1337,0.8663	-118.41
0.2506,0.7494	-118.64
0.1911,0.8089	-118.23
0.1861,0.8139	-119.70
0.2166,0.7834	-118.35
0.3291,0.6709	-119.71
0.1437,0.8563	-118.32
0.2193,0.7807	-117.10
0.1691,0.8309	-118.21
0.1955,0.8045	-116.83
0.1727,0.8273	-118.21
0.3802,0.6198	-121.12
0.1202,0.8798	-118.58
0.2136,0.7864	-118.33
0.1630,0.8370	-118.23
0.1825,0.8175	-121.21
0.1588,0.8412	-118.24
0.3834,0.6166	-120.70
0.1076,0.8924	-116.69
0.1880,0.8120	-115.30
0.1751,0.8249	-115.11
0.1909,0.8091	-116.79
0.1227,0.8773	-116.58
0.3864,0.6136	-121.22
0.1053,0.8947	-114.58
0.2063,0.7937	-118.29
0.2283,0.7717	-122.09
0.1630,0.8370	-114.95
0.1599,0.8401	-116.58
0.3148,0.6852	-119.48
0.0903,0.9097	-116.95
0.1926,0.8074	-116.80
0.2869,0.7131	-119.98
0.1683,0.8317	-116.62
0.1702,0.8298	-116.63
0.2888,0.7112	-120.00
0.0645,0.9355	-115.02
0.2179,0.7821	-119.64
0.3117,0.6883	-121.81
0.1313,0.8687	-114.65
0.1545,0.8455	-114.86
0.2670,0.7330	-120.84
0.0555,0.9445	-115.29
0.2398,0.7602	-120.84
0.3942,0.6058	-122.20
0.1254,0.8746	-118.51
0.1544,0.8456	-114.85
0.2870,0.7130	-119.98
0.0691,0.9309	-114.92
0.2315,0.7685	-117.26
0.3859,0.6141	-122.14
0.1065,0.8935	-114.58
0.1566,0.8434	-118.25
0.2439,0.7561	-116.31
0.0892,0.9108	-116.97
0.1910,0.8090	-118.23
0.3756,0.6244	-121.56
0.1009,0.8991	-114.59
0.1818,0.8182	-118.21
0.2355,0.7645	-119.67
0.0939,0.9061	-116.88
0.1796,0.8204	-116.69
0.3559,0.6441	-120.77
0.1185,0.8815	-114.59
0.1663,0.8337	-121.44
0.2647,0.7353	-119.82
0.0918,0.9082	-119.21
0.1729,0.8271	-115.08
0.3551,0.6449	-121.95
0.1388,0.8612	-118.36
0.1563,0.8437	-119.93
0.2486,0.7514	-121.94
0.0893,0.9107	-114.64
0.2126,0.7874	-119.64
0.3489,0.6511	-120.05
0.1516,0.8484	-114.82
0.1374,0.8626	-118.37
0.2224,0.7776	-119.64
0.1274,0.8726	-118.48
0.1970,0.8030	-118.25
0.3236,0.6764	-120.35
0.1405,0.8595	-116.53
0.1197,0.8803	-118.59
0.2776,0.7224	-120.86
0.1070,0.8930	-118.82
0.2427,0.7573	-116.29
0.3232,0.6768	-121.83
0.1271,0.8729	-116.56
0.1063,0.8937	-120.96
0.3032,0.6968	-120.13
0.1259,0.8741	-114.62
0.2413,0.7587	-119.69
0.2969,0.7031	-120.94
0.1485,0.8515	-120.03
0.1094,0.8906	-116.67
0.3182,0.6818	-120.29
0.1363,0.8637	-114.69
0.2585,0.7415	-119.78
0.3313,0.6687	-121.15
0.1657,0.8343	-123.07
0.0963,0.9037	-114.60
0.2949,0.7051	-120.93
0.1610,0.8390	-118.23
0.2314,0.7686	-117.26
0.2879,0.7121	-118.18
0.1731,0.8269	-118.21
0.0936,0.9064	-114.62
0.2468,0.7532	-119.72
0.1282,0.8718	-116.55
0.2081,0.7919	-115.63
0.2818,0.7182	-119.94
0.2415,0.7585	-118.55
0.1117,0.8883	-118.72
0.2698,0.7302	-119.85
0.0909,0.9091	-114.63
0.2037,0.7963	-118.28
0.2265,0.7735	-117.19
0.2526,0.7474	-120.83
0.1088,0.8912	-114.58
0.3115,0.6885	-121.01
0.0836,0.9164	-114.70
0.2303,0.7697	-118.45
0.2166,0.7834	-120.92
0.2460,0.7540	-117.47
0.1178,0.8822	-114.59
0.2917,0.7083	-120.91
0.0734,0.9266	-114.84
0.1816,0.8184	-119.72
0.2587,0.7413	-116.62
0.2497,0.7503	-118.63
0.1460,0.8540	-116.54
0.2536,0.7464	-122.99
0.0675,0.9325	-114.95
0.2101,0.7899	-116.99
0.2471,0.7529	-120.83
0.2621,0.7379	-117.73
0.1257,0.8743	-116.56
0.2170,0.7830	-122.21
0.0661,0.9339	-114.98
0.1961,0.8039	-118.25
0.2120,0.7880	-119.64
0.2810,0.7190	-120.87
0.1219,0.8781	-118.55
0.2776,0.7224	-117.99
0.0496,0.9504	-118.47
0.2098,0.7902	-115.66
0.2440,0.7560	-117.44
0.2749,0.7251	-119.89
0.1064,0.8936	-118.83
0.2639,0.7361	-119.81
0.0471,0.9529	-118.64
0.2240,0.7760	-119.65
0.1754,0.8246	-119.76
0.2802,0.7198	-122.76
0.1163,0.8837	-114.59
0.2572,0.7428	-117.65
0.0415,0.9585	-115.92
0.2198,0.7802	-119.64
0.1786,0.8214	-116.69
0.2481,0.7519	-116.40
0.1256,0.8744	-114.62
0.2672,0.7328	-117.81
0.0499,0.9501	-115.50
0.1898,0.8102	-118.23
0.1979,0.8021	-115.46
0.2409,0.7591	-119.69
0.1283,0.8717	-116.55
0.2370,0.7630	-120.85
0.0494,0.9506	-115.52
0.2063,0.7937	-115.60
0.1784,0.8216	-116.68
0.1771,0.8229	-121.28
0.1659,0.8341	-116.60
0.2414,0.7586	-117.40
0.0492,0.9508	-115.53
0.2463,0.7537	-117.48
0.1729,0.8271	-116.65
0.1503,0.8497	-118.28
0.2160,0.7840	-122.22
0.2042,0.7958	-115.56
0.0478,0.9522	-121.58
0.2473,0.7527	-118.61
0.1606,0.8394	-118.23
0.1748,0.8252	-119.76
0.2495,0.7505	-116.43
0.1931,0.8069	-119.67
0.0462,0.9538	-115.67
0.2404,0.7596	-119.69
0.2273,0.7727	-122.10
0.1793,0.8207	-118.21
0.2239,0.7761	-117.16
0.2560,0.7440	-117.63
0.0563,0.9437	-118.08
0.2237,0.7763	-118.40
0.2445,0.7555	-117.45
0.2007,0.7993	-116.89
0.2193,0.7807	-119.64
0.2559,0.7441	-118.70
0.0585,0.9415	-115.19
0.2063,0.7937	-115.60
0.2156,0.7844	-117.06
0.2218,0.7782	-118.39
0.2095,0.7905	-118.31
0.2717,0.7283	-117.89
0.0645,0.9355	-117.70
0.2068,0.7932	-115.61
0.2079,0.7921	-116.96
0.2236,0.7764	-117.16
0.1810,0.8190	-116.70
0.2362,0.7638	-117.33
0.0653,0.9347	-115.00
0.2153,0.7847	-118.34
0.2393,0.7607	-119.69
0.2245,0.7755	-117.17
0.2104,0.7896	-116.99
0.2700,0.7300	-117.86
0.0720,0.9280	-114.86
0.1762,0.8238	-118.21
0.2697,0.7303	-117.86
0.2722,0.7278	-118.88
0.2137,0.7863	-118.33
0.2151,0.7849	-118.34
0.0794,0.9206	-117.20
0.1877,0.8123	-118.22
0.2630,0.7370	-119.81
0.3358,0.6642	-119.14
0.2222,0.7778	-115.88
0.2522,0.7478	-123.00
0.0774,0.9226	-117.25
0.2042,0.7958	-118.28
0.2863,0.7137	-119.98
0.3715,0.6285	-120.99
0.2325,0.7675	-119.67
0.2624,0.7376	-118.77
0.0799,0.9201	-117.18
0.2085,0.7915	-119.64
0.2982,0.7018	-120.09
0.3363,0.6637	-120.51
0.2261,0.7739	-118.42
0.2479,0.7521	-119.72
0.0716,0.9284	-114.87
0.2025,0.7975	-115.53
0.3784,0.6216	-120.60
0.2609,0.7391	-120.83
0.2230,0.7770	-118.40
0.2748,0.7252	-118.92
0.0765,0.9235	-117.28
0.1882,0.8118	-116.76
0.3341,0.6659	-120.48
0.2697,0.7303	-118.85
0.1913,0.8087	-119.68
0.2977,0.7023	-120.08
0.0671,0.9329	-114.96
0.1597,0.8403	-116.57
0.3337,0.6663	-119.78
0.2656,0.7344	-119.82
0.1714,0.8286	-119.79
0.2908,0.7092	-118.23
0.0877,0.9123	-114.66
0.2202,0.7798	-117.11
0.3298,0.6702	-119.72
0.2257,0.7743	-118.42
0.1743,0.8257	-116.66
0.4030,0.5970	-121.88
0.0903,0.9097	-116.95
0.2652,0.7348	-119.82
0.2776,0.7224	-121.82
0.2509,0.7491	-117.55
0.1560,0.8440	-118.25
0.3687,0.6313	-121.49
0.0775,0.9225	-117.25
0.1915,0.8085	-115.35
0.2917,0.7083	-121.80
0.2528,0.7472	-119.75
0.1460,0.8540	-116.54
0.3765,0.6235	-121.06
0.1090,0.8910	-114.58
0.2059,0.7941	-118.29
0.3143,0.6857	-119.47
0.2130,0.7870	-119.64
0.1033,0.8967	-118.90
0.3877,0.6123	-121.70
0.1274,0.8726	-118.48
0.2207,0.7793	-120.90
0.3397,0.6603	-120.55
0.1970,0.8030	-115.44
0.1105,0.8895	-118.75
0.3602,0.6398	-120.83
0.1332,0.8668	-116.54
0.2270,0.7730	-117.20
0.3358,0.6642	-120.50
0.2180,0.7820	-115.81
0.1287,0.8713	-120.38
0.3508,0.6492	-119.47
0.1102,0.8898	-114.58
0.1908,0.8092	-116.79
0.3064,0.6936	-118.53
0.2105,0.7895	-116.99
0.1342,0.8658	-114.67
0.3754,0.6246	-122.07
0.1269,0.8731	-116.56
0.2021,0.7979	-118.27
0.3311,0.6689	-119.04
0.1834,0.8166	-116.72
0.1337,0.8663	-116.54
0.3587,0.6413	-119.64
0.1251,0.8749	-114.62
0.2221,0.7779	-118.39
0.3428,0.6572	-122.54
0.2255,0.7745	-117.18
0.1302,0.8698	-116.55
0.3773,0.6227	-121.08
0.1401,0.8599	-118.35
0.1924,0.8076	-116.80
0.3231,0.6769	-121.09
0.2439,0.7561	-118.57
0.1169,0.8831	-118.63
0.3528,0.6472	-120.12
0.1435,0.8565	-116.53
0.2002,0.7998	-118.27
0.3550,0.6450	-119.56
0.2482,0.7518	-118.62
0.1340,0.8660	-116.54
0.3673,0.6327	-120.38
0.1718,0.8282	-119.78
0.2115,0.7885	-117.01
0.3075,0.6925	-121.80
0.2634,0.7366	-119.81
0.1823,0.8177	-118.22
0.3529,0.6471	-120.72
0.1444,0.8556	-118.31
0.2080,0.7920	-115.63
0.3051,0.6949	-119.33
0.2578,0.7422	-117.66
0.1711,0.8289	-116.63
0.3715,0.6285	-120.99
0.1424,0.8576	-118.33
0.1734,0.8266	-118.21
0.2702,0.7298	-117.87
0.2587,0.7413	-118.73
0.1971,0.8029	-118.25
0.3231,0.6769	-119.61
0.1558,0.8442	-116.56
0.1666,0.8334	-119.83
0.2554,0.7446	-120.83
0.2162,0.7838	-118.35
0.2462,0.7538	-119.71
0.2805,0.7195	-118.05
0.1375,0.8625	-122.04
0.1719,0.8281	-119.78
0.2389,0.7611	-118.53
0.1861,0.8139	-116.75
0.2838,0.7162	-119.03
0.2639,0.7361	-119.81
0.1348,0.8652	-114.68
0.1706,0.8294	-115.05
0.2956,0.7044	-119.19
0.1753,0.8247	-116.66
0.2647,0.7353	-119.82
0.2629,0.7371	-119.80
0.1421,0.8579	-114.74
0.1838,0.8162	-116.73
0.2790,0.7210	-117.07
0.1943,0.8057	-115.40
0.2485,0.7515	-117.51
0.2155,0.7845	-117.05
0.1286,0.8714	-114.64
0.1836,0.8164	-118.22
0.2722,0.7278	-120.85
0.1875,0.8125	-118.22
0.2270,0.7730	-118.43
0.2093,0.7907	-122.30
0.1202,0.8798	-114.60
0.1918,0.8082	-118.24
0.2394,0.7606	-120.84
0.2106,0.7894	-116.99
0.2020,0.7980	-116.90
0.2248,0.7752	-117.17
0.1144,0.8856	-116.63
0.2428,0.7572	-117.43
0.2144,0.7856	-117.04
0.2077,0.7923	-119.64
0.1608,0.8392	-116.58
0.2219,0.7781	-117.13
0.1098,0.8902	-114.58
0.1902,0.8098	-115.33
0.2213,0.7787	-119.64
0.1849,0.8151	-115.25
0.1922,0.8078	-116.80
0.1931,0.8069	-116.81
0.1144,0.8856	-120.72
0.1956,0.8044	-118.25
0.2303,0.7697	-117.25
0.1648,0.8352	-118.22
0.1920,0.8080	-116.80
0.1887,0.8113	-116.77
0.1148,0.8852	-116.63
0.2276,0.7724	-119.65
0.2597,0.7403	-119.78
0.2071,0.7929	-116.95
0.1555,0.8445	-114.87
0.1981,0.8019	-115.46
0.1146,0.8854	-118.67
0.2079,0.7921	-116.96
0.2408,0.7592	-119.69
0.1600,0.8400	-114.92
0.1609,0.8391	-118.23
0.1923,0.8077	-118.24
0.1007,0.8993	-116.78
0.2532,0.7468	-120.83
0.2195,0.7805	-119.64
0.1361,0.8639	-118.38
0.1483,0.8517	-116.54
0.1931,0.8069	-118.24
0.0988,0.9012	-114.59
0.2282,0.7718	-117.22
0.2704,0.7296	-120.85
0.1226,0.8774	-118.54
0.1683,0.8317	-115.02
0.1590,0.8410	-116.57
0.0956,0.9044	-114.61
0.2221,0.7779	-119.64
0.2663,0.7337	-118.81
0.1484,0.8516	-116.54
0.1709,0.8291	-115.05
0.1995,0.8005	-116.87
0.0959,0.9041	-116.85
0.2044,0.7956	-116.92
0.3145,0.6855	-119.47
0.1662,0.8338	-114.99
0.2001,0.7999	-118.26
0.2446,0.7554	-117.45
0.0929,0.9071	-114.62
0.2172,0.7828	-118.36
0.3349,0.6651	-121.18
0.1475,0.8525	-114.78
0.2016,0.7984	-116.89
0.1983,0.8017	-115.46
0.0838,0.9162	-117.09
0.2474,0.7526	-117.50
0.2786,0.7214	-118.96
0.1359,0.8641	-122.08
0.2072,0.7928	-119.64
0.1827,0.8173	-121.21
0.0876,0.9124	-114.66
0.2130,0.7870	-118.33
0.2875,0.7125	-118.17
0.1476,0.8524	-120.05
0.2322,0.7678	-116.08
0.1696,0.8304	-115.04
0.0860,0.9140	-114.67
0.2375,0.7625	-119.68
0.2922,0.7078	-121.80
0.1346,0.8654	-114.68
0.1992,0.8008	-115.48
0.1684,0.8316	-116.62
0.0904,0.9096	-116.95
0.1853,0.8147	-115.26
0.3059,0.6941	-120.98
0.1335,0.8665	-114.67
0.1970,0.8030	-118.25
0.1903,0.8097	-115.33
0.0975,0.9025	-114.60
0.1763,0.8237	-119.75
0.2907,0.7093	-119.12
0.1172,0.8828	-118.63
0.2111,0.7889	-119.64
0.1875,0.8125	-119.69
0.0886,0.9114	-116.98
0.1849,0.8151	-121.19
0.2906,0.7094	-118.23
0.0963,0.9037	-114.60
0.2040,0.7960	-116.92
0.2019,0.7981	-116.90
0.0857,0.9143	-114.68
0.1715,0.8285	-115.06
0.2746,0.7254	-120.86
0.1008,0.8992	-114.59
0.2344,0.7656	-118.49
0.2130,0.7870	-118.33
0.0869,0.9131	-114.66
0.1446,0.8554	-118.31
0.2323,0.7677	-117.27
0.1213,0.8787	-114.60
0.2312,0.7688	-119.66
0.2184,0.7816	-119.64
0.0852,0.9148	-119.43
0.1245,0.8755	-114.62
0.2550,0.7450	-118.69
0.1446,0.8554	-114.76
0.1942,0.8058	-119.67
0.1997,0.8003	-119.65
0.0836,0.9164	-117.09
0.1451,0.8549	-116.54
0.2089,0.7911	-118.31
0.1618,0.8382	-119.87
0.2156,0.7844	-118.35
0.1835,0.8165	-119.71
0.0816,0.9184	-117.14
0.1754,0.8246	-118.21
0.1978,0.8022	-116.86
0.1577,0.8423	-121.59
0.1899,0.8101	-118.23
0.2216,0.7784	-119.64
0.0972,0.9028	-116.83
