#isoforms=['ENSG00000186575.SE.4.A.up_ENSG00000186575.SE.4.A.SE1_ENSG00000186575.SE.4.A.dn','ENSG00000186575.SE.4.B.up_ENSG00000186575.SE.4.B.dn']	exon_lens=('ENSG00000186575.SE.4.A.up',128),('ENSG00000186575.SE.4.A.SE1',163),('ENSG00000186575.SE.4.A.dn',3847),('ENSG00000186575.SE.4.B.up',128),('ENSG00000186575.SE.4.B.dn',194)	iters=5000	burn_in=500	lag=10	percent_accept=96.19	proposal_type=drift	counts=(0,0):86,(1,0):675,(1,1):45	assigned_counts=0:712,1:8	chrom=chr22	strand=+	mRNA_starts=29678196,29678196	mRNA_ends=29698598,29694945
sampled_psi	log_score
0.9392,0.0608	-5995.45
0.7467,0.2533	-6021.35
0.9360,0.0640	-6000.94
0.8350,0.1650	-6012.25
0.9604,0.0396	-5994.74
0.8163,0.1837	-6018.53
0.9253,0.0747	-6008.61
0.6987,0.3013	-6021.62
0.9379,0.0621	-5995.50
0.8404,0.1596	-6013.85
0.9606,0.0394	-5994.73
0.8299,0.1701	-6007.57
0.9167,0.0833	-6001.21
0.7350,0.2650	-6015.42
0.9375,0.0625	-5995.52
0.7944,0.2056	-6009.04
0.9587,0.0413	-6001.07
0.8166,0.1834	-6012.56
0.9107,0.0893	-6008.30
0.7129,0.2871	-6022.95
0.9283,0.0717	-5998.46
0.8038,0.1962	-6017.08
0.9605,0.0395	-6001.12
0.7955,0.2045	-6022.58
0.9160,0.0840	-6010.78
0.7529,0.2471	-6025.73
0.9232,0.0768	-6001.09
0.8150,0.1850	-6008.14
0.9527,0.0473	-5997.97
0.7889,0.2111	-6015.90
0.8912,0.1088	-6006.07
0.7523,0.2477	-6016.84
0.9047,0.0953	-5999.23
0.8287,0.1713	-6015.49
0.9489,0.0511	-5995.10
0.8255,0.1745	-6013.95
0.8635,0.1365	-6006.56
0.7880,0.2120	-6011.98
0.9104,0.0896	-6010.62
0.8683,0.1317	-6010.22
0.9498,0.0502	-6000.95
0.8392,0.1608	-6003.95
0.8655,0.1345	-6012.10
0.7964,0.2036	-6021.23
0.9226,0.0774	-6003.58
0.8822,0.1178	-6012.23
0.9458,0.0542	-6003.79
0.8521,0.1479	-6010.36
0.8679,0.1321	-6010.22
0.7901,0.2099	-6021.18
0.9320,0.0680	-6021.92
0.8983,0.1017	-6003.83
0.9319,0.0681	-5995.75
0.8682,0.1318	-6008.34
0.8718,0.1282	-6004.46
0.7777,0.2223	-6017.39
0.9252,0.0748	-5998.55
0.9112,0.0888	-6005.98
0.9301,0.0699	-5998.41
0.8735,0.1265	-6010.21
0.8930,0.1070	-6010.30
0.8292,0.1708	-6010.75
0.9278,0.0722	-6006.13
0.8803,0.1197	-6008.22
0.9223,0.0777	-6003.58
0.8723,0.1277	-6006.37
0.9050,0.0950	-6005.98
0.8405,0.1595	-6012.19
0.9398,0.0602	-6003.67
0.9186,0.0814	-6008.44
0.9082,0.0918	-6003.69
0.8408,0.1592	-6013.85
0.8986,0.1014	-6008.19
0.8463,0.1537	-6012.14
0.9372,0.0628	-6000.94
0.9320,0.0680	-6003.60
0.9048,0.0952	-6003.73
0.8290,0.1710	-6012.34
0.8850,0.1150	-6004.11
0.8486,0.1514	-6006.96
0.9427,0.0573	-5998.12
0.9266,0.0734	-5998.51
0.9147,0.0853	-6010.74
0.7874,0.2126	-6018.55
0.9039,0.0961	-5994.78
0.8679,0.1321	-6002.69
0.9457,0.0543	-6003.78
0.9338,0.0662	-6003.61
0.9282,0.0718	-5998.46
0.7535,0.2465	-6016.80
0.9092,0.0908	-5999.07
0.8723,0.1277	-6012.13
0.9509,0.0491	-5992.07
0.9344,0.0656	-5998.30
0.9139,0.0861	-6003.63
0.7387,0.2613	-6014.20
0.9168,0.0832	-6003.60
0.8662,0.1338	-6004.63
0.9553,0.0447	-6004.07
0.9434,0.0566	-5992.48
0.9125,0.0875	-6003.64
0.7867,0.2133	-6010.72
0.9398,0.0602	-6003.67
0.8605,0.1395	-6010.27
0.9537,0.0463	-5994.94
0.9328,0.0672	-6003.60
0.9167,0.0833	-6001.21
0.7794,0.2206	-6016.09
0.9472,0.0528	-5995.16
0.8300,0.1700	-6012.32
0.9471,0.0529	-6000.93
0.9265,0.0735	-6001.04
0.9167,0.0833	-6008.40
0.7377,0.2623	-6019.42
0.9397,0.0603	-5998.18
0.8466,0.1534	-6003.60
0.9462,0.0538	-6009.53
0.9326,0.0674	-5998.35
0.8960,0.1040	-6003.87
0.7136,0.2864	-6019.28
0.9507,0.0493	-5995.04
0.8566,0.1434	-6010.31
0.9443,0.0557	-5995.26
0.9351,0.0649	-6006.29
0.8948,0.1052	-6006.04
0.7397,0.2603	-6015.19
0.9563,0.0437	-5997.94
0.8858,0.1142	-6006.14
0.9405,0.0595	-5995.40
0.9239,0.0761	-5998.58
0.8712,0.1288	-6000.65
0.7251,0.2749	-6019.80
0.9575,0.0425	-5997.93
0.8870,0.1130	-6008.18
0.9423,0.0577	-5998.13
0.9358,0.0642	-5998.27
0.8857,0.1143	-6006.14
0.7239,0.2761	-6019.84
0.9597,0.0403	-5997.93
0.8725,0.1275	-6010.21
0.9348,0.0652	-5998.29
0.9391,0.0609	-5992.72
0.8997,0.1003	-6001.61
0.7224,0.2776	-6019.89
0.9612,0.0388	-6001.13
0.8593,0.1407	-6013.90
0.9329,0.0671	-5993.07
0.9390,0.0610	-5998.19
0.8867,0.1133	-5999.95
0.7090,0.2910	-6024.82
0.9524,0.0476	-5997.98
0.8400,0.1600	-6012.20
0.9423,0.0577	-5998.13
0.9407,0.0593	-5998.16
0.8775,0.1225	-6008.24
0.7547,0.2453	-6019.01
0.9403,0.0597	-6003.68
0.8545,0.1455	-6013.87
0.9323,0.0677	-6011.46
0.9415,0.0585	-5998.14
0.8489,0.1511	-6005.22
0.7966,0.2034	-6018.50
0.9463,0.0537	-6003.80
0.8060,0.1940	-6019.91
0.9349,0.0651	-6000.95
0.9516,0.0484	-5995.00
0.8431,0.1569	-6007.12
0.8046,0.1954	-6005.75
0.9412,0.0588	-6000.92
0.8140,0.1860	-6006.71
0.9368,0.0632	-6003.64
0.9519,0.0481	-5997.98
0.8185,0.1815	-6015.53
0.8324,0.1676	-6015.49
0.9235,0.0765	-6001.09
0.7978,0.2022	-6010.26
0.9421,0.0579	-6000.92
0.9536,0.0464	-5997.96
0.8296,0.1704	-6015.49
0.8345,0.1655	-6004.17
0.9264,0.0736	-6003.58
0.8145,0.1855	-6017.04
0.9442,0.0558	-5992.44
0.9522,0.0478	-5997.98
0.8330,0.1670	-6015.49
0.8418,0.1582	-6008.84
0.9122,0.0878	-6022.37
0.8399,0.1601	-6018.83
0.9533,0.0467	-5994.95
0.9509,0.0491	-5992.07
0.8179,0.1821	-6012.53
0.8448,0.1552	-6010.46
0.9045,0.0955	-6005.98
0.8310,0.1690	-6007.53
0.9555,0.0445	-5994.88
0.9502,0.0498	-5998.00
0.8137,0.1863	-6008.19
0.8468,0.1532	-6003.59
0.9022,0.0978	-6001.55
0.8071,0.1929	-6009.90
0.9606,0.0394	-6001.12
0.9492,0.0508	-5995.09
0.8197,0.1803	-6015.52
0.8430,0.1570	-6003.76
0.9126,0.0874	-6008.33
0.8055,0.1945	-6018.49
0.9662,0.0338	-5997.94
0.9448,0.0552	-5998.08
0.8268,0.1732	-6009.24
0.8203,0.1797	-6009.45
0.9127,0.0873	-6008.33
0.7903,0.2097	-6006.59
0.9685,0.0315	-6001.39
0.9461,0.0539	-5995.19
0.8152,0.1848	-6020.01
0.7891,0.2109	-6019.86
0.9213,0.0787	-5998.66
0.8129,0.1871	-6012.63
0.9692,0.0308	-5997.98
0.9554,0.0446	-5997.95
0.8300,0.1700	-6015.49
0.7845,0.2155	-6018.57
0.9148,0.0852	-5998.87
0.7741,0.2259	-6014.99
0.9632,0.0368	-5994.66
0.9553,0.0447	-5994.89
0.8582,0.1418	-6006.69
0.7557,0.2443	-6026.90
0.9396,0.0604	-5998.18
0.8035,0.1965	-6011.45
0.9579,0.0421	-6007.31
0.9493,0.0507	-5998.01
0.8593,0.1407	-6006.66
0.8024,0.1976	-6014.29
0.9352,0.0648	-6006.29
0.8095,0.1905	-6017.05
0.9579,0.0421	-6004.18
0.9444,0.0556	-6000.92
0.8508,0.1492	-6010.37
0.8147,0.1853	-6014.08
0.9342,0.0658	-6000.96
0.7686,0.2314	-6017.56
0.9429,0.0571	-5998.12
0.9335,0.0665	-5995.68
0.8207,0.1793	-6003.35
0.8267,0.1733	-6013.94
0.9346,0.0654	-6000.95
0.7588,0.2412	-6021.22
0.9387,0.0613	-5998.20
0.9264,0.0736	-6003.58
0.8258,0.1742	-6012.39
0.8438,0.1562	-6012.16
0.9232,0.0768	-5998.61
0.7854,0.2146	-6015.97
0.9402,0.0598	-6003.68
0.9365,0.0635	-5998.25
0.8329,0.1671	-6010.67
0.8064,0.1936	-6017.06
0.9238,0.0762	-6001.08
0.7646,0.2354	-6028.25
0.9398,0.0602	-5995.43
0.9327,0.0673	-5998.34
0.8335,0.1665	-6010.66
0.8281,0.1719	-6009.21
0.9209,0.0791	-5998.68
0.7923,0.2077	-6019.86
0.9458,0.0542	-5992.35
0.9510,0.0490	-5997.99
0.8280,0.1720	-6007.64
0.7926,0.2074	-6021.20
0.9244,0.0756	-6008.58
0.7965,0.2035	-6014.41
0.9491,0.0509	-6009.72
0.9503,0.0497	-6000.95
0.8263,0.1737	-6012.38
0.8189,0.1811	-6014.02
0.9390,0.0610	-5992.73
0.7882,0.2118	-6011.97
0.9478,0.0522	-6000.93
0.9559,0.0441	-5997.94
0.8221,0.1779	-6013.98
0.8226,0.1774	-6012.44
0.9284,0.0716	-6003.58
0.8076,0.1924	-6014.19
0.9360,0.0640	-6000.94
0.9571,0.0429	-5994.83
0.8090,0.1910	-6021.38
0.8191,0.1809	-6007.98
0.9481,0.0519	-5992.22
0.8166,0.1834	-6011.06
0.9293,0.0707	-6001.01
0.9567,0.0433	-5994.84
0.7966,0.2034	-6018.50
0.8114,0.1886	-6011.21
0.9494,0.0506	-6003.87
0.8224,0.1776	-6006.31
0.9084,0.0916	-5996.80
0.9509,0.0491	-6000.96
0.7996,0.2004	-6014.34
0.7682,0.2318	-6015.17
0.9544,0.0456	-5991.87
0.8245,0.1755	-6018.60
0.9224,0.0776	-6001.10
0.9505,0.0495	-6006.86
0.8226,0.1774	-6015.51
0.7585,0.2415	-6013.21
0.9547,0.0453	-6001.00
0.8450,0.1550	-6008.76
0.9254,0.0746	-5998.54
0.9506,0.0494	-6000.95
0.8623,0.1377	-6017.59
0.7645,0.2355	-6012.94
0.9608,0.0392	-5991.53
0.8553,0.1447	-6008.54
0.9220,0.0780	-6003.58
0.9477,0.0523	-6000.93
0.8563,0.1437	-6008.52
0.8312,0.1688	-6012.31
0.9441,0.0559	-6006.57
0.8307,0.1693	-6007.54
0.9461,0.0539	-6003.79
0.9358,0.0642	-5998.27
0.8480,0.1520	-6010.41
0.8162,0.1838	-6009.58
0.9439,0.0561	-6000.92
0.8487,0.1513	-6010.40
0.9335,0.0665	-5998.32
0.9214,0.0786	-6001.12
0.8628,0.1372	-6008.41
0.7991,0.2009	-6007.45
0.9451,0.0549	-5998.08
0.8683,0.1317	-6012.11
0.9277,0.0723	-6001.03
0.9247,0.0753	-5998.56
0.8552,0.1448	-6010.32
0.7979,0.2021	-6015.75
0.9407,0.0593	-6003.69
0.8691,0.1309	-6010.22
0.9391,0.0609	-5998.19
0.9266,0.0734	-6008.65
0.8696,0.1304	-6004.52
0.7758,0.2242	-6009.97
0.9280,0.0720	-6003.58
0.8759,0.1241	-6019.97
0.9445,0.0555	-6009.42
0.9174,0.0826	-6006.01
0.8747,0.1253	-6004.38
0.8070,0.1930	-6017.06
0.9343,0.0657	-5998.30
0.8570,0.1430	-6010.30
0.9390,0.0610	-5998.20
0.9030,0.0970	-6003.76
0.8850,0.1150	-6006.15
0.7879,0.2121	-6015.92
0.9277,0.0723	-5998.48
0.8676,0.1324	-6013.98
0.9183,0.0817	-6003.60
0.9049,0.0951	-6003.73
0.8525,0.1475	-6006.84
0.7823,0.2177	-6013.48
0.9215,0.0785	-5996.19
0.8604,0.1396	-6008.45
0.9272,0.0728	-6003.58
0.8930,0.1070	-6008.18
0.8584,0.1416	-6004.88
0.7785,0.2215	-6016.12
0.9140,0.0860	-6005.99
0.8646,0.1354	-6021.37
0.9422,0.0578	-6000.92
0.8998,0.1002	-6010.39
0.8830,0.1170	-6006.18
0.7682,0.2318	-6016.37
0.8817,0.1183	-6012.22
0.8309,0.1691	-6020.27
0.9430,0.0570	-5995.31
0.9149,0.0851	-6005.99
0.8892,0.1108	-6006.10
0.7818,0.2182	-6019.87
0.8525,0.1475	-6005.09
0.8346,0.1654	-6007.40
0.9477,0.0523	-6006.72
0.9131,0.0869	-6003.63
0.8850,0.1150	-6012.27
0.8061,0.1939	-6009.94
0.8351,0.1649	-6007.39
0.8302,0.1698	-6005.97
0.9436,0.0564	-6003.74
0.9172,0.0828	-5998.79
0.8943,0.1057	-6006.04
0.7519,0.2481	-6016.85
0.8076,0.1924	-6011.32
0.8607,0.1393	-6010.27
0.9440,0.0560	-5998.10
0.9201,0.0799	-6003.59
0.9115,0.0885	-5998.99
0.7857,0.2143	-6012.07
0.8025,0.1975	-6017.09
0.8920,0.1080	-6012.40
0.9387,0.0613	-5998.20
0.9184,0.0816	-6001.17
0.9183,0.0817	-6001.18
0.7959,0.2041	-6018.50
0.7948,0.2052	-6015.80
0.9011,0.0989	-6003.79
0.9402,0.0598	-6000.92
0.8984,0.1016	-6003.83
0.9288,0.0712	-5995.87
0.8123,0.1877	-6014.11
0.8136,0.1864	-6015.57
0.9134,0.0866	-6001.28
0.9420,0.0580	-5998.13
0.9131,0.0869	-6008.34
0.9257,0.0743	-6003.58
0.8334,0.1666	-6017.10
0.8417,0.1583	-6012.18
0.9037,0.0963	-6001.51
0.9415,0.0585	-5995.37
0.9294,0.0706	-6003.58
0.9109,0.0891	-6008.30
0.8502,0.1498	-6012.12
0.7803,0.2197	-6021.15
0.9088,0.0912	-6005.98
0.9490,0.0510	-5998.02
0.9284,0.0716	-6008.70
0.8875,0.1125	-6010.25
0.8513,0.1487	-6006.88
0.8366,0.1634	-6008.97
0.9030,0.0970	-6003.76
0.9488,0.0512	-6000.94
0.9316,0.0684	-5998.37
0.8896,0.1104	-6006.09
0.8574,0.1426	-6012.09
0.8479,0.1521	-6012.13
0.8985,0.1015	-6012.55
0.9317,0.0683	-6008.82
0.9274,0.0726	-6006.12
0.8949,0.1051	-6006.04
0.8506,0.1494	-6003.42
0.8631,0.1369	-6010.25
0.9145,0.0855	-6003.62
0.9281,0.0719	-6003.58
0.9103,0.0897	-6005.98
0.8912,0.1088	-6010.28
0.8743,0.1257	-6002.45
0.8551,0.1449	-6010.32
0.9206,0.0794	-6003.59
0.9423,0.0577	-6009.30
0.9036,0.0964	-6001.51
0.8834,0.1166	-6008.20
0.8741,0.1259	-6004.39
0.8952,0.1048	-6008.18
0.9254,0.0746	-5996.02
0.9310,0.0690	-6000.99
0.9034,0.0966	-6005.99
0.8654,0.1346	-6013.96
0.8749,0.1251	-6012.15
0.8929,0.1071	-6008.18
0.9240,0.0760	-6001.08
0.9463,0.0537	-5998.06
0.8656,0.1344	-6000.92
0.8582,0.1418	-6010.29
0.8726,0.1274	-6006.36
0.8830,0.1170	-6004.16
0.8931,0.1069	-6003.93
0.9369,0.0631	-5992.85
0.8701,0.1299	-6004.51
0.8806,0.1194	-6002.22
0.8824,0.1176	-6010.22
0.8667,0.1333	-6006.48
0.9107,0.0893	-6005.98
0.9317,0.0683	-5995.75
0.8795,0.1205	-6004.25
0.8710,0.1290	-6008.30
0.8871,0.1129	-6010.24
0.8989,0.1011	-5999.45
0.8893,0.1107	-5999.84
0.9466,0.0534	-6006.68
0.9135,0.0865	-6001.27
0.8751,0.1249	-6016.05
0.8702,0.1298	-6014.02
0.8915,0.1085	-6010.28
0.8674,0.1326	-6004.59
0.9371,0.0629	-5995.54
0.9422,0.0578	-5998.13
0.8791,0.1209	-6000.29
0.8032,0.1968	-6014.27
0.8992,0.1008	-5997.25
0.8664,0.1336	-6004.62
0.9332,0.0668	-5998.33
0.9439,0.0561	-5992.45
0.8571,0.1429	-6006.72
0.7665,0.2335	-6021.17
0.9164,0.0836	-6001.21
0.8515,0.1485	-6012.11
0.9347,0.0653	-6000.95
0.9406,0.0594	-5995.40
0.8431,0.1569	-6007.12
0.7735,0.2265	-6021.15
0.9119,0.0881	-5996.63
0.8435,0.1565	-6008.80
0.9344,0.0656	-6006.27
0.9507,0.0493	-6012.79
0.8330,0.1670	-6005.85
0.7670,0.2330	-6012.83
0.8952,0.1048	-6008.18
0.8343,0.1657	-6010.65
0.9224,0.0776	-5996.15
0.9527,0.0473	-5997.97
0.8298,0.1702	-6012.33
0.7881,0.2119	-6014.60
0.9031,0.0969	-6008.22
0.8254,0.1746	-6006.18
0.9149,0.0851	-5998.87
0.9520,0.0480	-5997.98
0.8477,0.1523	-6005.27
0.7943,0.2057	-6017.16
0.9328,0.0672	-5998.34
0.8047,0.1953	-6012.83
0.9024,0.0976	-6010.44
0.9377,0.0623	-5998.22
0.8284,0.1716	-6007.62
0.7972,0.2028	-6018.50
0.9312,0.0688	-5995.77
0.8293,0.1707	-6009.17
0.9193,0.0807	-5998.72
0.9262,0.0738	-6008.64
0.8137,0.1863	-6018.51
0.7804,0.2196	-6013.54
0.9224,0.0776	-6001.10
0.8176,0.1824	-6006.54
0.9240,0.0760	-6006.07
0.9388,0.0612	-5998.20
0.8174,0.1826	-6012.54
0.7963,0.2037	-6015.77
0.9222,0.0778	-5998.63
0.7872,0.2128	-6009.39
0.9168,0.0832	-6006.00
0.9503,0.0497	-5998.00
0.8035,0.1965	-6014.26
0.8329,0.1671	-6013.89
0.9191,0.0809	-5998.73
0.7963,0.2037	-6014.41
0.9241,0.0759	-6006.08
0.9540,0.0460	-6000.99
0.8282,0.1718	-6010.78
0.8174,0.1826	-6015.54
0.9224,0.0776	-6001.10
0.7929,0.2071	-6015.83
0.9029,0.0971	-6001.53
0.9534,0.0466	-5997.96
0.8550,0.1450	-6003.23
0.8425,0.1575	-6015.53
0.9403,0.0597	-6000.92
0.8168,0.1832	-6008.07
0.8980,0.1020	-6001.66
0.9565,0.0435	-5991.76
0.8514,0.1486	-6008.62
0.8514,0.1486	-6012.11
0.9378,0.0622	-6003.65
0.8041,0.1959	-6008.61
0.8944,0.1056	-6006.04
0.9641,0.0359	-5994.64
0.8433,0.1567	-6017.22
0.8620,0.1380	-6008.43
0.9351,0.0649	-5998.28
0.7712,0.2288	-6024.80
0.8893,0.1107	-6008.18
0.9660,0.0340	-5991.25
0.8578,0.1422	-6006.70
0.8416,0.1584	-6008.84
0.9266,0.0734	-6003.58
0.7578,0.2422	-6018.95
0.9112,0.0888	-6008.31
0.9653,0.0347	-5994.61
0.8778,0.1222	-6008.23
0.8440,0.1560	-6010.47
0.9174,0.0826	-6018.05
0.7264,0.2736	-6020.73
0.9103,0.0897	-6005.98
0.9714,0.0286	-5994.49
0.8867,0.1133	-6002.01
0.8174,0.1826	-6012.54
0.9095,0.0905	-6008.28
0.7147,0.2853	-6022.91
0.9080,0.0920	-6005.98
0.9699,0.0301	-5997.99
0.8979,0.1021	-5999.49
0.7938,0.2062	-6017.16
0.9221,0.0779	-5996.17
0.7228,0.2772	-6021.79
0.8954,0.1046	-6003.89
0.9657,0.0343	-5991.26
0.9013,0.0987	-6012.63
0.8037,0.1963	-6015.67
0.9377,0.0623	-6003.65
0.7085,0.2915	-6020.39
0.8994,0.1006	-6003.81
0.9738,0.0262	-5994.45
0.8940,0.1060	-6006.05
0.8100,0.1900	-6012.70
0.9360,0.0640	-5998.26
0.7788,0.2212	-6012.33
0.9074,0.0926	-5999.13
0.9816,0.0184	-6002.36
0.8998,0.1002	-6003.81
0.7867,0.2133	-6010.72
0.9379,0.0621	-5998.22
0.7793,0.2207	-6014.84
0.9277,0.0723	-5998.48
0.9807,0.0193	-5990.48
0.9104,0.0896	-6010.62
0.7938,0.2062	-6015.81
0.9448,0.0552	-6000.92
0.7913,0.2087	-6017.19
0.9387,0.0613	-5995.47
0.9807,0.0193	-5990.48
0.9133,0.0867	-5998.92
0.8247,0.1753	-6009.31
0.9478,0.0522	-6006.73
0.8212,0.1788	-6018.57
0.9271,0.0729	-6001.03
0.9831,0.0169	-5990.35
0.9214,0.0786	-6008.50
0.8431,0.1569	-6013.85
0.9549,0.0451	-5991.85
0.8490,0.1510	-6005.22
0.9062,0.0938	-6003.71
0.9807,0.0193	-5990.48
0.9164,0.0836	-6003.61
0.8727,0.1273	-6015.98
0.9548,0.0452	-5997.95
0.8579,0.1421	-6008.50
0.9210,0.0790	-6001.13
0.9798,0.0202	-5990.52
0.9231,0.0769	-5998.61
0.8814,0.1186	-6008.21
0.9615,0.0385	-5994.71
0.8819,0.1181	-6004.18
0.9252,0.0748	-6001.06
0.9778,0.0222	-5998.20
0.9299,0.0701	-6003.59
0.9005,0.0995	-6003.80
0.9587,0.0413	-5997.93
0.8810,0.1190	-6004.21
0.9319,0.0681	-6000.98
0.9813,0.0187	-5998.36
0.9345,0.0655	-5995.64
0.9177,0.0823	-6008.42
0.9579,0.0421	-5994.81
0.8818,0.1182	-6014.24
0.9227,0.0773	-6003.58
0.9824,0.0176	-5998.43
0.9357,0.0643	-5995.59
0.9135,0.0865	-6005.99
0.9602,0.0398	-6004.29
0.8683,0.1317	-6008.34
0.9213,0.0787	-5998.66
0.9850,0.0150	-5990.25
0.9457,0.0543	-5995.21
0.9314,0.0686	-6000.98
0.9638,0.0362	-5997.93
0.8878,0.1122	-6004.04
0.9158,0.0842	-6008.38
0.9849,0.0151	-5990.26
0.9454,0.0546	-5998.07
0.9353,0.0647	-6006.29
0.9673,0.0327	-5994.57
0.8943,0.1057	-6006.04
0.9147,0.0853	-6005.99
0.9849,0.0151	-5994.44
0.9524,0.0476	-5994.98
0.9203,0.0797	-6001.14
0.9668,0.0332	-5997.95
0.8895,0.1105	-6014.43
0.8988,0.1012	-6001.64
0.9857,0.0143	-5994.45
0.9480,0.0520	-5998.03
0.9391,0.0609	-5995.46
0.9703,0.0297	-5991.02
0.8807,0.1193	-6014.21
0.8981,0.1019	-6006.01
0.9843,0.0157	-5990.29
0.9534,0.0466	-5997.96
0.9521,0.0479	-6000.97
0.9690,0.0310	-5991.09
0.8910,0.1090	-6003.97
0.8841,0.1159	-6008.19
0.9801,0.0199	-5990.50
0.9596,0.0404	-5997.93
0.9488,0.0512	-6000.94
0.9650,0.0350	-5994.62
0.8949,0.1051	-5999.61
0.9075,0.0925	-6008.26
0.9834,0.0166	-5994.42
0.9565,0.0435	-6001.03
0.9468,0.0532	-5995.17
0.9603,0.0397	-5997.93
0.9260,0.0740	-5998.52
0.8859,0.1141	-6008.19
0.9834,0.0166	-5994.42
0.9604,0.0396	-5991.55
0.9326,0.0674	-6003.60
0.9597,0.0403	-5997.93
0.9352,0.0648	-6003.62
0.9065,0.0935	-6008.25
0.9868,0.0132	-5994.48
0.9624,0.0376	-5994.68
0.9380,0.0620	-5998.22
0.9367,0.0633	-6003.63
0.9479,0.0521	-5998.03
0.9024,0.0976	-6003.77
0.9886,0.0114	-5994.53
0.9656,0.0344	-5991.27
0.9440,0.0560	-6000.92
0.9352,0.0648	-6000.95
0.9406,0.0594	-5995.40
0.9012,0.0988	-6003.78
0.9885,0.0115	-5994.53
0.9673,0.0327	-5991.18
0.9397,0.0603	-5998.18
0.9367,0.0633	-5995.55
0.9386,0.0614	-5998.20
0.9099,0.0901	-6001.35
0.9872,0.0128	-5994.49
0.9588,0.0412	-5997.93
0.9418,0.0582	-5995.35
0.9399,0.0601	-5998.18
0.9150,0.0850	-6001.24
0.8912,0.1088	-6016.59
0.9875,0.0125	-5990.13
0.9395,0.0605	-5998.19
0.9449,0.0551	-5992.40
0.9287,0.0713	-6006.15
0.9115,0.0885	-6003.65
0.8916,0.1084	-6003.96
0.9860,0.0140	-5990.20
0.9370,0.0630	-6006.34
0.9471,0.0529	-6006.70
0.9320,0.0680	-6000.98
0.9098,0.0902	-5999.04
0.8905,0.1095	-6010.27
0.9857,0.0143	-5990.22
0.9152,0.0848	-6010.75
0.9447,0.0553	-5995.25
0.9158,0.0842	-6003.61
0.8819,0.1181	-6010.22
0.8647,0.1353	-6012.10
0.9864,0.0136	-5994.47
0.8936,0.1064	-6003.92
0.9474,0.0526	-6000.93
0.9073,0.0927	-6003.70
0.8820,0.1180	-6000.16
0.8707,0.1293	-6014.03
0.9820,0.0180	-5994.41
0.8903,0.1097	-6006.08
0.9571,0.0429	-5994.83
0.8728,0.1272	-6012.13
0.8701,0.1299	-6000.71
0.8856,0.1144	-6006.14
0.9798,0.0202	-5994.40
0.9000,0.1000	-5999.41
0.9575,0.0425	-5991.71
0.8771,0.1229	-6012.17
0.8622,0.1378	-6008.42
0.8870,0.1130	-6002.00
0.9847,0.0153	-5994.43
0.8805,0.1195	-6004.22
0.9518,0.0482	-5995.00
0.8658,0.1342	-6008.37
0.8564,0.1436	-6003.17
0.8622,0.1378	-6006.59
0.9867,0.0133	-6003.08
0.8716,0.1284	-6006.38
0.9554,0.0446	-5997.95
0.8666,0.1334	-6010.23
0.8483,0.1517	-6010.41
0.8524,0.1476	-6015.61
0.9881,0.0119	-5990.10
0.8657,0.1343	-6013.96
0.9453,0.0547	-6000.92
0.8766,0.1234	-6014.13
0.8473,0.1527	-6007.00
0.8666,0.1334	-6002.74
0.9851,0.0149	-5990.25
0.8657,0.1343	-6006.51
0.9332,0.0668	-5998.33
0.8556,0.1444	-6008.54
0.8273,0.1727	-6012.36
0.8401,0.1599	-6008.88
0.9834,0.0166	-5990.33
0.8486,0.1514	-6008.68
0.9351,0.0649	-5995.62
0.8711,0.1289	-6014.03
0.8462,0.1538	-6007.03
0.8514,0.1486	-6001.64
0.9835,0.0165	-5994.42
0.8684,0.1316	-6015.88
0.9215,0.0785	-6008.51
0.8632,0.1368	-6006.56
0.8135,0.1865	-6017.04
0.8429,0.1571	-6012.17
0.9774,0.0226	-5998.18
0.8935,0.1065	-6010.30
0.9430,0.0570	-5995.31
0.8427,0.1573	-6007.14
0.8011,0.1989	-6010.13
0.8248,0.1752	-6009.31
0.9770,0.0230	-5994.42
0.9291,0.0709	-5998.44
0.9430,0.0570	-6003.73
0.8564,0.1436	-6012.09
0.8133,0.1867	-6014.10
0.8296,0.1704	-6009.16
0.9761,0.0239	-5990.71
0.9351,0.0649	-5992.95
0.9527,0.0473	-5997.97
0.8542,0.1458	-6006.80
0.8023,0.1977	-6019.89
0.8382,0.1618	-6012.22
0.9796,0.0204	-6002.14
0.9350,0.0650	-6003.62
0.9378,0.0622	-6003.65
0.8629,0.1371	-6008.41
0.8030,0.1970	-6018.49
0.8343,0.1657	-6018.73
0.9800,0.0200	-5990.51
0.9412,0.0588	-5995.38
0.9298,0.0702	-6001.00
0.8547,0.1453	-6005.01
0.7888,0.2112	-6017.22
0.8415,0.1585	-6010.51
0.9827,0.0173	-5994.41
0.9323,0.0677	-6000.97
0.9338,0.0662	-5995.67
0.8702,0.1298	-6012.12
0.8000,0.2000	-6015.72
0.8529,0.1471	-6008.59
0.9821,0.0179	-6002.42
0.9413,0.0587	-5998.15
0.9347,0.0653	-5995.63
0.8747,0.1253	-6006.32
0.8089,0.1911	-6009.84
0.8659,0.1341	-6015.83
0.9744,0.0256	-5990.80
0.9225,0.0775	-5996.15
0.9268,0.0732	-6003.58
0.9018,0.0982	-6003.77
0.8017,0.1983	-6014.30
0.8459,0.1541	-6005.33
0.9747,0.0253	-5994.44
0.9376,0.0624	-6000.94
0.9292,0.0708	-6001.01
0.9000,0.1000	-6006.00
0.8122,0.1878	-6011.18
0.8076,0.1924	-6015.62
0.9762,0.0238	-5998.14
0.9289,0.0711	-6001.01
0.9139,0.0861	-6008.35
0.9039,0.0961	-6005.98
0.8318,0.1682	-6017.09
0.7858,0.2142	-6009.46
0.9777,0.0223	-5994.41
0.9389,0.0611	-5998.20
0.9166,0.0834	-6001.21
0.9203,0.0797	-6010.92
0.8205,0.1795	-6000.33
0.8173,0.1827	-6014.04
0.9790,0.0210	-5994.41
0.9428,0.0572	-5998.12
0.9309,0.0691	-6000.99
0.9354,0.0646	-5998.28
0.8143,0.1857	-6015.56
0.8368,0.1632	-6015.50
0.9777,0.0223	-5994.41
0.9333,0.0667	-6003.60
0.9275,0.0725	-5998.48
0.9441,0.0559	-6000.92
0.8066,0.1934	-6008.49
0.8437,0.1563	-6013.85
0.9768,0.0232	-5994.42
0.9249,0.0751	-6006.09
0.9343,0.0657	-5998.30
0.9372,0.0628	-6003.64
0.7987,0.2013	-6014.36
0.8721,0.1279	-6002.53
0.9702,0.0298	-6001.47
0.9178,0.0822	-6003.60
0.9362,0.0638	-6000.94
0.9498,0.0502	-6000.95
0.7974,0.2026	-6010.28
0.8677,0.1323	-6006.46
0.9717,0.0283	-5994.48
0.9271,0.0729	-5998.49
0.9404,0.0596	-6000.92
0.9568,0.0432	-6004.14
0.7853,0.2147	-6015.97
0.8525,0.1475	-6008.60
0.9723,0.0277	-5994.47
0.9229,0.0771	-5996.13
0.9320,0.0680	-5995.74
0.9525,0.0475	-5997.97
0.7676,0.2324	-6017.58
0.8393,0.1607	-6013.86
0.9758,0.0242	-5994.43
0.9376,0.0624	-5992.80
0.9241,0.0759	-6001.08
0.9476,0.0524	-5998.04
0.7758,0.2242	-6018.66
0.8721,0.1279	-6000.61
0.9808,0.0192	-5990.47
0.9312,0.0688	-6006.20
0.9343,0.0657	-5992.99
0.9440,0.0560	-6000.92
0.7696,0.2304	-6015.13
0.8580,0.1420	-6004.90
0.9817,0.0183	-5990.42
0.9314,0.0686	-5998.37
0.9524,0.0476	-5997.97
0.9391,0.0609	-5998.19
0.7200,0.2800	-6022.80
0.8747,0.1253	-6014.09
0.9795,0.0205	-5990.54
0.9308,0.0692	-5995.79
0.9533,0.0467	-6000.98
0.9351,0.0649	-6003.62
0.7324,0.2676	-6020.58
0.9027,0.0973	-5997.08
0.9820,0.0180	-5994.41
0.9159,0.0841	-6010.78
0.9488,0.0512	-5998.02
0.9341,0.0659	-5995.66
0.7418,0.2582	-6022.48
0.8947,0.1053	-6001.76
0.9871,0.0129	-5990.15
0.9216,0.0784	-6008.51
0.9529,0.0471	-6006.99
0.9244,0.0756	-6003.58
0.7367,0.2633	-6018.42
0.8950,0.1050	-6012.46
0.9846,0.0154	-5990.28
0.9076,0.0924	-6003.69
0.9574,0.0426	-5994.82
0.9269,0.0731	-6003.58
0.7982,0.2018	-6013.00
0.8570,0.1430	-6003.14
0.9783,0.0217	-5994.41
0.9150,0.0850	-5998.86
0.9625,0.0375	-5994.68
0.9162,0.0838	-5998.82
0.7966,0.2034	-6008.94
0.8731,0.1269	-6004.42
0.9817,0.0183	-5994.41
0.9161,0.0839	-5998.83
0.9620,0.0380	-5994.69
0.9386,0.0614	-6003.66
0.8075,0.1925	-6009.89
0.8984,0.1016	-6001.65
0.9807,0.0193	-5994.40
0.9258,0.0742	-6001.05
0.9653,0.0347	-5991.28
0.9375,0.0625	-6000.94
0.8261,0.1739	-6007.71
0.8887,0.1113	-6014.41
0.9785,0.0215	-5994.41
0.8990,0.1010	-6006.01
0.9592,0.0408	-5994.77
0.9338,0.0662	-5995.67
0.8494,0.1506	-6008.66
0.8863,0.1137	-6010.24
0.9827,0.0173	-5998.45
0.8910,0.1090	-6001.87
0.9630,0.0370	-6004.44
0.9299,0.0701	-6003.58
0.8333,0.1667	-6005.84
0.8571,0.1429	-6010.30
0.9853,0.0147	-5990.24
0.8768,0.1232	-6008.24
0.9429,0.0571	-6000.92
0.9434,0.0566	-5998.11
0.8458,0.1542	-6008.74
0.8727,0.1273	-6014.06
0.9825,0.0175	-5998.44
0.8852,0.1148	-6006.15
0.9445,0.0555	-6003.76
0.9474,0.0526	-5995.15
0.8835,0.1165	-6002.12
0.9002,0.0998	-6008.20
0.9810,0.0190	-5994.40
0.8759,0.1241	-6014.11
0.9489,0.0511	-6009.71
0.9485,0.0515	-5995.11
0.8716,0.1284	-6002.55
0.9136,0.0864	-6010.70
0.9753,0.0247	-5994.43
0.8973,0.1027	-6006.02
0.9498,0.0502	-5992.12
0.9545,0.0455	-6001.00
0.8854,0.1146	-6004.10
0.9084,0.0916	-6003.68
0.9728,0.0272	-5990.89
0.8838,0.1162	-6004.14
0.9506,0.0494	-5995.04
0.9531,0.0469	-6007.00
0.8822,0.1178	-6004.18
0.9273,0.0727	-6008.67
0.9721,0.0279	-5994.48
0.8480,0.1520	-6006.97
0.9548,0.0452	-5994.90
0.9477,0.0523	-6006.73
0.8822,0.1178	-6010.22
0.9193,0.0807	-6003.59
0.9688,0.0312	-6001.41
0.8633,0.1367	-6010.25
0.9477,0.0523	-6000.93
0.9449,0.0551	-5995.24
0.8687,0.1313	-6010.22
0.9044,0.0956	-6001.49
0.9709,0.0291	-5998.00
0.8438,0.1562	-6010.48
0.9513,0.0487	-5992.04
0.9510,0.0490	-5997.99
0.8871,0.1129	-6008.18
0.9122,0.0878	-6010.66
0.9698,0.0302	-5994.51
0.8500,0.1500	-6005.18
0.9594,0.0406	-5997.93
0.9539,0.0461	-5997.96
0.8885,0.1115	-5997.80
0.9046,0.0954	-6003.73
0.9655,0.0345	-5997.94
0.8662,0.1338	-6004.63
0.9482,0.0518	-5998.03
0.9574,0.0426	-5994.82
0.8701,0.1299	-6006.41
0.9051,0.0949	-5999.21
0.9550,0.0450	-6004.06
0.8758,0.1242	-6002.39
0.9555,0.0445	-5997.95
0.9620,0.0380	-5991.46
0.8891,0.1109	-5997.77
0.9090,0.0910	-5996.77
0.9583,0.0417	-6004.20
0.8714,0.1286	-6015.95
0.9459,0.0541	-5998.06
0.9658,0.0342	-6004.62
0.8809,0.1191	-6006.21
0.9152,0.0848	-6005.99
0.9560,0.0440	-6001.02
0.8783,0.1217	-6010.21
0.9430,0.0570	-5998.11
0.9682,0.0318	-5991.13
0.8886,0.1114	-6008.18
0.9213,0.0787	-5996.20
0.9675,0.0325	-5994.56
0.8836,0.1164	-6010.22
0.9337,0.0663	-6000.96
0.9684,0.0316	-6001.39
0.8450,0.1550	-6012.15
0.9037,0.0963	-6001.51
0.9630,0.0370	-5991.41
0.8984,0.1016	-6006.01
0.9244,0.0756	-6001.07
0.9650,0.0350	-6001.25
0.8515,0.1485	-6006.87
0.9080,0.0920	-6005.98
0.9632,0.0368	-6001.19
0.9132,0.0868	-6001.28
0.9358,0.0642	-5995.59
0.9644,0.0356	-5991.33
0.8252,0.1748	-6017.05
0.9127,0.0873	-6003.64
0.9581,0.0419	-5991.67
0.9086,0.0914	-6003.68
0.9234,0.0766	-6001.09
0.9656,0.0344	-5991.27
0.8458,0.1542	-6015.55
0.9173,0.0827	-6010.82
0.9711,0.0289	-5994.49
0.9172,0.0828	-5993.98
0.9207,0.0793	-6008.49
0.9685,0.0315	-5994.54
0.8686,0.1314	-6008.33
0.9294,0.0706	-6006.16
0.9682,0.0318	-6001.38
0.9221,0.0779	-6001.11
0.9349,0.0651	-6003.62
0.9680,0.0320	-5997.96
0.8717,0.1283	-6010.21
0.9347,0.0653	-5995.63
0.9736,0.0264	-6001.67
0.9318,0.0682	-6000.98
0.9521,0.0479	-5997.98
0.9574,0.0426	-5997.93
0.8695,0.1305	-6006.42
0.9372,0.0628	-5998.23
0.9773,0.0227	-5990.65
0.9252,0.0748	-5998.55
0.9529,0.0471	-5991.96
0.9544,0.0456	-5997.96
0.8656,0.1344	-6015.82
0.9457,0.0543	-6000.92
0.9786,0.0214	-5998.23
0.9159,0.0841	-5998.84
0.9590,0.0410	-6010.53
0.9536,0.0464	-5994.94
0.8627,0.1373	-6008.42
0.9569,0.0431	-5997.94
0.9835,0.0165	-5998.50
0.9172,0.0828	-6001.20
0.9585,0.0415	-6001.07
0.9545,0.0455	-6004.04
0.8870,0.1130	-6008.18
0.9466,0.0534	-5998.05
0.9835,0.0165	-5990.33
0.9359,0.0641	-6006.31
0.9568,0.0432	-5997.94
0.9463,0.0537	-5995.19
0.9000,0.1000	-6010.40
0.9447,0.0553	-6003.76
0.9882,0.0118	-5990.09
0.9459,0.0541	-6006.65
0.9572,0.0428	-6010.36
0.9524,0.0476	-6006.96
0.8832,0.1168	-6002.13
0.9450,0.0550	-6006.61
0.9903,0.0097	-5989.98
0.9498,0.0502	-5992.12
0.9528,0.0472	-5994.97
0.9563,0.0437	-5994.86
0.8931,0.1069	-6012.42
0.9470,0.0530	-5992.28
0.9883,0.0117	-5990.09
0.9456,0.0544	-5995.21
0.9583,0.0417	-5991.66
0.9573,0.0427	-5997.94
0.9120,0.0880	-6010.66
0.9543,0.0457	-6004.04
0.9888,0.0112	-5990.06
0.9438,0.0562	-5998.10
0.9582,0.0418	-6001.06
0.9603,0.0397	-5997.93
0.9060,0.0940	-6008.24
0.9458,0.0542	-6000.92
0.9917,0.0083	-5989.91
0.9386,0.0614	-5998.20
0.9493,0.0507	-5995.08
0.9428,0.0572	-5992.51
0.8964,0.1036	-6001.71
0.9527,0.0473	-5994.97
0.9893,0.0107	-5990.03
0.9514,0.0486	-5992.04
0.9480,0.0520	-6003.84
0.9246,0.0754	-6001.07
0.8847,0.1153	-6006.15
0.9457,0.0543	-6003.78
0.9876,0.0124	-5990.12
0.9478,0.0522	-6000.93
0.9516,0.0484	-5992.03
0.9217,0.0783	-6006.05
0.8911,0.1089	-6008.18
0.9349,0.0651	-5998.29
0.9885,0.0115	-5990.07
0.9473,0.0527	-5995.15
0.9520,0.0480	-6006.94
0.9205,0.0795	-5996.24
0.9133,0.0867	-6013.05
0.9610,0.0390	-5997.92
0.9852,0.0148	-5994.44
0.9457,0.0543	-5998.07
0.9561,0.0439	-5991.78
0.9210,0.0790	-6001.13
0.9102,0.0898	-6005.98
0.9574,0.0426	-5994.82
0.9836,0.0164	-5994.42
0.9646,0.0354	-5997.93
0.9607,0.0393	-5991.53
0.9081,0.0919	-6001.40
0.8751,0.1249	-6002.42
0.9534,0.0466	-5997.97
0.9811,0.0189	-5994.40
0.9695,0.0305	-5991.06
0.9515,0.0485	-5997.99
0.8766,0.1234	-6010.21
0.8812,0.1188	-6006.21
0.9540,0.0460	-6004.02
0.9806,0.0194	-5994.40
0.9598,0.0402	-5991.58
0.9568,0.0432	-6001.04
0.8698,0.1302	-6006.42
0.8556,0.1444	-6013.88
0.9517,0.0483	-5995.00
0.9811,0.0189	-5998.35
0.9426,0.0574	-6000.92
0.9479,0.0521	-6006.74
0.8632,0.1368	-6012.09
0.8901,0.1099	-6003.99
0.9531,0.0469	-6007.00
0.9818,0.0182	-5994.41
0.9316,0.0684	-6003.59
0.9544,0.0456	-5997.96
0.8903,0.1097	-6006.08
0.8942,0.1058	-6006.04
0.9465,0.0535	-5998.05
0.9806,0.0194	-5994.40
0.9219,0.0781	-6006.05
0.9550,0.0450	-6001.01
0.8966,0.1034	-6010.34
0.8695,0.1305	-6006.42
0.9486,0.0514	-6003.85
0.9778,0.0222	-5998.20
0.9421,0.0579	-6003.71
0.9539,0.0461	-6007.05
0.8930,0.1070	-6006.05
0.8514,0.1486	-6006.87
0.9275,0.0725	-6001.03
0.9707,0.0293	-6005.00
0.9279,0.0721	-5995.91
0.9566,0.0434	-5997.94
0.9007,0.0993	-6001.59
0.8360,0.1640	-6013.87
0.9459,0.0541	-5995.20
0.9714,0.0286	-5994.49
0.9148,0.0852	-6003.62
0.9455,0.0545	-6003.78
0.9085,0.0915	-5999.09
0.8664,0.1336	-6010.23
0.9333,0.0667	-5995.69
0.9695,0.0305	-5997.98
0.9292,0.0708	-6001.01
0.9347,0.0653	-5995.63
0.8774,0.1226	-6002.33
0.8690,0.1310	-6004.54
0.9375,0.0625	-6006.35
0.9708,0.0292	-5998.00
0.9423,0.0577	-5998.13
0.9297,0.0703	-5998.42
0.8906,0.1094	-6008.18
0.8605,0.1395	-6006.63
0.9442,0.0558	-6006.58
0.9728,0.0272	-5990.89
0.9380,0.0620	-6006.37
0.9346,0.0654	-5998.30
0.9035,0.0965	-6003.75
0.8674,0.1326	-6006.47
0.9429,0.0571	-5998.12
0.9734,0.0266	-5994.46
0.9373,0.0627	-6009.05
0.9415,0.0585	-5998.14
0.9062,0.0938	-5996.91
0.8616,0.1384	-6004.78
0.9432,0.0568	-5998.11
0.9685,0.0315	-5994.54
0.9361,0.0639	-5992.89
0.9467,0.0533	-6000.93
0.9304,0.0696	-6000.99
0.8798,0.1202	-6018.17
0.9460,0.0540	-5992.33
0.9704,0.0296	-5994.50
0.9425,0.0575	-5998.12
0.9469,0.0531	-5998.05
0.9306,0.0694	-6003.59
0.8698,0.1302	-6012.11
0.9384,0.0616	-5998.21
0.9724,0.0276	-5990.91
0.9317,0.0683	-5995.76
0.9465,0.0535	-6000.93
0.9375,0.0625	-5992.81
0.8447,0.1553	-6010.46
0.9286,0.0714	-5995.88
0.9777,0.0223	-5998.19
0.9397,0.0603	-5998.18
0.9375,0.0625	-6000.94
0.9437,0.0563	-6003.74
0.8503,0.1497	-6012.12
0.9267,0.0733	-6008.65
0.9808,0.0192	-5994.40
0.9355,0.0645	-5998.27
0.9497,0.0503	-5998.01
0.9381,0.0619	-6006.37
0.8598,0.1402	-6003.02
0.9255,0.0745	-6006.10
0.9797,0.0203	-5990.53
0.9332,0.0668	-6000.97
0.9600,0.0400	-5997.93
0.9375,0.0625	-5992.81
0.8479,0.1521	-6010.41
0.9295,0.0705	-6006.16
0.9774,0.0226	-5998.18
0.9252,0.0748	-6001.06
0.9615,0.0385	-5991.49
0.9362,0.0638	-5995.57
0.8575,0.1425	-6030.04
0.9286,0.0714	-6008.71
0.9718,0.0282	-5990.94
0.9122,0.0878	-5998.96
0.9625,0.0375	-5991.43
0.9372,0.0628	-5998.23
0.8755,0.1245	-6006.30
0.9316,0.0684	-6000.98
0.9722,0.0278	-5994.47
0.9329,0.0671	-6003.60
0.9600,0.0400	-5997.93
0.9354,0.0646	-6000.95
0.9026,0.0974	-6003.76
0.9214,0.0786	-6001.12
0.9690,0.0310	-6008.30
0.9195,0.0805	-6006.03
0.9502,0.0498	-6000.95
0.9455,0.0545	-6003.78
0.9026,0.0974	-5999.31
0.9163,0.0837	-6013.18
0.9753,0.0247	-5990.76
0.8874,0.1126	-6014.37
0.9391,0.0609	-5998.19
0.9354,0.0646	-6003.62
0.9173,0.0827	-6003.60
0.9086,0.0914	-6010.57
0.9739,0.0261	-6008.92
0.9189,0.0811	-6010.87
0.9393,0.0607	-5998.19
0.9364,0.0636	-6003.63
0.9243,0.0757	-6006.08
0.9145,0.0855	-6005.99
0.9735,0.0265	-5994.45
0.9212,0.0788	-6001.12
0.9367,0.0633	-6006.33
0.9341,0.0659	-5998.31
0.9380,0.0620	-6003.65
0.9179,0.0821	-6013.26
0.9718,0.0282	-5998.02
0.9182,0.0818	-6006.01
0.9375,0.0625	-6000.94
0.9375,0.0625	-5995.52
0.9279,0.0721	-6011.25
0.9220,0.0780	-6008.52
0.9709,0.0291	-5998.00
0.9150,0.0850	-5998.87
0.9391,0.0609	-6000.93
0.9428,0.0572	-6003.72
0.9346,0.0654	-6000.95
0.9251,0.0749	-6003.58
0.9804,0.0196	-5990.49
0.9046,0.0954	-6003.73
0.9289,0.0711	-6001.01
0.9524,0.0476	-6000.97
0.9467,0.0533	-5998.05
0.9293,0.0707	-6008.73
0.9730,0.0270	-5998.05
0.9021,0.0979	-6005.99
0.9252,0.0748	-6008.61
0.9510,0.0490	-5997.99
0.9435,0.0565	-6000.92
0.9325,0.0675	-6000.97
0.9755,0.0245	-5990.75
0.8937,0.1063	-6003.92
0.9350,0.0650	-6006.28
0.9603,0.0397	-6001.11
0.9471,0.0529	-5995.16
0.9320,0.0680	-5998.36
0.9796,0.0204	-5990.53
0.8801,0.1199	-6004.23
0.9362,0.0638	-6003.63
0.9487,0.0513	-6012.61
0.9401,0.0599	-6000.92
0.8856,0.1144	-6006.14
0.9829,0.0171	-5994.41
0.9036,0.0964	-6003.75
0.9382,0.0618	-6009.09
0.9533,0.0467	-5991.93
0.9359,0.0641	-6006.31
0.8992,0.1008	-6008.19
0.9832,0.0168	-5990.34
0.9018,0.0982	-6005.99
0.9279,0.0721	-5998.47
0.9549,0.0451	-5997.95
0.9375,0.0625	-5992.81
0.9178,0.0822	-5998.77
0.9862,0.0138	-5990.19
0.9055,0.0945	-6001.46
0.9355,0.0645	-5998.27
0.9571,0.0429	-6001.04
0.9355,0.0645	-6006.30
0.9166,0.0834	-6010.80
0.9848,0.0152	-5990.27
0.9064,0.0936	-6003.71
0.9404,0.0596	-6000.92
0.9597,0.0403	-5997.93
0.9434,0.0566	-5998.11
0.9359,0.0641	-6003.63
0.9900,0.0100	-5990.00
0.9074,0.0926	-6003.70
0.9346,0.0654	-5998.30
0.9538,0.0462	-6007.04
0.9483,0.0517	-5995.12
0.9251,0.0749	-6008.60
0.9895,0.0105	-5990.02
0.9037,0.0963	-6003.75
0.9306,0.0694	-5995.80
0.9600,0.0400	-5997.93
0.9382,0.0618	-5998.21
0.9298,0.0702	-6003.58
0.9893,0.0107	-5990.04
0.8997,0.1003	-6012.58
0.9223,0.0777	-5998.63
0.9625,0.0375	-5997.93
0.9234,0.0766	-5998.60
0.9019,0.0981	-6001.56
0.9899,0.0101	-5994.59
0.9067,0.0933	-6008.25
0.9311,0.0689	-5995.78
0.9630,0.0370	-5994.67
0.9167,0.0833	-6001.21
0.8953,0.1047	-6010.33
0.9905,0.0095	-5994.62
0.8985,0.1015	-6008.19
0.9235,0.0765	-5998.59
0.9627,0.0373	-5994.68
0.9185,0.0815	-6001.17
0.9092,0.0908	-6005.98
0.9921,0.0079	-5989.89
0.8901,0.1099	-5999.81
0.9156,0.0844	-6001.23
0.9694,0.0306	-5994.52
0.9068,0.0932	-6001.43
0.9181,0.0819	-6003.60
0.9918,0.0082	-5989.91
0.8873,0.1127	-6004.06
0.9130,0.0870	-6008.34
0.9697,0.0303	-5997.98
0.8886,0.1114	-6004.03
0.9230,0.0770	-5993.65
0.9918,0.0082	-5989.91
0.8883,0.1117	-6008.18
0.9031,0.0969	-6010.45
0.9765,0.0235	-5998.15
0.8857,0.1143	-6006.14
0.9204,0.0796	-6006.03
0.9912,0.0088	-5989.93
0.8850,0.1150	-6004.11
0.9079,0.0921	-6001.40
0.9660,0.0340	-6001.29
0.8747,0.1253	-6008.26
0.9185,0.0815	-6008.44
0.9918,0.0082	-5994.70
0.8858,0.1142	-6004.09
0.9057,0.0943	-6008.24
0.9611,0.0389	-5997.92
0.8581,0.1419	-6012.09
0.9267,0.0733	-6001.04
0.9930,0.0070	-5989.85
0.8865,0.1135	-5999.96
0.9022,0.0978	-6008.21
0.9665,0.0335	-5991.22
0.8620,0.1380	-6004.76
0.9195,0.0805	-6003.59
0.9927,0.0073	-5994.78
0.8917,0.1083	-6001.85
0.8883,0.1117	-6001.96
0.9615,0.0385	-5994.71
0.8680,0.1320	-6008.34
0.9094,0.0906	-5996.75
0.9902,0.0098	-5989.99
0.8521,0.1479	-6005.10
0.8866,0.1134	-6008.18
0.9618,0.0382	-5997.92
0.8840,0.1160	-6000.07
0.9154,0.0846	-6001.23
0.9890,0.0110	-5990.05
0.8782,0.1218	-6012.18
0.9035,0.0965	-6012.70
0.9629,0.0371	-5994.67
0.8901,0.1099	-6006.09
0.9030,0.0970	-5999.29
0.9899,0.0101	-5990.00
0.8559,0.1441	-6021.01
0.9072,0.0928	-6010.54
0.9616,0.0384	-6001.15
0.8948,0.1052	-6006.04
0.9053,0.0947	-6003.72
0.9901,0.0099	-5989.99
0.8489,0.1511	-6013.85
0.9362,0.0638	-6003.63
0.9554,0.0446	-5997.95
0.9008,0.0992	-6006.00
0.8997,0.1003	-5999.42
0.9900,0.0100	-5994.59
0.8649,0.1351	-6015.81
0.9317,0.0683	-6000.98
0.9614,0.0386	-5997.92
0.9036,0.0964	-6001.51
0.8911,0.1089	-6008.18
0.9878,0.0122	-5998.90
0.8520,0.1480	-6008.61
0.9329,0.0671	-5998.34
0.9682,0.0318	-6004.80
0.8949,0.1051	-6012.46
0.9006,0.0994	-6006.00
0.9856,0.0144	-5990.22
0.8761,0.1239	-6010.21
0.9378,0.0622	-6003.65
0.9647,0.0353	-5991.32
0.9113,0.0887	-6005.98
0.8870,0.1130	-6002.00
0.9817,0.0183	-5994.41
0.8867,0.1133	-6014.36
0.9343,0.0657	-6000.96
0.9595,0.0405	-5994.76
0.8923,0.1077	-6012.41
0.8688,0.1312	-6015.89
0.9835,0.0165	-5994.42
0.8614,0.1386	-6002.95
0.9430,0.0570	-6000.92
0.9574,0.0426	-5997.94
0.8811,0.1189	-6010.21
0.8431,0.1569	-6010.49
0.9811,0.0189	-5990.45
0.8551,0.1449	-6017.42
0.9562,0.0438	-6004.11
0.9528,0.0472	-5997.97
0.8946,0.1054	-6008.18
0.8641,0.1359	-6006.54
0.9780,0.0220	-5998.20
0.8542,0.1458	-6006.80
0.9601,0.0399	-5997.93
0.9588,0.0412	-6001.08
0.8908,0.1092	-6008.18
0.8508,0.1492	-6003.41
0.9805,0.0195	-5990.49
0.8828,0.1172	-6006.18
0.9387,0.0613	-5998.20
0.9616,0.0384	-5994.70
0.9075,0.0925	-6001.41
0.8613,0.1387	-6010.26
0.9828,0.0172	-5998.46
0.8704,0.1296	-6000.69
0.9292,0.0708	-5995.86
0.9612,0.0388	-6007.55
0.9094,0.0906	-5999.06
0.8831,0.1169	-6010.22
0.9808,0.0192	-5990.47
0.8329,0.1671	-6007.46
0.9239,0.0761	-6003.58
0.9700,0.0300	-5994.51
0.9017,0.0983	-5997.13
0.9250,0.0750	-6003.58
0.9819,0.0181	-5994.41
0.8239,0.1761	-6012.42
0.9048,0.0952	-6003.73
0.9759,0.0241	-5990.73
0.9103,0.0897	-6010.61
0.9353,0.0647	-6003.62
0.9840,0.0160	-5990.30
0.7979,0.2021	-6015.75
0.9061,0.0939	-5996.91
0.9746,0.0254	-5994.44
0.9007,0.0993	-5999.38
0.9321,0.0679	-6003.60
0.9883,0.0117	-5990.09
0.7964,0.2036	-6011.68
0.9124,0.0876	-5994.27
0.9762,0.0238	-5998.14
0.9171,0.0829	-5998.80
0.9458,0.0542	-5992.35
0.9877,0.0123	-5990.12
0.7882,0.2118	-6015.91
0.9002,0.0998	-6008.20
0.9822,0.0178	-5994.41
0.9295,0.0705	-6001.00
0.9468,0.0532	-5992.29
0.9853,0.0147	-5990.24
0.7742,0.2258	-6017.45
0.8934,0.1066	-6001.80
0.9805,0.0195	-5994.40
0.9242,0.0758	-6001.08
0.9552,0.0448	-5991.83
0.9832,0.0168	-5990.35
0.7849,0.2151	-6018.57
0.9091,0.0909	-5999.07
0.9874,0.0126	-5994.49
0.9237,0.0763	-6006.07
0.9421,0.0579	-6012.08
0.9833,0.0167	-5994.42
0.8054,0.1946	-6015.65
0.9029,0.0971	-6001.53
0.9865,0.0135	-5998.76
0.9151,0.0849	-5998.86
0.9303,0.0697	-5998.40
0.9878,0.0122	-5994.50
0.7655,0.2345	-6017.63
0.8941,0.1059	-6014.58
0.9854,0.0146	-5990.23
0.9197,0.0803	-5996.27
0.9395,0.0605	-5995.44
0.9866,0.0134	-5990.17
0.7243,0.2757	-6023.69
0.8803,0.1197	-6006.22
0.9865,0.0135	-5990.18
0.9136,0.0864	-6003.63
0.9427,0.0573	-6006.52
0.9842,0.0158	-5994.43
0.7071,0.2929	-6021.32
0.8730,0.1270	-6004.43
0.9854,0.0146	-5990.23
0.9181,0.0819	-6008.43
0.9402,0.0598	-5995.41
0.9853,0.0147	-6002.86
0.6124,0.3876	-6028.16
0.8820,0.1180	-6010.22
0.9838,0.0162	-5998.53
0.9286,0.0714	-6003.58
0.9307,0.0693	-5998.39
0.9868,0.0132	-5990.16
0.6702,0.3298	-6022.85
0.9066,0.0934	-6005.98
0.9857,0.0143	-5990.22
0.9418,0.0582	-5998.14
0.9331,0.0669	-5998.33
0.9870,0.0130	-5990.15
0.7033,0.2967	-6023.18
0.9019,0.0981	-5999.34
0.9882,0.0118	-5998.94
0.9438,0.0562	-5995.28
0.9267,0.0733	-5998.50
0.9874,0.0126	-5994.49
0.7228,0.2772	-6019.87
0.9139,0.0861	-5994.17
0.9911,0.0089	-5989.94
0.9505,0.0495	-5995.04
0.9357,0.0643	-5998.27
0.9854,0.0146	-5994.45
0.7068,0.2932	-6018.69
0.9134,0.0866	-6013.05
0.9899,0.0101	-5994.59
0.9424,0.0576	-5992.54
0.9447,0.0553	-5995.25
0.9848,0.0152	-5990.26
0.7050,0.2950	-6020.52
0.9040,0.0960	-6001.50
0.9913,0.0087	-5989.93
0.9511,0.0489	-5997.99
0.9500,0.0500	-5998.00
0.9845,0.0155	-5994.43
0.7105,0.2895	-6015.82
0.9098,0.0902	-6008.29
0.9921,0.0079	-5989.89
0.9457,0.0543	-5995.21
0.9413,0.0587	-5995.37
0.9862,0.0138	-5998.73
0.7290,0.2710	-6020.66
0.8895,0.1105	-6006.09
0.9905,0.0095	-5994.62
0.9413,0.0587	-6009.25
0.9419,0.0581	-6000.92
0.9857,0.0143	-5994.45
0.7274,0.2726	-6018.74
0.8876,0.1124	-6008.18
0.9911,0.0089	-5989.94
0.9437,0.0563	-6000.92
0.9445,0.0555	-5995.25
0.9847,0.0153	-5990.27
0.7614,0.2386	-6016.56
0.8861,0.1139	-6010.24
0.9930,0.0070	-5989.85
0.9465,0.0535	-5995.18
0.9524,0.0476	-6000.97
0.9881,0.0119	-5990.10
0.7819,0.2181	-6013.49
0.9036,0.0964	-6001.51
0.9906,0.0094	-5999.28
0.9577,0.0423	-6001.05
0.9528,0.0472	-5994.97
0.9861,0.0139	-5990.20
0.7946,0.2054	-6019.86
0.9000,0.1000	-5999.41
0.9913,0.0087	-5994.67
0.9546,0.0454	-5997.95
0.9484,0.0516	-6000.94
0.9845,0.0155	-5990.28
0.7860,0.2140	-6017.26
0.9112,0.0888	-6003.65
0.9902,0.0098	-5989.99
0.9513,0.0487	-6003.93
0.9507,0.0493	-6003.91
0.9870,0.0130	-5990.15
0.7965,0.2035	-6010.31
0.9205,0.0795	-6010.93
0.9897,0.0103	-5990.01
0.9520,0.0480	-6000.97
0.9496,0.0504	-6006.82
0.9856,0.0144	-5990.22
0.8296,0.1704	-6009.16
0.9279,0.0721	-6006.13
0.9887,0.0113	-5994.54
0.9514,0.0486	-5992.04
0.9439,0.0561	-5995.28
0.9847,0.0153	-5990.27
0.8076,0.1924	-6009.89
0.9375,0.0625	-5995.52
0.9876,0.0124	-5990.12
0.9506,0.0494	-6000.95
0.9372,0.0628	-6000.94
0.9835,0.0165	-5990.33
0.7575,0.2425	-6018.95
0.9311,0.0689	-6000.99
0.9864,0.0136	-5990.18
0.9443,0.0557	-6000.92
0.9297,0.0703	-6001.00
0.9791,0.0209	-5990.56
0.7530,0.2470	-6024.62
0.9238,0.0762	-6001.08
0.9861,0.0139	-5990.20
0.9461,0.0539	-6000.93
0.9277,0.0723	-6006.13
0.9822,0.0178	-5990.40
0.7457,0.2543	-6015.99
0.9364,0.0636	-6000.94
0.9847,0.0153	-5994.43
0.9390,0.0610	-6000.93
0.9203,0.0797	-6003.59
0.9832,0.0168	-5990.35
0.7549,0.2451	-6019.01
0.9363,0.0637	-5998.25
0.9835,0.0165	-5994.42
0.9205,0.0795	-5998.69
0.9246,0.0754	-6011.10
0.9853,0.0147	-5990.24
0.7989,0.2011	-6011.60
0.9450,0.0550	-5995.24
0.9796,0.0204	-5994.40
0.8957,0.1043	-6008.18
0.9224,0.0776	-6001.10
0.9872,0.0128	-5998.83
0.7609,0.2391	-6018.89
0.9445,0.0555	-6000.92
0.9804,0.0196	-5994.40
0.9011,0.0989	-6003.79
0.9140,0.0860	-6001.26
0.9898,0.0102	-5999.16
0.7935,0.2065	-6018.51
0.9412,0.0588	-5998.15
0.9830,0.0170	-5994.41
0.9255,0.0745	-6006.10
0.9315,0.0685	-6011.42
0.9905,0.0095	-5994.62
0.7857,0.2143	-6018.56
0.9405,0.0595	-6009.21
0.9825,0.0175	-5990.38
0.9472,0.0528	-5998.04
0.9143,0.0857	-6005.99
0.9913,0.0087	-5994.67
0.7709,0.2291	-6024.79
0.9320,0.0680	-6000.98
0.9821,0.0179	-5994.41
0.9561,0.0439	-5994.86
0.9074,0.0926	-6008.26
0.9932,0.0068	-5989.84
0.8007,0.1993	-6010.15
0.9276,0.0724	-6008.68
0.9810,0.0190	-5994.40
0.9576,0.0424	-5994.82
0.9260,0.0740	-5998.52
0.9925,0.0075	-5994.75
0.8254,0.1746	-6009.29
0.9262,0.0738	-6006.11
0.9823,0.0177	-5994.41
0.9647,0.0353	-5997.93
0.9131,0.0869	-5994.22
0.9924,0.0076	-5999.62
0.8239,0.1761	-6009.33
0.9383,0.0617	-5992.77
0.9819,0.0181	-5990.41
0.9579,0.0421	-6001.06
0.9265,0.0735	-5995.98
0.9944,0.0056	-5989.78
0.8165,0.1835	-6012.56
0.9335,0.0665	-6000.96
0.9809,0.0191	-5990.47
0.9598,0.0402	-5991.58
0.9194,0.0806	-5998.72
0.9943,0.0057	-5989.78
0.8051,0.1949	-6014.23
0.9322,0.0678	-6011.46
0.9800,0.0200	-5998.30
0.9626,0.0374	-5994.68
0.9067,0.0933	-6001.43
0.9953,0.0047	-5989.73
0.7862,0.2138	-6014.65
0.9362,0.0638	-6000.94
0.9806,0.0194	-5990.48
0.9662,0.0338	-5991.24
0.9028,0.0972	-6001.53
0.9959,0.0041	-5989.70
0.8444,0.1556	-6013.85
0.9408,0.0592	-6006.46
0.9805,0.0195	-5990.49
0.9711,0.0289	-5990.98
0.8957,0.1043	-6008.18
0.9967,0.0033	-5989.66
0.8595,0.1405	-6015.71
0.9418,0.0582	-6000.92
0.9808,0.0192	-5994.40
0.9743,0.0257	-5990.81
0.8721,0.1279	-6006.37
0.9976,0.0024	-5989.61
0.8617,0.1383	-6013.92
0.9429,0.0571	-5998.12
0.9807,0.0193	-5990.47
0.9713,0.0287	-5990.97
0.9133,0.0867	-5998.92
0.9979,0.0021	-5989.60
0.8672,0.1328	-6004.60
0.9407,0.0593	-5998.16
0.9816,0.0184	-5994.41
0.9702,0.0298	-6001.48
0.9030,0.0970	-6003.76
0.9977,0.0023	-5989.61
0.8396,0.1604	-6003.93
0.9466,0.0534	-6000.93
0.9790,0.0210	-5994.41
0.9777,0.0223	-5994.41
0.9255,0.0745	-6001.06
0.9976,0.0024	-5995.66
0.8177,0.1823	-6008.03
0.9388,0.0612	-6009.12
0.9777,0.0223	-5994.41
0.9811,0.0189	-5990.46
0.9304,0.0696	-5995.81
0.9977,0.0023	-5989.61
0.8109,0.1891	-6017.05
0.9017,0.0983	-6010.42
0.9831,0.0169	-5990.35
0.9819,0.0181	-5994.41
0.9063,0.0937	-6003.71
0.9974,0.0026	-5989.62
0.8520,0.1480	-6013.86
0.8762,0.1238	-6019.99
0.9804,0.0196	-5998.31
0.9820,0.0180	-5990.41
0.8909,0.1091	-5997.68
0.9974,0.0026	-5995.58
0.8761,0.1239	-6012.16
0.8974,0.1026	-6003.85
0.9803,0.0197	-5990.49
0.9843,0.0157	-5990.29
0.8917,0.1083	-6008.18
0.9977,0.0023	-6001.78
0.8951,0.1049	-6006.03
0.8839,0.1161	-6006.17
0.9783,0.0217	-5994.41
0.9851,0.0149	-5994.44
0.8890,0.1110	-6010.26
0.9980,0.0020	-5989.59
0.8753,0.1247	-6004.36
0.8965,0.1035	-5999.55
0.9715,0.0285	-5994.48
0.9818,0.0182	-5998.40
0.9015,0.0985	-6003.78
0.9983,0.0017	-5989.58
0.8785,0.1215	-6004.27
0.8954,0.1046	-6010.33
0.9663,0.0337	-5994.59
0.9840,0.0160	-5990.31
0.8981,0.1019	-6001.66
0.9981,0.0019	-5989.59
0.8595,0.1405	-6012.09
0.9058,0.0942	-6005.98
0.9657,0.0343	-6001.28
0.9834,0.0166	-5998.50
0.9046,0.0954	-6010.48
0.9978,0.0022	-5989.60
0.8627,0.1373	-6006.58
0.9161,0.0839	-5998.83
0.9666,0.0334	-5997.95
0.9853,0.0147	-5990.24
0.8874,0.1126	-6006.12
0.9983,0.0017	-5989.58
0.8724,0.1276	-6015.98
0.9048,0.0952	-6014.99
0.9674,0.0326	-5994.56
0.9866,0.0134	-6003.06
0.8894,0.1106	-5997.76
0.9982,0.0018	-5989.58
0.8778,0.1222	-6002.32
0.8890,0.1110	-6004.02
0.9613,0.0387	-5997.92
0.9859,0.0141	-5994.45
0.9045,0.0955	-6008.23
0.9980,0.0020	-5989.59
0.8679,0.1321	-6006.46
0.8853,0.1147	-6010.23
0.9574,0.0426	-6007.27
0.9864,0.0136	-5994.46
0.8922,0.1078	-6006.06
0.9979,0.0021	-5989.60
0.8505,0.1495	-6008.64
0.9064,0.0936	-6010.52
0.9484,0.0516	-5998.03
0.9850,0.0150	-5994.44
0.8874,0.1126	-6006.12
0.9979,0.0021	-5989.60
0.8656,0.1344	-6004.65
0.8896,0.1104	-5999.83
0.9465,0.0535	-6006.67
0.9836,0.0164	-5990.33
0.9011,0.0989	-6001.58
0.9978,0.0022	-5995.73
0.8959,0.1041	-6003.88
0.9055,0.0945	-6003.72
0.9425,0.0575	-5992.53
0.9797,0.0203	-5990.53
0.9114,0.0886	-6010.64
0.9980,0.0020	-5989.60
0.9018,0.0982	-5999.34
0.9150,0.0850	-6003.62
0.9195,0.0805	-6001.15
0.9827,0.0173	-5990.37
0.9228,0.0772	-6006.06
0.9976,0.0024	-5989.61
0.9174,0.0826	-5996.38
0.9262,0.0738	-6008.63
0.9178,0.0822	-6003.60
0.9816,0.0184	-5990.43
0.9302,0.0698	-5998.41
0.9983,0.0017	-5989.58
0.9160,0.0840	-5996.44
0.9395,0.0605	-6000.93
0.9144,0.0856	-6001.25
0.9822,0.0178	-5998.42
0.9344,0.0656	-5998.30
0.9981,0.0019	-5989.59
0.9171,0.0829	-5996.39
0.9369,0.0631	-5995.54
0.9110,0.0890	-5999.00
0.9795,0.0205	-5994.40
0.9419,0.0581	-6000.92
0.9985,0.0015	-5989.57
0.9150,0.0850	-6008.37
0.9329,0.0671	-6003.60
0.8967,0.1033	-6006.02
0.9796,0.0204	-5994.40
0.9259,0.0741	-6011.15
0.9983,0.0017	-5989.58
0.9227,0.0773	-6003.58
0.9289,0.0711	-6006.15
0.8803,0.1197	-6002.23
0.9826,0.0174	-5994.41
0.9479,0.0521	-6003.83
0.9980,0.0020	-5989.60
0.9135,0.0865	-6005.99
0.9359,0.0641	-5998.26
0.8663,0.1337	-6006.49
0.9859,0.0141	-5990.20
0.9540,0.0460	-5997.96
0.9973,0.0027	-5989.63
0.8959,0.1041	-6001.72
0.9606,0.0394	-6013.89
0.8952,0.1048	-5997.46
0.9880,0.0120	-5990.10
0.9516,0.0484	-5995.01
0.9976,0.0024	-5989.61
0.9139,0.0861	-5996.54
0.9634,0.0366	-5997.93
0.8779,0.1221	-6004.29
0.9841,0.0159	-5990.30
0.9403,0.0597	-5998.17
0.9971,0.0029	-5989.64
0.8962,0.1038	-6006.03
0.9599,0.0401	-6007.45
0.8799,0.1201	-6008.22
0.9801,0.0199	-5994.40
0.9410,0.0590	-6006.46
0.9968,0.0032	-5989.66
0.9106,0.0894	-6001.34
0.9607,0.0393	-5997.92
0.8685,0.1315	-6015.89
0.9730,0.0270	-5998.04
0.9354,0.0646	-5995.60
0.9959,0.0041	-5989.70
0.8825,0.1175	-6016.27
0.9456,0.0544	-5998.07
0.8592,0.1408	-6010.28
0.9666,0.0334	-5994.58
0.9383,0.0617	-5998.21
0.9956,0.0044	-5989.72
0.8714,0.1286	-6008.30
0.9411,0.0589	-6003.69
0.8773,0.1227	-6008.24
0.9695,0.0305	-6001.44
0.9522,0.0478	-5997.98
0.9943,0.0057	-5989.78
0.8727,0.1273	-6006.36
0.9422,0.0578	-6006.50
0.8959,0.1041	-6001.72
0.9686,0.0314	-5997.97
0.9508,0.0492	-6000.95
0.9933,0.0067	-5989.83
0.8559,0.1441	-6012.10
0.9456,0.0544	-5992.36
0.8838,0.1162	-6012.25
0.9651,0.0349	-5997.94
0.9543,0.0457	-5997.96
0.9926,0.0074	-5994.77
0.8273,0.1727	-6009.23
0.9407,0.0593	-5995.40
0.8835,0.1165	-6008.20
0.9665,0.0335	-6011.39
0.9513,0.0487	-5997.99
0.9907,0.0093	-5994.63
0.8214,0.1786	-6017.04
0.9453,0.0547	-5998.07
0.8885,0.1115	-6004.03
0.9733,0.0267	-5998.05
0.9408,0.0592	-5992.63
0.9898,0.0102	-5994.58
0.8306,0.1694	-6013.90
0.9570,0.0430	-5994.83
0.8858,0.1142	-6016.38
0.9744,0.0256	-5990.80
0.9505,0.0495	-5995.04
0.9880,0.0120	-5990.10
0.8374,0.1626	-6012.23
0.9678,0.0322	-6001.36
0.8898,0.1102	-6006.09
0.9720,0.0280	-5994.48
0.9669,0.0331	-6001.32
0.9884,0.0116	-5994.52
0.8700,0.1300	-6014.02
0.9691,0.0309	-5994.53
0.8736,0.1264	-6004.41
0.9735,0.0265	-5998.06
0.9673,0.0327	-5997.95
0.9894,0.0106	-5990.03
0.8920,0.1080	-6006.06
0.9737,0.0263	-5994.45
0.8653,0.1347	-6010.24
0.9695,0.0305	-5994.52
0.9678,0.0322	-5991.15
0.9900,0.0100	-5994.59
0.8991,0.1009	-5997.26
0.9647,0.0353	-5991.32
0.8798,0.1202	-6012.20
0.9712,0.0288	-5990.97
0.9592,0.0408	-5991.61
0.9888,0.0112	-5990.06
0.8909,0.1091	-6001.88
0.9678,0.0322	-5994.56
0.8702,0.1298	-6008.31
0.9742,0.0258	-5990.81
0.9591,0.0409	-5994.77
0.9896,0.0104	-5990.02
0.8753,0.1247	-6014.10
0.9620,0.0380	-6001.16
0.8539,0.1461	-6008.57
0.9727,0.0273	-5994.47
0.9490,0.0510	-6003.86
0.9901,0.0099	-5989.99
0.8980,0.1020	-5999.49
0.9770,0.0230	-5998.16
0.8537,0.1463	-6012.10
0.9649,0.0351	-5994.62
0.9526,0.0474	-5997.97
0.9899,0.0101	-5994.59
0.9044,0.0956	-6001.49
0.9701,0.0299	-5991.03
0.8520,0.1480	-6010.36
0.9631,0.0369	-5997.93
0.9467,0.0533	-5998.05
0.9884,0.0116	-5994.53
0.8821,0.1179	-6012.23
0.9726,0.0274	-5994.47
0.8656,0.1344	-6013.96
0.9627,0.0373	-6007.67
0.9586,0.0414	-5997.93
0.9866,0.0134	-5998.77
0.8764,0.1236	-6002.37
0.9720,0.0280	-5994.48
0.8709,0.1291	-6006.39
0.9594,0.0406	-5994.77
0.9623,0.0377	-5997.92
0.9886,0.0114	-5990.07
0.8652,0.1348	-6010.24
0.9777,0.0223	-5994.41
0.8468,0.1532	-6015.56
0.9546,0.0454	-5997.95
0.9644,0.0356	-5994.63
0.9901,0.0099	-5989.99
0.8791,0.1209	-6006.24
0.9773,0.0227	-5994.41
0.8658,0.1342	-6006.50
0.9527,0.0473	-5994.97
0.9669,0.0331	-6001.32
0.9905,0.0095	-5989.97
0.8731,0.1269	-6004.42
0.9830,0.0170	-5990.36
0.8484,0.1516	-6012.13
0.9487,0.0513	-5998.02
0.9559,0.0441	-6007.17
0.9927,0.0073	-5994.77
0.8553,0.1447	-6006.77
0.9757,0.0243	-5994.43
0.8238,0.1762	-6006.25
0.9453,0.0547	-5998.07
0.9607,0.0393	-6001.12
0.9930,0.0070	-5989.85
0.8122,0.1878	-6011.19
0.9722,0.0278	-5998.03
0.8350,0.1650	-6010.63
0.9485,0.0515	-6003.85
0.9422,0.0578	-5998.13
0.9939,0.0061	-5989.80
0.7881,0.2119	-6010.66
0.9712,0.0288	-5994.49
0.8496,0.1504	-6015.58
0.9461,0.0539	-6000.93
0.9348,0.0652	-5995.63
0.9951,0.0049	-5989.74
0.7895,0.2105	-6019.86
0.9701,0.0299	-5991.03
0.8120,0.1880	-6012.66
0.9318,0.0682	-6008.82
0.9285,0.0715	-5998.45
0.9952,0.0048	-6000.41
0.7524,0.2476	-6014.61
0.9636,0.0364	-5991.38
0.8040,0.1960	-6010.02
0.9235,0.0765	-5998.60
0.9454,0.0546	-5995.22
0.9949,0.0051	-5995.02
0.7556,0.2444	-6016.74
0.9623,0.0377	-6004.40
0.8192,0.1808	-6010.99
0.9302,0.0698	-6001.00
0.9346,0.0654	-6003.61
0.9949,0.0051	-5989.75
0.7788,0.2212	-6018.63
0.9618,0.0382	-5997.92
0.8097,0.1903	-6011.26
0.9421,0.0579	-6003.71
0.9354,0.0646	-6006.29
0.9963,0.0037	-5989.68
0.7901,0.2099	-6015.88
0.9550,0.0450	-6001.01
0.7520,0.2480	-6014.63
0.9436,0.0564	-6003.74
0.9344,0.0656	-6000.96
0.9954,0.0046	-5989.72
0.7914,0.2086	-6013.19
0.9564,0.0436	-5994.85
0.7907,0.2093	-6017.20
0.9574,0.0426	-5991.71
0.9346,0.0654	-5992.98
0.9943,0.0057	-6000.09
0.7489,0.2511	-6016.95
0.9647,0.0353	-5994.62
0.7817,0.2183	-6016.05
0.9638,0.0362	-5994.65
0.9339,0.0661	-5993.02
0.9947,0.0053	-5994.99
0.7725,0.2275	-6015.04
0.9672,0.0328	-5991.19
0.8080,0.1920	-6011.31
0.9658,0.0342	-5994.60
0.9225,0.0775	-6006.06
0.9945,0.0055	-5989.77
0.8009,0.1991	-6014.32
0.9641,0.0359	-6004.51
0.8362,0.1638	-6010.61
0.9640,0.0360	-5997.93
0.9302,0.0698	-6001.00
0.9935,0.0065	-5989.82
0.7588,0.2412	-6016.64
0.9639,0.0361	-5997.93
0.8240,0.1760	-6007.79
0.9616,0.0384	-5997.92
0.9343,0.0657	-6011.57
0.9943,0.0057	-5994.94
0.7552,0.2448	-6016.75
0.9715,0.0285	-5990.96
0.8456,0.1544	-6005.35
0.9695,0.0305	-5994.52
0.9316,0.0684	-6000.98
0.9928,0.0072	-5989.86
0.7896,0.2104	-6013.24
0.9630,0.0370	-5997.93
0.8336,0.1664	-6005.83
0.9711,0.0289	-5994.49
0.9373,0.0627	-6000.94
0.9931,0.0069	-5989.84
0.8274,0.1726	-6013.93
0.9656,0.0344	-5997.94
0.8286,0.1714	-6018.65
0.9686,0.0314	-6001.40
0.9233,0.0767	-6001.09
0.9934,0.0066	-5989.83
0.8089,0.1911	-6022.82
0.9625,0.0375	-5997.93
0.8338,0.1662	-6015.50
0.9636,0.0364	-6001.21
0.9072,0.0928	-6008.26
0.9938,0.0062	-5994.88
0.8312,0.1688	-6009.12
0.9692,0.0308	-5994.53
0.8564,0.1436	-6006.74
0.9766,0.0234	-5990.69
0.8973,0.1027	-5999.52
0.9937,0.0063	-5989.81
0.8484,0.1516	-6012.13
0.9735,0.0265	-5994.45
0.8694,0.1306	-6004.53
0.9774,0.0226	-5994.41
0.8715,0.1285	-6006.38
0.9922,0.0078	-5994.73
0.8529,0.1471	-6010.35
0.9720,0.0280	-5998.02
0.8715,0.1285	-6006.38
0.9775,0.0225	-5990.64
0.8807,0.1193	-6006.21
0.9927,0.0073	-5989.86
0.8500,0.1500	-6008.65
0.9749,0.0251	-5998.10
0.8326,0.1674	-6017.10
0.9748,0.0252	-6001.75
0.8889,0.1111	-6004.02
0.9924,0.0076	-5989.88
0.8058,0.1942	-6008.53
0.9756,0.0244	-6005.49
0.8203,0.1797	-6010.97
0.9738,0.0262	-5998.07
0.8940,0.1060	-6003.91
0.9922,0.0078	-5989.89
0.7961,0.2039	-6015.78
0.9763,0.0237	-5998.14
0.8540,0.1460	-6006.80
0.9748,0.0252	-5990.78
0.8972,0.1028	-6006.02
0.9926,0.0074	-5999.67
0.8251,0.1749	-6007.74
0.9717,0.0283	-5998.02
0.8934,0.1066	-6001.80
0.9815,0.0185	-5990.44
0.9016,0.0984	-6010.42
0.9919,0.0081	-5994.71
0.8266,0.1734	-6013.94
0.9696,0.0304	-5994.52
0.8915,0.1085	-6008.18
0.9810,0.0190	-5990.46
0.9113,0.0887	-6008.31
0.9927,0.0073	-5989.86
0.8753,0.1247	-6004.36
0.9693,0.0307	-5991.07
0.9025,0.0975	-6008.21
0.9809,0.0191	-5994.40
0.8836,0.1164	-6000.09
0.9939,0.0061	-5989.80
0.8414,0.1586	-6013.85
0.9707,0.0293	-5994.50
0.9183,0.0817	-6001.18
0.9805,0.0195	-6002.24
0.8943,0.1057	-6008.18
0.9927,0.0073	-5989.86
0.8418,0.1582	-6013.85
0.9657,0.0343	-5991.26
0.9131,0.0869	-5998.93
0.9809,0.0191	-5990.46
0.8807,0.1193	-6002.22
0.9889,0.0111	-5990.05
0.7879,0.2121	-6023.79
0.9701,0.0299	-5991.03
0.9195,0.0805	-5998.72
0.9802,0.0198	-5990.50
0.8938,0.1062	-6008.18
0.9885,0.0115	-5994.53
0.8087,0.1913	-6021.38
0.9734,0.0266	-5990.85
0.8872,0.1128	-6010.24
0.9743,0.0257	-5990.81
0.8887,0.1113	-6001.95
0.9919,0.0081	-5989.90
0.8292,0.1708	-6010.75
0.9780,0.0220	-5990.62
0.9029,0.0971	-6001.53
0.9708,0.0292	-5998.00
0.8771,0.1229	-6002.34
0.9927,0.0073	-5989.86
0.8118,0.1882	-6015.58
0.9662,0.0338	-5997.94
0.9061,0.0939	-5999.18
0.9736,0.0264	-5990.85
0.8848,0.1152	-6008.19
0.9924,0.0076	-5989.88
0.8308,0.1692	-6009.13
0.9613,0.0387	-5997.92
0.9049,0.0951	-6001.48
0.9712,0.0288	-5998.01
0.8825,0.1175	-6014.25
0.9938,0.0062	-5989.80
0.8387,0.1613	-6013.86
0.9605,0.0395	-5997.92
0.9223,0.0777	-5998.63
0.9721,0.0279	-5994.47
0.8681,0.1319	-6015.88
0.9927,0.0073	-5994.77
0.8636,0.1364	-6013.94
0.9644,0.0356	-5994.63
0.9161,0.0839	-6001.22
0.9828,0.0172	-5998.46
0.8766,0.1234	-6006.28
0.9944,0.0056	-5989.78
0.8469,0.1531	-6007.01
0.9625,0.0375	-6001.17
0.9198,0.0802	-6001.15
0.9828,0.0172	-5994.41
0.8767,0.1233	-6016.09
0.9945,0.0055	-5989.77
0.8343,0.1657	-6007.41
0.9591,0.0409	-5994.77
0.9136,0.0864	-5998.91
0.9854,0.0146	-5990.24
0.8846,0.1154	-6004.12
0.9944,0.0056	-5989.78
0.8521,0.1479	-6005.10
0.9589,0.0411	-5994.78
0.9096,0.0904	-6003.67
0.9840,0.0160	-5994.42
0.8721,0.1279	-6008.29
0.9947,0.0053	-5989.76
0.8192,0.1808	-6015.53
0.9648,0.0352	-6001.25
0.9144,0.0856	-6008.36
0.9778,0.0222	-5990.63
0.9067,0.0933	-6010.53
0.9955,0.0045	-5989.72
0.8148,0.1852	-6017.04
0.9665,0.0335	-5997.95
0.9280,0.0720	-5998.46
0.9827,0.0173	-5990.37
0.9124,0.0876	-6005.98
0.9964,0.0036	-5989.68
0.8056,0.1944	-6017.07
0.9680,0.0320	-5991.14
0.9335,0.0665	-6000.96
0.9869,0.0131	-5990.16
0.9179,0.0821	-5998.77
0.9958,0.0042	-5989.71
0.7637,0.2363	-6011.80
0.9569,0.0431	-6004.14
0.9327,0.0673	-5998.34
0.9895,0.0105	-5990.02
0.9356,0.0644	-6006.30
0.9949,0.0051	-5989.75
0.7661,0.2339	-6016.43
0.9563,0.0437	-6001.03
0.9289,0.0711	-5998.44
0.9889,0.0111	-5990.05
0.9117,0.0883	-6001.31
0.9940,0.0060	-5994.90
0.7531,0.2469	-6022.39
0.9588,0.0412	-6004.22
0.9382,0.0618	-6006.37
0.9892,0.0108	-5994.56
0.8928,0.1072	-6010.30
0.9928,0.0072	-5989.86
0.7250,0.2750	-6021.74
0.9575,0.0425	-5994.82
0.9262,0.0738	-5998.52
0.9887,0.0113	-5990.06
0.8676,0.1324	-6008.34
0.9900,0.0100	-5990.00
0.6951,0.3049	-6025.05
0.9543,0.0457	-5994.92
0.9177,0.0823	-6001.19
0.9900,0.0100	-5994.59
0.8866,0.1134	-6008.18
0.9905,0.0095	-5989.97
0.6641,0.3359	-6023.15
0.9626,0.0374	-6001.17
0.9065,0.0935	-6010.52
0.9893,0.0107	-5990.03
0.8775,0.1225	-6012.17
0.9920,0.0080	-5989.89
0.6810,0.3190	-6027.65
0.9669,0.0331	-5991.20
0.8981,0.1019	-6008.19
0.9880,0.0120	-5994.51
0.8808,0.1192	-6004.21
0.9904,0.0096	-5994.62
0.6531,0.3469	-6028.16
0.9634,0.0366	-5994.66
0.8931,0.1069	-6006.05
0.9865,0.0135	-5990.18
0.8705,0.1295	-6008.31
0.9929,0.0071	-5994.79
0.6474,0.3526	-6028.92
0.9662,0.0338	-5997.94
0.9090,0.0910	-6005.98
0.9815,0.0185	-5990.43
0.8770,0.1230	-6008.24
0.9930,0.0070	-5989.84
0.6778,0.3222	-6026.21
0.9655,0.0345	-5994.61
0.9003,0.0997	-6003.80
0.9793,0.0207	-5998.26
0.9109,0.0891	-6010.63
0.9928,0.0072	-5994.78
0.6711,0.3289	-6024.23
0.9686,0.0314	-5991.11
0.9119,0.0881	-6003.64
0.9706,0.0294	-5991.00
0.9207,0.0793	-6001.13
0.9919,0.0081	-5989.90
0.6823,0.3177	-6024.58
0.9702,0.0298	-5994.51
0.9266,0.0734	-6003.58
0.9718,0.0282	-6001.56
0.9163,0.0837	-6006.00
0.9910,0.0090	-5994.65
0.6949,0.3051	-6025.06
0.9635,0.0365	-5991.38
0.9157,0.0843	-6003.61
0.9737,0.0263	-5998.06
0.9356,0.0644	-6006.30
0.9916,0.0084	-5989.92
0.7377,0.2623	-6018.39
0.9623,0.0377	-5997.93
0.9053,0.0947	-6010.50
0.9669,0.0331	-6001.32
0.9302,0.0698	-6001.00
0.9909,0.0091	-5989.95
0.7267,0.2733	-6024.64
0.9577,0.0423	-5994.81
0.8902,0.1098	-6008.18
0.9663,0.0337	-5994.59
0.9193,0.0807	-6013.32
0.9918,0.0082	-5994.70
0.7364,0.2636	-6018.43
0.9572,0.0428	-5994.83
0.8860,0.1140	-6014.34
0.9680,0.0320	-6004.78
0.9374,0.0626	-5998.23
0.9895,0.0105	-5999.12
0.7848,0.2152	-6006.92
0.9557,0.0443	-5991.80
0.8719,0.1281	-6006.37
0.9620,0.0380	-5994.69
0.9329,0.0671	-6003.60
0.9913,0.0087	-5989.93
0.8133,0.1867	-6014.10
0.9585,0.0415	-5997.93
0.8759,0.1241	-6008.25
0.9597,0.0403	-5994.76
0.9392,0.0608	-6011.88
0.9905,0.0095	-5989.97
0.8372,0.1628	-6015.50
0.9457,0.0543	-6006.64
0.9058,0.0942	-6003.72
0.9532,0.0468	-5994.95
0.9383,0.0617	-5995.49
0.9907,0.0093	-5994.63
0.8208,0.1792	-6012.48
0.9535,0.0465	-6004.00
0.9001,0.0999	-5997.21
0.9508,0.0492	-5992.07
0.9296,0.0704	-6001.00
0.9888,0.0112	-5999.02
0.8138,0.1862	-6008.19
0.9500,0.0500	-5998.00
0.8893,0.1107	-6006.09
0.9504,0.0496	-6006.86
0.9285,0.0715	-5995.89
0.9896,0.0104	-5990.02
0.8186,0.1814	-6011.01
0.9547,0.0453	-5994.90
0.9038,0.0962	-6001.51
0.9551,0.0449	-5994.89
0.9319,0.0681	-5998.36
0.9925,0.0075	-5989.87
0.8488,0.1512	-6010.40
0.9445,0.0555	-5998.09
0.8966,0.1034	-6001.70
0.9616,0.0384	-5997.92
0.9298,0.0702	-6001.00
0.9899,0.0101	-5990.00
0.8447,0.1553	-6007.07
0.9336,0.0664	-6000.96
0.8903,0.1097	-6003.99
0.9578,0.0422	-5991.69
0.9260,0.0740	-6003.58
0.9906,0.0094	-5994.62
0.7951,0.2049	-6010.37
0.9439,0.0561	-5995.27
0.8621,0.1379	-6013.92
0.9605,0.0395	-5994.73
0.9237,0.0763	-5998.59
0.9876,0.0124	-5990.12
0.7953,0.2047	-6011.72
0.9426,0.0574	-6003.72
0.8505,0.1495	-6012.12
0.9610,0.0390	-6001.13
0.9292,0.0708	-5998.43
0.9872,0.0128	-5990.14
0.7818,0.2182	-6017.32
0.9458,0.0542	-6000.92
0.8738,0.1262	-6016.01
0.9540,0.0460	-5997.96
0.9341,0.0659	-5993.01
0.9884,0.0116	-5990.08
0.7733,0.2267	-6017.47
0.9615,0.0385	-5994.71
0.8643,0.1357	-6006.54
0.9575,0.0425	-5991.70
0.9410,0.0590	-5995.38
0.9908,0.0092	-5994.64
0.7837,0.2163	-6021.15
0.9513,0.0487	-5995.02
0.8741,0.1259	-6010.21
0.9598,0.0402	-5991.58
0.9456,0.0544	-5995.21
0.9930,0.0070	-5989.85
0.7877,0.2123	-6015.92
0.9506,0.0494	-6003.91
0.8864,0.1136	-6006.13
0.9523,0.0477	-5994.98
0.9643,0.0357	-5997.93
0.9950,0.0050	-5989.75
0.7717,0.2283	-6015.06
0.9546,0.0454	-5994.91
0.8916,0.1084	-6003.96
0.9515,0.0485	-5997.99
0.9531,0.0469	-5994.96
0.9955,0.0045	-5989.72
0.8181,0.1819	-6015.53
0.9574,0.0426	-5994.82
0.9190,0.0810	-6003.59
0.9522,0.0478	-6000.97
0.9575,0.0425	-5997.93
0.9950,0.0050	-5989.74
0.8080,0.1920	-6014.18
0.9494,0.0506	-5995.08
0.9302,0.0698	-5998.41
0.9589,0.0411	-5994.78
0.9674,0.0326	-5994.56
0.9952,0.0048	-5995.07
0.8104,0.1896	-6009.79
0.9435,0.0565	-5995.29
0.9430,0.0570	-6003.73
0.9576,0.0424	-5997.93
0.9656,0.0344	-5994.60
0.9938,0.0062	-5989.81
0.8042,0.1958	-6017.08
0.9523,0.0477	-5994.98
0.9367,0.0633	-6003.63
0.9652,0.0348	-5994.61
0.9762,0.0238	-5998.14
0.9936,0.0064	-5994.86
0.8189,0.1811	-6017.04
0.9498,0.0502	-5995.07
0.9373,0.0627	-5995.53
0.9654,0.0346	-5994.61
0.9698,0.0302	-5994.51
0.9935,0.0065	-5989.82
0.8356,0.1644	-6012.25
0.9437,0.0563	-6003.74
0.9384,0.0616	-6000.93
0.9591,0.0409	-5994.77
0.9739,0.0261	-5990.83
0.9937,0.0063	-5989.81
0.8372,0.1628	-6007.31
0.9211,0.0789	-6008.50
0.9391,0.0609	-6000.93
0.9620,0.0380	-5994.69
0.9698,0.0302	-5991.05
0.9940,0.0060	-5989.80
0.8350,0.1650	-6007.39
0.9185,0.0815	-6010.86
0.9442,0.0558	-6000.92
0.9559,0.0441	-6004.10
0.9698,0.0302	-5994.52
0.9930,0.0070	-5989.84
0.8265,0.1735	-6015.50
0.9115,0.0885	-5998.99
0.9345,0.0655	-5998.30
0.9410,0.0590	-6000.92
0.9737,0.0263	-5998.06
0.9917,0.0083	-5989.91
0.8489,0.1511	-6010.40
0.9024,0.0976	-6003.76
0.9303,0.0697	-5998.40
0.9415,0.0585	-5998.14
0.9814,0.0186	-5994.40
0.9941,0.0059	-5989.79
0.8723,0.1277	-6006.37
0.9148,0.0852	-6003.62
0.9329,0.0671	-5998.34
0.9493,0.0507	-6000.94
0.9787,0.0213	-5994.41
0.9941,0.0059	-5989.79
0.8555,0.1445	-6012.10
0.9019,0.0981	-6005.99
0.9227,0.0773	-6003.58
0.9477,0.0523	-6006.73
0.9787,0.0213	-5990.58
0.9936,0.0064	-5994.86
0.8425,0.1575	-6013.85
0.9188,0.0812	-6001.17
0.9107,0.0893	-6001.33
0.9480,0.0520	-5995.13
0.9815,0.0185	-5994.41
0.9911,0.0089	-5999.36
0.8022,0.1978	-6007.29
0.9248,0.0752	-6003.58
0.8911,0.1089	-6006.07
0.9519,0.0481	-5995.00
0.9842,0.0158	-5990.29
0.9896,0.0104	-5990.02
0.7788,0.2212	-6014.85
0.9312,0.0688	-5998.38
0.8674,0.1326	-6012.10
0.9543,0.0457	-5994.92
0.9862,0.0138	-5994.46
0.9885,0.0115	-5990.08
0.7780,0.2220	-6017.38
0.9349,0.0651	-6003.62
0.8683,0.1317	-5998.91
0.9540,0.0460	-6000.99
0.9849,0.0151	-5990.26
0.9878,0.0122	-5990.11
0.7782,0.2218	-6022.40
0.9379,0.0621	-6000.93
0.8355,0.1645	-6017.12
0.9406,0.0594	-6006.45
0.9857,0.0143	-5990.22
0.9890,0.0110	-5994.55
0.7756,0.2244	-6018.66
0.9322,0.0678	-6006.22
0.8395,0.1605	-6015.51
0.9383,0.0617	-5992.76
0.9868,0.0132	-5990.16
0.9897,0.0103	-5990.01
0.7707,0.2293	-6013.88
0.9080,0.0920	-6008.27
0.8148,0.1852	-6014.08
0.9369,0.0631	-6006.33
0.9849,0.0151	-5990.26
0.9920,0.0080	-5989.90
0.7642,0.2358	-6020.01
0.9124,0.0876	-6008.33
0.8165,0.1835	-6006.59
0.9387,0.0613	-5992.75
0.9863,0.0137	-5994.46
0.9923,0.0077	-5989.88
0.7806,0.2194	-6014.80
0.9092,0.0908	-6005.98
0.8459,0.1541	-6007.04
0.9444,0.0556	-6000.92
0.9899,0.0101	-5990.00
0.9909,0.0091	-5989.95
0.7948,0.2052	-6017.15
0.9091,0.0909	-6005.98
0.8724,0.1276	-6010.21
0.9365,0.0635	-5992.87
0.9855,0.0145	-5998.67
0.9885,0.0115	-5998.98
0.7914,0.2086	-6014.52
0.9245,0.0755	-6006.08
0.8838,0.1162	-6006.17
0.9465,0.0535	-5992.31
0.9860,0.0140	-5994.46
0.9907,0.0093	-5989.96
0.7665,0.2335	-6011.66
0.9304,0.0696	-6000.99
0.8980,0.1020	-6010.36
0.9428,0.0572	-6000.92
0.9872,0.0128	-5990.14
0.9911,0.0089	-5989.94
0.7533,0.2467	-6012.34
0.9308,0.0692	-6003.59
0.8886,0.1114	-6010.26
0.9165,0.0835	-6006.00
0.9860,0.0140	-5998.71
0.9901,0.0099	-5994.60
0.7672,0.2328	-6014.01
0.9293,0.0707	-6001.01
0.8889,0.1111	-6010.26
0.9028,0.0972	-6008.22
0.9859,0.0141	-5990.21
0.9877,0.0123	-5990.11
0.8280,0.1720	-6013.92
0.9243,0.0757	-5996.07
0.8775,0.1225	-6006.27
0.9094,0.0906	-5999.06
0.9870,0.0130	-5994.48
0.9890,0.0110	-5994.55
0.8337,0.1663	-6021.95
0.9197,0.0803	-5998.71
0.8770,0.1230	-6014.13
0.9125,0.0875	-6001.29
0.9852,0.0148	-5990.24
0.9878,0.0122	-5994.50
0.8285,0.1715	-6010.77
0.8841,0.1159	-6004.13
