#isoforms=['ENSG00000211445.SE.0.A.up_ENSG00000211445.SE.0.A.SE1_ENSG00000211445.SE.0.A.dn','ENSG00000211445.SE.0.B.up_ENSG00000211445.SE.0.B.dn']	exon_lens=('ENSG00000211445.SE.0.A.up',136),('ENSG00000211445.SE.0.A.SE1',426),('ENSG00000211445.SE.0.A.dn',154),('ENSG00000211445.SE.0.B.up',179),('ENSG00000211445.SE.0.B.dn',154)	iters=5000	burn_in=500	lag=10	percent_accept=96.27	proposal_type=drift	counts=(0,0):124,(0,1):47,(1,0):1,(1,1):97	assigned_counts=0:1,1:144	chrom=chr5	strand=+	mRNA_starts=151020606,151020563	mRNA_ends=151025493,151025493
sampled_psi	log_score
0.0155,0.9845	-821.83
0.0039,0.9961	-798.05
0.0078,0.9922	-798.85
0.0109,0.9891	-799.68
0.0091,0.9909	-808.56
0.0156,0.9844	-805.26
0.0157,0.9843	-801.14
0.0048,0.9952	-798.18
0.0085,0.9915	-803.78
0.0117,0.9883	-813.22
0.0099,0.9901	-804.00
0.0146,0.9854	-809.22
0.0180,0.9820	-821.86
0.0041,0.9959	-803.58
0.0120,0.9880	-804.42
0.0110,0.9890	-804.20
0.0093,0.9907	-808.57
0.0156,0.9844	-805.24
0.0213,0.9787	-810.60
0.0041,0.9959	-798.09
0.0107,0.9893	-799.64
0.0125,0.9875	-813.26
0.0078,0.9922	-798.85
0.0133,0.9867	-800.38
0.0218,0.9782	-822.12
0.0034,0.9966	-798.00
0.0098,0.9902	-808.60
0.0124,0.9876	-813.26
0.0067,0.9933	-803.57
0.0139,0.9861	-800.57
0.0200,0.9800	-814.18
0.0040,0.9960	-803.58
0.0077,0.9923	-798.83
0.0112,0.9888	-799.78
0.0067,0.9933	-798.58
0.0129,0.9871	-804.61
0.0179,0.9821	-817.85
0.0042,0.9958	-803.57
0.0075,0.9925	-808.54
0.0100,0.9900	-804.03
0.0054,0.9946	-798.30
0.0122,0.9878	-800.07
0.0132,0.9868	-808.99
0.0049,0.9951	-798.20
0.0075,0.9925	-798.76
0.0120,0.9880	-804.41
0.0047,0.9953	-803.52
0.0115,0.9885	-799.86
0.0124,0.9876	-800.14
0.0049,0.9951	-798.20
0.0067,0.9933	-803.57
0.0121,0.9879	-808.84
0.0047,0.9953	-798.18
0.0130,0.9870	-813.29
0.0108,0.9892	-804.17
0.0052,0.9948	-798.26
0.0082,0.9918	-808.54
0.0104,0.9896	-813.21
0.0048,0.9952	-803.52
0.0131,0.9869	-808.98
0.0111,0.9889	-808.72
0.0050,0.9950	-803.52
0.0110,0.9890	-817.71
0.0132,0.9868	-800.36
0.0051,0.9949	-808.78
0.0130,0.9870	-800.31
0.0097,0.9903	-803.97
0.0044,0.9956	-803.55
0.0132,0.9868	-808.99
0.0127,0.9873	-813.27
0.0045,0.9955	-808.94
0.0134,0.9866	-809.02
0.0094,0.9906	-803.92
0.0045,0.9955	-808.94
0.0119,0.9881	-808.81
0.0115,0.9885	-804.32
0.0046,0.9954	-803.53
0.0152,0.9848	-809.33
0.0077,0.9923	-798.81
0.0053,0.9947	-798.27
0.0079,0.9921	-808.53
0.0110,0.9890	-804.21
0.0054,0.9946	-798.30
0.0150,0.9850	-813.47
0.0082,0.9918	-808.54
0.0045,0.9955	-798.14
0.0066,0.9934	-798.54
0.0126,0.9874	-804.55
0.0047,0.9953	-798.16
0.0146,0.9854	-800.78
0.0083,0.9917	-798.98
0.0048,0.9952	-798.19
0.0063,0.9937	-803.55
0.0109,0.9891	-804.18
0.0033,0.9967	-798.00
0.0173,0.9827	-809.71
0.0071,0.9929	-798.67
0.0054,0.9946	-803.51
0.0067,0.9933	-808.58
0.0116,0.9884	-799.90
0.0027,0.9973	-797.96
0.0151,0.9849	-800.96
0.0065,0.9935	-813.62
0.0055,0.9945	-803.52
0.0059,0.9941	-798.40
0.0091,0.9909	-803.86
0.0024,0.9976	-797.97
0.0128,0.9872	-800.24
0.0055,0.9945	-798.31
0.0049,0.9951	-798.21
0.0054,0.9946	-798.31
0.0092,0.9908	-808.57
0.0029,0.9971	-797.97
0.0134,0.9866	-800.41
0.0060,0.9940	-798.41
0.0051,0.9949	-803.52
0.0043,0.9957	-798.11
0.0082,0.9918	-798.95
0.0029,0.9971	-797.97
0.0133,0.9867	-804.69
0.0058,0.9942	-798.38
0.0058,0.9942	-798.38
0.0036,0.9964	-798.02
0.0092,0.9908	-799.20
0.0033,0.9967	-798.00
0.0116,0.9884	-813.22
0.0065,0.9935	-803.56
0.0053,0.9947	-798.29
0.0041,0.9959	-798.08
0.0073,0.9927	-798.72
0.0033,0.9967	-797.99
0.0103,0.9897	-813.21
0.0066,0.9934	-798.55
0.0053,0.9947	-798.29
0.0036,0.9964	-798.02
0.0061,0.9939	-798.44
0.0034,0.9966	-798.00
0.0092,0.9908	-799.21
0.0066,0.9934	-803.57
0.0047,0.9953	-803.53
0.0032,0.9968	-797.99
0.0042,0.9958	-798.10
0.0040,0.9960	-798.06
0.0092,0.9908	-799.20
0.0062,0.9938	-798.46
0.0034,0.9966	-798.00
0.0026,0.9974	-797.96
0.0032,0.9968	-797.99
0.0038,0.9962	-798.04
0.0086,0.9914	-808.54
0.0061,0.9939	-798.45
0.0032,0.9968	-809.47
0.0025,0.9975	-803.96
0.0034,0.9966	-798.00
0.0044,0.9956	-814.40
0.0100,0.9900	-804.01
0.0064,0.9936	-798.51
0.0034,0.9966	-798.00
0.0024,0.9976	-797.97
0.0029,0.9971	-803.79
0.0041,0.9959	-798.08
0.0082,0.9918	-798.95
0.0065,0.9935	-813.63
0.0044,0.9956	-798.12
0.0027,0.9973	-803.89
0.0034,0.9966	-798.00
0.0048,0.9952	-803.52
0.0069,0.9931	-798.62
0.0061,0.9939	-803.54
0.0055,0.9945	-798.31
0.0027,0.9973	-797.96
0.0034,0.9966	-798.00
0.0066,0.9934	-798.56
0.0052,0.9948	-814.03
0.0073,0.9927	-798.71
0.0065,0.9935	-798.52
0.0025,0.9975	-803.97
0.0041,0.9959	-803.57
0.0092,0.9908	-799.22
0.0048,0.9952	-808.86
0.0056,0.9944	-803.52
0.0064,0.9936	-808.60
0.0027,0.9973	-797.97
0.0050,0.9950	-803.52
0.0095,0.9905	-808.58
0.0043,0.9957	-798.12
0.0047,0.9953	-808.89
0.0075,0.9925	-803.65
0.0028,0.9972	-797.97
0.0049,0.9951	-803.52
0.0107,0.9893	-804.16
0.0038,0.9962	-809.18
0.0056,0.9944	-808.69
0.0090,0.9910	-808.56
0.0022,0.9978	-797.98
0.0060,0.9940	-798.41
0.0120,0.9880	-804.41
0.0037,0.9963	-798.03
0.0070,0.9930	-798.64
0.0087,0.9913	-799.08
0.0025,0.9975	-797.97
0.0066,0.9934	-798.54
0.0138,0.9862	-804.80
0.0037,0.9963	-798.03
0.0064,0.9936	-798.51
0.0074,0.9926	-803.64
0.0023,0.9977	-797.97
0.0053,0.9947	-803.51
0.0120,0.9880	-808.82
0.0040,0.9960	-798.07
0.0042,0.9958	-809.02
0.0065,0.9935	-803.56
0.0024,0.9976	-797.97
0.0044,0.9956	-798.13
0.0095,0.9905	-799.28
0.0031,0.9969	-797.98
0.0037,0.9963	-798.03
0.0055,0.9945	-798.32
0.0027,0.9973	-797.96
0.0038,0.9962	-798.04
0.0078,0.9922	-798.85
0.0036,0.9964	-809.28
0.0042,0.9958	-798.09
0.0068,0.9932	-798.59
0.0027,0.9973	-797.96
0.0045,0.9955	-798.13
0.0104,0.9896	-799.53
0.0039,0.9961	-798.05
0.0043,0.9957	-798.11
0.0072,0.9928	-798.69
0.0032,0.9968	-797.99
0.0038,0.9962	-798.04
0.0090,0.9910	-803.86
0.0050,0.9950	-803.52
0.0044,0.9956	-798.12
0.0081,0.9919	-803.73
0.0030,0.9970	-809.57
0.0041,0.9959	-798.08
0.0092,0.9908	-799.21
0.0066,0.9934	-798.56
0.0048,0.9952	-798.18
0.0099,0.9901	-799.39
0.0029,0.9971	-809.65
0.0041,0.9959	-798.07
0.0095,0.9905	-803.94
0.0059,0.9941	-803.53
0.0059,0.9941	-798.41
0.0124,0.9876	-800.13
0.0025,0.9975	-809.98
0.0042,0.9958	-798.09
0.0087,0.9913	-803.80
0.0049,0.9951	-798.21
0.0068,0.9932	-803.59
0.0129,0.9871	-808.94
0.0027,0.9973	-797.97
0.0040,0.9960	-803.58
0.0083,0.9917	-798.97
0.0040,0.9960	-803.58
0.0087,0.9913	-803.80
0.0098,0.9902	-808.60
0.0022,0.9978	-804.11
0.0035,0.9965	-803.66
0.0081,0.9919	-798.92
0.0045,0.9955	-798.14
0.0088,0.9912	-808.55
0.0096,0.9904	-799.31
0.0023,0.9977	-810.09
0.0037,0.9963	-798.03
0.0068,0.9932	-798.61
0.0054,0.9946	-798.30
0.0095,0.9905	-803.94
0.0082,0.9918	-798.95
0.0018,0.9982	-798.03
0.0038,0.9962	-803.61
0.0087,0.9913	-799.08
0.0049,0.9951	-798.21
0.0085,0.9915	-803.77
0.0088,0.9912	-803.83
0.0014,0.9986	-798.11
0.0041,0.9959	-798.08
0.0086,0.9914	-808.54
0.0055,0.9945	-798.32
0.0070,0.9930	-803.60
0.0085,0.9915	-803.77
0.0020,0.9980	-798.00
0.0038,0.9962	-798.04
0.0100,0.9900	-804.02
0.0064,0.9936	-798.52
0.0073,0.9927	-798.72
0.0073,0.9927	-798.72
0.0018,0.9982	-798.03
0.0037,0.9963	-798.03
0.0089,0.9911	-808.55
0.0054,0.9946	-798.30
0.0061,0.9939	-798.43
0.0074,0.9926	-808.54
0.0018,0.9982	-798.03
0.0038,0.9962	-798.04
0.0085,0.9915	-799.03
0.0046,0.9954	-798.16
0.0077,0.9923	-798.83
0.0081,0.9919	-798.92
0.0017,0.9983	-798.05
0.0036,0.9964	-803.64
0.0061,0.9939	-803.54
0.0044,0.9956	-798.12
0.0074,0.9926	-798.75
0.0097,0.9903	-799.33
0.0017,0.9983	-804.39
0.0039,0.9961	-798.05
0.0069,0.9931	-798.62
0.0038,0.9962	-803.61
0.0061,0.9939	-798.44
0.0076,0.9924	-803.66
0.0021,0.9979	-797.99
0.0031,0.9969	-797.98
0.0071,0.9929	-798.67
0.0041,0.9959	-798.08
0.0066,0.9934	-803.57
0.0077,0.9923	-798.82
0.0026,0.9974	-803.92
0.0041,0.9959	-798.08
0.0052,0.9948	-803.51
0.0049,0.9951	-798.20
0.0073,0.9927	-798.71
0.0070,0.9930	-803.60
0.0025,0.9975	-797.97
0.0040,0.9960	-798.06
0.0056,0.9944	-803.52
0.0043,0.9957	-798.10
0.0097,0.9903	-799.33
0.0072,0.9928	-798.69
0.0026,0.9974	-797.96
0.0050,0.9950	-798.22
0.0054,0.9946	-813.95
0.0048,0.9952	-798.18
0.0103,0.9897	-804.08
0.0077,0.9923	-798.81
0.0025,0.9975	-797.97
0.0054,0.9946	-798.30
0.0060,0.9940	-803.53
0.0052,0.9948	-803.51
0.0089,0.9911	-803.85
0.0068,0.9932	-798.61
0.0021,0.9979	-797.99
0.0043,0.9957	-798.11
0.0045,0.9955	-798.14
0.0062,0.9938	-798.46
0.0107,0.9893	-813.21
0.0077,0.9923	-803.67
0.0028,0.9972	-797.97
0.0042,0.9958	-803.56
0.0051,0.9949	-798.24
0.0048,0.9952	-803.52
0.0102,0.9898	-804.05
0.0070,0.9930	-803.60
0.0025,0.9975	-797.96
0.0043,0.9957	-798.11
0.0054,0.9946	-803.51
0.0050,0.9950	-803.52
0.0128,0.9872	-804.59
0.0073,0.9927	-798.71
0.0027,0.9973	-797.96
0.0048,0.9952	-808.86
0.0071,0.9929	-803.61
0.0049,0.9951	-798.21
0.0101,0.9899	-799.45
0.0085,0.9915	-803.79
0.0029,0.9971	-797.97
0.0048,0.9952	-798.19
0.0085,0.9915	-803.79
0.0043,0.9957	-798.10
0.0100,0.9900	-804.02
0.0097,0.9903	-803.97
0.0030,0.9970	-803.78
0.0046,0.9954	-798.15
0.0080,0.9920	-803.71
0.0044,0.9956	-798.12
0.0106,0.9894	-799.59
0.0099,0.9901	-808.61
0.0036,0.9964	-798.02
0.0036,0.9964	-798.02
0.0066,0.9934	-798.57
0.0048,0.9952	-803.52
0.0113,0.9887	-804.27
0.0104,0.9896	-804.09
0.0030,0.9970	-797.97
0.0036,0.9964	-798.02
0.0071,0.9929	-803.61
0.0047,0.9953	-798.17
0.0094,0.9906	-799.26
0.0094,0.9906	-808.58
0.0028,0.9972	-803.83
0.0030,0.9970	-803.77
0.0068,0.9932	-798.59
0.0051,0.9949	-798.23
0.0089,0.9911	-803.84
0.0096,0.9904	-803.96
0.0028,0.9972	-803.83
0.0022,0.9978	-810.24
0.0071,0.9929	-803.61
0.0034,0.9966	-798.00
0.0072,0.9928	-803.62
0.0101,0.9899	-804.05
0.0030,0.9970	-797.98
0.0018,0.9982	-798.02
0.0063,0.9937	-798.48
0.0030,0.9970	-797.97
0.0073,0.9927	-803.63
0.0119,0.9881	-804.39
0.0030,0.9970	-797.97
0.0020,0.9980	-798.00
0.0058,0.9942	-798.37
0.0030,0.9970	-797.98
0.0067,0.9933	-803.57
0.0075,0.9925	-798.78
0.0034,0.9966	-798.00
0.0021,0.9979	-804.16
0.0064,0.9936	-798.52
0.0029,0.9971	-809.66
0.0055,0.9945	-803.52
0.0074,0.9926	-798.75
0.0030,0.9970	-797.97
0.0019,0.9981	-798.01
0.0079,0.9921	-808.53
0.0037,0.9963	-798.02
0.0063,0.9937	-803.55
0.0099,0.9901	-799.40
0.0035,0.9965	-803.66
0.0022,0.9978	-797.98
0.0074,0.9926	-798.75
0.0043,0.9957	-798.11
0.0056,0.9944	-798.34
0.0088,0.9912	-813.27
0.0033,0.9967	-797.99
0.0019,0.9981	-798.01
0.0063,0.9937	-808.60
0.0041,0.9959	-803.58
0.0049,0.9951	-798.21
0.0089,0.9911	-799.12
0.0038,0.9962	-798.04
0.0021,0.9979	-804.18
0.0066,0.9934	-798.55
0.0040,0.9960	-798.06
0.0051,0.9949	-798.24
0.0094,0.9906	-803.92
0.0040,0.9960	-798.06
0.0022,0.9978	-797.98
0.0071,0.9929	-803.61
0.0040,0.9960	-798.07
0.0055,0.9945	-798.32
0.0082,0.9918	-803.74
0.0045,0.9955	-798.14
0.0018,0.9982	-798.02
0.0076,0.9924	-798.79
0.0036,0.9964	-798.02
0.0057,0.9943	-798.36
0.0089,0.9911	-799.13
0.0047,0.9953	-803.53
0.0023,0.9977	-797.97
0.0069,0.9931	-808.56
0.0039,0.9961	-798.05
0.0074,0.9926	-803.64
0.0103,0.9897	-799.51
0.0056,0.9944	-798.34
0.0027,0.9973	-797.96
0.0068,0.9932	-803.58
0.0030,0.9970	-797.97
0.0062,0.9938	-798.46
0.0098,0.9902	-799.36
0.0061,0.9939	-798.44
0.0032,0.9968	-797.98
0.0064,0.9936	-798.50
0.0031,0.9969	-797.98
0.0075,0.9925	-803.66
0.0131,0.9869	-804.66
0.0059,0.9941	-803.53
0.0037,0.9963	-809.22
0.0073,0.9927	-803.64
0.0035,0.9965	-798.01
0.0059,0.9941	-803.53
0.0148,0.9852	-809.25
0.0058,0.9942	-803.52
0.0045,0.9955	-798.14
0.0069,0.9931	-803.59
0.0032,0.9968	-797.98
0.0059,0.9941	-798.41
0.0117,0.9883	-808.79
0.0036,0.9964	-798.02
0.0041,0.9959	-809.05
0.0060,0.9940	-798.43
0.0031,0.9969	-797.98
0.0052,0.9948	-803.51
0.0128,0.9872	-800.25
0.0041,0.9959	-798.08
0.0051,0.9949	-803.52
0.0049,0.9951	-798.21
0.0032,0.9968	-815.21
0.0067,0.9933	-798.57
0.0124,0.9876	-808.88
0.0034,0.9966	-798.00
0.0056,0.9944	-798.34
0.0041,0.9959	-798.09
0.0026,0.9974	-797.96
0.0055,0.9945	-803.52
0.0147,0.9853	-805.04
0.0036,0.9964	-798.02
0.0057,0.9943	-803.52
0.0041,0.9959	-798.08
0.0021,0.9979	-797.99
0.0047,0.9953	-803.53
0.0158,0.9842	-801.16
0.0033,0.9967	-803.69
0.0058,0.9942	-803.52
0.0055,0.9945	-803.52
0.0018,0.9982	-798.03
0.0064,0.9936	-798.50
0.0185,0.9815	-817.91
0.0025,0.9975	-797.96
0.0056,0.9944	-798.33
0.0050,0.9950	-798.22
0.0019,0.9981	-798.01
0.0061,0.9939	-798.45
0.0134,0.9866	-804.73
0.0021,0.9979	-797.99
0.0052,0.9948	-808.76
0.0054,0.9946	-798.30
0.0017,0.9983	-798.04
0.0060,0.9940	-803.53
0.0154,0.9846	-805.19
0.0028,0.9972	-797.97
0.0081,0.9919	-803.72
0.0043,0.9957	-809.01
0.0016,0.9984	-798.06
0.0070,0.9930	-798.65
0.0111,0.9889	-808.72
0.0027,0.9973	-797.96
0.0088,0.9912	-813.27
0.0047,0.9953	-798.17
0.0013,0.9987	-798.17
0.0065,0.9935	-798.52
0.0099,0.9901	-804.00
0.0025,0.9975	-797.97
0.0105,0.9895	-808.66
0.0047,0.9953	-803.53
0.0014,0.9986	-804.75
0.0056,0.9944	-798.34
0.0112,0.9888	-808.73
0.0026,0.9974	-797.96
0.0095,0.9905	-803.94
0.0039,0.9961	-803.60
0.0014,0.9986	-798.11
0.0057,0.9943	-803.52
0.0090,0.9910	-799.16
0.0024,0.9976	-797.97
0.0096,0.9904	-808.59
0.0037,0.9963	-798.03
0.0014,0.9986	-798.14
0.0057,0.9943	-803.52
0.0105,0.9895	-799.58
0.0022,0.9978	-804.12
0.0086,0.9914	-799.04
0.0048,0.9952	-798.19
0.0015,0.9985	-798.10
0.0053,0.9947	-798.29
0.0136,0.9864	-804.76
0.0021,0.9979	-797.99
0.0110,0.9890	-804.21
0.0053,0.9947	-803.51
0.0018,0.9982	-798.03
0.0047,0.9953	-798.17
0.0153,0.9847	-813.50
0.0021,0.9979	-804.17
0.0124,0.9876	-804.51
0.0044,0.9956	-803.54
0.0017,0.9983	-798.04
0.0040,0.9960	-803.58
0.0133,0.9867	-800.38
0.0017,0.9983	-798.05
0.0089,0.9911	-808.55
0.0051,0.9949	-803.52
0.0019,0.9981	-798.01
0.0044,0.9956	-808.97
0.0113,0.9887	-804.28
0.0013,0.9987	-798.15
0.0098,0.9902	-799.38
0.0053,0.9947	-803.51
0.0018,0.9982	-798.03
0.0039,0.9961	-798.06
0.0124,0.9876	-808.88
0.0015,0.9985	-798.11
0.0143,0.9857	-800.71
0.0053,0.9947	-798.27
0.0015,0.9985	-798.08
0.0042,0.9958	-809.04
0.0100,0.9900	-804.02
0.0018,0.9982	-798.02
0.0166,0.9834	-809.57
0.0043,0.9957	-803.55
0.0016,0.9984	-798.08
0.0048,0.9952	-803.52
0.0110,0.9890	-799.70
0.0016,0.9984	-798.07
0.0214,0.9786	-806.79
0.0040,0.9960	-798.06
0.0014,0.9986	-804.65
0.0052,0.9948	-803.51
0.0089,0.9911	-803.84
0.0017,0.9983	-798.05
0.0219,0.9781	-825.93
0.0039,0.9961	-798.06
0.0014,0.9986	-804.73
0.0051,0.9949	-798.24
0.0076,0.9924	-798.79
0.0018,0.9982	-798.02
0.0221,0.9779	-810.79
0.0045,0.9955	-798.14
0.0015,0.9985	-804.57
0.0057,0.9943	-798.36
0.0077,0.9923	-798.82
0.0015,0.9985	-798.09
0.0211,0.9789	-806.70
0.0043,0.9957	-803.55
0.0017,0.9983	-798.04
0.0063,0.9937	-798.49
0.0083,0.9917	-803.75
0.0014,0.9986	-798.12
0.0174,0.9826	-805.72
0.0050,0.9950	-803.52
0.0018,0.9982	-798.03
0.0061,0.9939	-798.43
0.0084,0.9916	-803.77
0.0017,0.9983	-798.05
0.0168,0.9832	-801.48
0.0041,0.9959	-798.08
0.0016,0.9984	-798.07
0.0048,0.9952	-798.19
0.0093,0.9907	-799.23
0.0016,0.9984	-798.08
0.0192,0.9808	-810.12
0.0047,0.9953	-798.18
0.0018,0.9982	-798.02
0.0049,0.9951	-803.52
0.0092,0.9908	-803.88
0.0015,0.9985	-798.08
0.0273,0.9727	-815.67
0.0051,0.9949	-798.24
0.0021,0.9979	-797.98
0.0046,0.9954	-798.15
0.0105,0.9895	-799.57
0.0015,0.9985	-798.09
0.0234,0.9766	-803.63
0.0048,0.9952	-798.19
0.0021,0.9979	-797.99
0.0046,0.9954	-798.15
0.0117,0.9883	-799.91
0.0014,0.9986	-804.75
0.0271,0.9729	-808.47
0.0058,0.9942	-803.52
0.0025,0.9975	-797.97
0.0048,0.9952	-798.20
0.0122,0.9878	-800.06
0.0016,0.9984	-798.08
0.0291,0.9709	-812.56
0.0054,0.9946	-803.51
0.0024,0.9976	-797.97
0.0068,0.9932	-798.59
0.0164,0.9836	-813.64
0.0012,0.9988	-798.19
0.0276,0.9724	-812.16
0.0053,0.9947	-798.28
0.0024,0.9976	-797.97
0.0063,0.9937	-803.55
0.0202,0.9798	-810.33
0.0013,0.9987	-798.18
0.0227,0.9773	-814.70
0.0054,0.9946	-798.30
0.0023,0.9977	-797.97
0.0061,0.9939	-808.63
0.0212,0.9788	-818.24
0.0015,0.9985	-798.10
0.0209,0.9791	-806.67
0.0066,0.9934	-798.54
0.0017,0.9983	-804.41
0.0056,0.9944	-798.34
0.0223,0.9777	-810.82
0.0020,0.9980	-798.00
0.0195,0.9805	-802.35
0.0081,0.9919	-803.73
0.0014,0.9986	-798.13
0.0070,0.9930	-803.60
0.0189,0.9811	-810.05
0.0015,0.9985	-798.10
0.0207,0.9793	-810.45
0.0089,0.9911	-799.13
0.0014,0.9986	-798.14
0.0066,0.9934	-808.58
0.0197,0.9803	-810.24
0.0013,0.9987	-798.16
0.0156,0.9844	-805.26
0.0114,0.9886	-804.29
0.0012,0.9988	-798.19
0.0071,0.9929	-808.55
0.0150,0.9850	-813.47
0.0013,0.9987	-798.17
0.0143,0.9857	-809.17
0.0100,0.9900	-808.62
0.0013,0.9987	-798.17
0.0060,0.9940	-808.64
0.0151,0.9849	-805.13
0.0015,0.9985	-798.10
0.0196,0.9804	-814.12
0.0100,0.9900	-804.02
0.0017,0.9983	-798.05
0.0081,0.9919	-803.73
0.0121,0.9879	-804.44
0.0017,0.9983	-798.05
0.0189,0.9811	-806.10
0.0103,0.9897	-799.52
0.0016,0.9984	-798.07
0.0077,0.9923	-798.81
0.0134,0.9866	-804.73
0.0017,0.9983	-798.04
0.0184,0.9816	-805.98
0.0123,0.9877	-804.49
0.0015,0.9985	-798.09
0.0077,0.9923	-808.54
0.0117,0.9883	-804.34
0.0019,0.9981	-798.01
0.0172,0.9828	-805.66
0.0134,0.9866	-804.72
0.0015,0.9985	-804.63
0.0069,0.9931	-803.59
0.0104,0.9896	-813.21
0.0025,0.9975	-803.96
0.0139,0.9861	-804.83
0.0177,0.9823	-805.77
0.0015,0.9985	-798.09
0.0073,0.9927	-803.63
0.0090,0.9910	-799.16
0.0025,0.9975	-797.97
0.0171,0.9829	-813.73
0.0147,0.9853	-805.04
0.0016,0.9984	-798.08
0.0074,0.9926	-798.74
0.0083,0.9917	-798.98
0.0030,0.9970	-797.97
0.0199,0.9801	-806.39
0.0129,0.9871	-804.61
0.0022,0.9978	-797.98
0.0076,0.9924	-818.29
0.0088,0.9912	-799.11
0.0038,0.9962	-803.61
0.0178,0.9822	-809.83
0.0129,0.9871	-800.27
0.0028,0.9972	-797.97
0.0079,0.9921	-798.87
0.0100,0.9900	-804.02
0.0043,0.9957	-798.12
0.0213,0.9787	-806.78
0.0126,0.9874	-804.54
0.0034,0.9966	-798.00
0.0074,0.9926	-808.54
0.0116,0.9884	-804.32
0.0045,0.9955	-808.94
0.0210,0.9790	-810.52
0.0155,0.9845	-805.23
0.0027,0.9973	-797.96
0.0073,0.9927	-803.63
0.0103,0.9897	-804.08
0.0038,0.9962	-798.04
0.0185,0.9815	-813.95
0.0141,0.9859	-800.64
0.0030,0.9970	-797.97
0.0058,0.9942	-798.37
0.0105,0.9895	-804.11
0.0036,0.9964	-803.64
0.0141,0.9859	-800.63
0.0141,0.9859	-804.89
0.0029,0.9971	-797.97
0.0064,0.9936	-798.51
0.0107,0.9893	-799.63
0.0032,0.9968	-809.48
0.0094,0.9906	-799.27
0.0110,0.9890	-804.20
0.0032,0.9968	-797.98
0.0058,0.9942	-803.52
0.0112,0.9888	-804.25
0.0032,0.9968	-797.98
0.0104,0.9896	-804.09
0.0120,0.9880	-808.82
0.0034,0.9966	-803.69
0.0065,0.9935	-808.59
0.0114,0.9886	-813.22
0.0035,0.9965	-798.01
0.0100,0.9900	-804.03
0.0136,0.9864	-804.77
0.0043,0.9957	-798.12
0.0068,0.9932	-803.58
0.0109,0.9891	-799.68
0.0033,0.9967	-797.99
0.0094,0.9906	-803.92
0.0125,0.9875	-808.89
0.0043,0.9957	-798.11
0.0078,0.9922	-803.69
0.0086,0.9914	-813.29
0.0028,0.9972	-803.83
0.0115,0.9885	-804.31
0.0096,0.9904	-799.32
0.0037,0.9963	-798.03
0.0066,0.9934	-798.55
0.0081,0.9919	-808.53
0.0022,0.9978	-804.08
0.0111,0.9889	-804.23
0.0082,0.9918	-803.74
0.0037,0.9963	-803.62
0.0066,0.9934	-798.56
0.0112,0.9888	-799.77
0.0028,0.9972	-803.83
0.0094,0.9906	-803.92
0.0093,0.9907	-808.57
0.0045,0.9955	-798.14
0.0082,0.9918	-798.93
0.0112,0.9888	-804.24
0.0028,0.9972	-797.97
0.0092,0.9908	-803.89
0.0095,0.9905	-799.29
0.0041,0.9959	-798.07
0.0087,0.9913	-803.81
0.0100,0.9900	-804.02
0.0034,0.9966	-798.00
0.0082,0.9918	-798.93
0.0083,0.9917	-803.75
0.0048,0.9952	-803.52
0.0099,0.9901	-799.39
0.0108,0.9892	-804.16
0.0034,0.9966	-798.00
0.0065,0.9935	-803.56
0.0096,0.9904	-803.95
0.0044,0.9956	-803.54
0.0100,0.9900	-804.02
0.0092,0.9908	-813.25
0.0031,0.9969	-797.98
0.0054,0.9946	-808.74
0.0105,0.9895	-799.56
0.0048,0.9952	-803.52
0.0099,0.9901	-808.61
0.0113,0.9887	-808.75
0.0038,0.9962	-798.04
0.0061,0.9939	-803.53
0.0103,0.9897	-799.51
0.0049,0.9951	-798.20
0.0108,0.9892	-804.18
0.0142,0.9858	-817.63
0.0047,0.9953	-798.16
0.0066,0.9934	-798.55
0.0109,0.9891	-799.69
0.0039,0.9961	-803.60
0.0140,0.9860	-804.87
0.0139,0.9861	-804.84
0.0044,0.9956	-803.54
0.0059,0.9941	-798.40
0.0081,0.9919	-798.92
0.0041,0.9959	-798.07
0.0145,0.9855	-809.19
0.0148,0.9852	-800.86
0.0052,0.9948	-798.26
0.0058,0.9942	-798.39
0.0116,0.9884	-804.34
0.0035,0.9965	-798.01
0.0116,0.9884	-813.22
0.0155,0.9845	-809.37
0.0048,0.9952	-803.52
0.0040,0.9960	-798.07
0.0090,0.9910	-799.15
0.0043,0.9957	-798.11
0.0101,0.9899	-813.21
0.0182,0.9818	-801.92
0.0053,0.9947	-803.51
0.0051,0.9949	-798.25
0.0073,0.9927	-813.46
0.0037,0.9963	-803.63
0.0091,0.9909	-808.56
0.0164,0.9836	-809.54
0.0041,0.9959	-798.08
0.0046,0.9954	-808.90
0.0087,0.9913	-799.08
0.0042,0.9958	-803.57
0.0091,0.9909	-813.25
0.0153,0.9847	-805.16
0.0045,0.9955	-808.92
0.0050,0.9950	-803.52
0.0107,0.9893	-804.16
0.0050,0.9950	-798.22
0.0075,0.9925	-798.77
0.0125,0.9875	-800.16
0.0050,0.9950	-803.52
0.0067,0.9933	-798.58
0.0102,0.9898	-808.64
0.0044,0.9956	-798.12
0.0102,0.9898	-804.05
0.0106,0.9894	-804.14
0.0068,0.9932	-798.61
0.0049,0.9951	-798.20
0.0085,0.9915	-803.78
0.0049,0.9951	-803.52
0.0098,0.9902	-803.99
0.0101,0.9899	-799.46
0.0086,0.9914	-808.54
0.0047,0.9953	-798.17
0.0097,0.9903	-803.97
0.0062,0.9938	-798.47
0.0092,0.9908	-799.22
0.0102,0.9898	-799.49
0.0090,0.9910	-799.16
0.0051,0.9949	-803.51
0.0084,0.9916	-799.00
0.0066,0.9934	-808.58
0.0095,0.9905	-803.94
0.0109,0.9891	-799.68
0.0092,0.9908	-799.22
0.0051,0.9949	-798.25
0.0071,0.9929	-798.67
0.0076,0.9924	-798.80
0.0073,0.9927	-808.54
0.0103,0.9897	-799.50
0.0112,0.9888	-804.26
0.0066,0.9934	-798.56
0.0075,0.9925	-798.78
0.0059,0.9941	-798.40
0.0072,0.9928	-808.55
0.0135,0.9865	-800.47
0.0109,0.9891	-817.71
0.0073,0.9927	-803.63
0.0067,0.9933	-798.59
0.0051,0.9949	-803.52
0.0073,0.9927	-803.63
0.0157,0.9843	-801.12
0.0111,0.9889	-804.22
0.0061,0.9939	-803.54
0.0059,0.9941	-798.41
0.0046,0.9954	-798.15
0.0080,0.9920	-798.90
0.0136,0.9864	-821.90
0.0103,0.9897	-804.07
0.0074,0.9926	-798.73
0.0060,0.9940	-803.53
0.0045,0.9955	-803.54
0.0108,0.9892	-804.18
0.0141,0.9859	-804.89
0.0117,0.9883	-804.35
0.0112,0.9888	-804.24
0.0057,0.9943	-798.36
0.0049,0.9951	-798.21
0.0120,0.9880	-804.42
0.0099,0.9901	-799.39
0.0147,0.9853	-805.02
0.0112,0.9888	-799.76
0.0062,0.9938	-803.54
0.0043,0.9957	-803.55
0.0101,0.9899	-799.45
0.0113,0.9887	-804.26
0.0134,0.9866	-800.43
0.0139,0.9861	-804.83
0.0058,0.9942	-798.37
0.0046,0.9954	-798.15
0.0134,0.9866	-813.32
0.0146,0.9854	-805.01
0.0141,0.9859	-809.13
0.0170,0.9830	-805.60
0.0055,0.9945	-808.71
0.0049,0.9951	-798.20
0.0126,0.9874	-804.55
0.0151,0.9849	-805.11
0.0138,0.9862	-800.54
0.0139,0.9861	-804.85
0.0072,0.9928	-808.55
0.0059,0.9941	-813.78
0.0147,0.9853	-805.03
0.0147,0.9853	-813.44
0.0130,0.9870	-808.96
0.0124,0.9876	-804.49
0.0055,0.9945	-798.32
0.0052,0.9948	-798.26
0.0126,0.9874	-800.19
0.0152,0.9848	-809.32
0.0129,0.9871	-813.29
0.0141,0.9859	-804.87
0.0048,0.9952	-808.85
0.0049,0.9951	-819.43
0.0133,0.9867	-804.70
0.0166,0.9834	-801.40
0.0181,0.9819	-809.87
0.0146,0.9854	-800.79
0.0053,0.9947	-798.28
0.0055,0.9945	-803.52
0.0139,0.9861	-809.10
0.0133,0.9867	-804.70
0.0175,0.9825	-809.75
0.0154,0.9846	-809.36
0.0067,0.9933	-803.58
0.0058,0.9942	-803.52
0.0103,0.9897	-813.21
0.0142,0.9858	-800.68
0.0175,0.9825	-809.76
0.0179,0.9821	-805.84
0.0069,0.9931	-798.62
0.0058,0.9942	-803.52
0.0101,0.9899	-799.46
0.0119,0.9881	-804.39
0.0151,0.9849	-809.31
0.0156,0.9844	-817.68
0.0061,0.9939	-798.44
0.0057,0.9943	-798.35
0.0086,0.9914	-799.05
0.0123,0.9877	-800.11
0.0169,0.9831	-805.57
0.0165,0.9835	-805.47
0.0052,0.9948	-798.26
0.0055,0.9945	-798.32
0.0066,0.9934	-808.58
0.0092,0.9908	-803.89
0.0188,0.9812	-806.07
0.0159,0.9841	-813.57
0.0052,0.9948	-798.26
0.0050,0.9950	-798.23
0.0073,0.9927	-798.71
0.0100,0.9900	-799.44
0.0154,0.9846	-809.35
0.0157,0.9843	-809.41
0.0063,0.9937	-798.50
0.0056,0.9944	-798.33
0.0074,0.9926	-803.64
0.0098,0.9902	-799.37
0.0171,0.9829	-801.58
0.0150,0.9850	-805.10
0.0094,0.9906	-813.23
0.0058,0.9942	-803.52
0.0089,0.9911	-813.26
0.0113,0.9887	-804.27
0.0101,0.9899	-799.46
0.0128,0.9872	-800.26
0.0124,0.9876	-804.49
0.0073,0.9927	-798.73
0.0079,0.9921	-798.86
0.0094,0.9906	-803.92
0.0076,0.9924	-798.79
0.0144,0.9856	-809.17
0.0134,0.9866	-800.41
0.0075,0.9925	-803.65
0.0084,0.9916	-813.31
0.0087,0.9913	-813.28
0.0072,0.9928	-798.69
0.0135,0.9865	-800.46
0.0127,0.9873	-800.22
0.0058,0.9942	-798.38
0.0088,0.9912	-799.09
0.0089,0.9911	-808.56
0.0052,0.9948	-803.51
0.0132,0.9868	-804.68
0.0122,0.9878	-804.45
0.0057,0.9943	-803.52
0.0086,0.9914	-799.04
0.0086,0.9914	-799.05
0.0056,0.9944	-798.34
0.0131,0.9869	-808.98
0.0115,0.9885	-813.22
0.0063,0.9937	-798.49
0.0092,0.9908	-799.20
0.0098,0.9902	-799.37
0.0062,0.9938	-798.46
0.0117,0.9883	-799.91
0.0096,0.9904	-799.30
0.0055,0.9945	-798.32
0.0112,0.9888	-808.73
0.0075,0.9925	-803.66
0.0082,0.9918	-798.94
0.0084,0.9916	-803.77
0.0089,0.9911	-799.12
0.0047,0.9953	-798.18
0.0116,0.9884	-804.34
0.0079,0.9921	-798.86
0.0083,0.9917	-808.54
0.0081,0.9919	-798.92
0.0089,0.9911	-799.13
0.0045,0.9955	-798.13
0.0134,0.9866	-804.71
0.0073,0.9927	-803.63
0.0090,0.9910	-799.14
0.0089,0.9911	-803.83
0.0073,0.9927	-803.63
0.0045,0.9955	-798.13
0.0122,0.9878	-804.45
0.0057,0.9943	-803.52
0.0085,0.9915	-799.02
0.0079,0.9921	-808.53
0.0090,0.9910	-799.16
0.0045,0.9955	-798.14
0.0096,0.9904	-803.95
0.0049,0.9951	-798.20
0.0088,0.9912	-803.83
0.0097,0.9903	-799.34
0.0082,0.9918	-798.94
0.0047,0.9953	-803.53
0.0111,0.9889	-799.75
0.0035,0.9965	-798.01
0.0103,0.9897	-799.51
0.0084,0.9916	-798.99
0.0075,0.9925	-798.76
0.0045,0.9955	-798.14
0.0119,0.9881	-804.39
0.0029,0.9971	-797.97
0.0099,0.9901	-799.41
0.0064,0.9936	-798.51
0.0077,0.9923	-798.83
0.0045,0.9955	-803.54
0.0142,0.9858	-800.68
0.0035,0.9965	-798.01
0.0102,0.9898	-799.48
0.0063,0.9937	-808.61
0.0066,0.9934	-798.55
0.0048,0.9952	-798.20
0.0146,0.9854	-817.64
0.0040,0.9960	-803.58
0.0085,0.9915	-799.02
0.0059,0.9941	-798.39
0.0068,0.9932	-798.59
0.0066,0.9934	-808.58
0.0155,0.9845	-817.68
0.0028,0.9972	-797.97
0.0080,0.9920	-798.89
0.0065,0.9935	-798.53
0.0069,0.9931	-803.59
0.0090,0.9910	-808.56
0.0144,0.9856	-804.95
0.0027,0.9973	-797.96
0.0085,0.9915	-813.30
0.0064,0.9936	-803.55
0.0060,0.9940	-803.53
0.0098,0.9902	-799.38
0.0119,0.9881	-808.81
0.0026,0.9974	-797.96
0.0094,0.9906	-799.26
0.0065,0.9935	-803.56
0.0050,0.9950	-798.23
0.0097,0.9903	-799.35
0.0102,0.9898	-804.06
0.0028,0.9972	-803.83
0.0093,0.9907	-803.91
0.0063,0.9937	-803.55
0.0059,0.9941	-798.40
0.0090,0.9910	-803.86
0.0071,0.9929	-798.67
0.0032,0.9968	-803.72
0.0079,0.9921	-798.88
0.0075,0.9925	-803.65
0.0059,0.9941	-803.53
0.0098,0.9902	-813.22
0.0081,0.9919	-798.92
0.0040,0.9960	-798.07
0.0087,0.9913	-803.82
0.0071,0.9929	-798.68
0.0063,0.9937	-798.48
0.0096,0.9904	-803.96
0.0085,0.9915	-799.02
0.0041,0.9959	-803.57
0.0081,0.9919	-798.91
0.0054,0.9946	-798.30
0.0075,0.9925	-798.78
0.0088,0.9912	-803.83
0.0093,0.9907	-799.23
0.0036,0.9964	-803.64
0.0094,0.9906	-808.58
0.0064,0.9936	-803.55
0.0052,0.9948	-798.26
0.0111,0.9889	-813.21
0.0091,0.9909	-803.87
0.0039,0.9961	-803.59
0.0079,0.9921	-798.88
0.0073,0.9927	-803.63
0.0046,0.9954	-798.15
0.0124,0.9876	-800.12
0.0071,0.9929	-803.61
0.0036,0.9964	-798.02
0.0067,0.9933	-798.58
0.0097,0.9903	-799.34
0.0047,0.9953	-803.53
0.0128,0.9872	-800.25
0.0097,0.9903	-803.96
0.0037,0.9963	-798.03
0.0090,0.9910	-799.17
0.0105,0.9895	-804.12
0.0059,0.9941	-803.53
0.0143,0.9857	-809.17
0.0134,0.9866	-804.72
0.0044,0.9956	-798.13
0.0099,0.9901	-799.40
0.0098,0.9902	-799.37
0.0057,0.9943	-808.68
0.0131,0.9869	-808.97
0.0151,0.9849	-805.12
0.0040,0.9960	-798.07
0.0091,0.9909	-803.86
0.0063,0.9937	-798.48
0.0058,0.9942	-798.38
0.0110,0.9890	-804.22
0.0146,0.9854	-813.42
0.0035,0.9965	-798.01
0.0090,0.9910	-799.16
0.0055,0.9945	-808.71
0.0050,0.9950	-798.22
0.0083,0.9917	-798.98
0.0168,0.9832	-809.62
0.0040,0.9960	-798.06
0.0070,0.9930	-803.60
0.0045,0.9955	-798.14
0.0076,0.9924	-798.80
0.0083,0.9917	-818.11
0.0168,0.9832	-801.49
0.0035,0.9965	-798.01
0.0067,0.9933	-798.59
0.0033,0.9967	-797.99
0.0084,0.9916	-803.77
0.0070,0.9930	-803.60
0.0162,0.9838	-817.71
0.0033,0.9967	-797.99
0.0062,0.9938	-803.54
0.0027,0.9973	-797.96
0.0066,0.9934	-798.55
0.0096,0.9904	-799.33
0.0169,0.9831	-805.57
0.0032,0.9968	-797.99
0.0069,0.9931	-798.61
0.0027,0.9973	-797.96
0.0068,0.9932	-798.60
0.0101,0.9899	-799.46
0.0163,0.9837	-805.44
0.0032,0.9968	-797.98
0.0078,0.9922	-803.69
0.0025,0.9975	-803.96
0.0054,0.9946	-798.30
0.0111,0.9889	-799.74
0.0128,0.9872	-804.60
0.0042,0.9958	-798.10
0.0050,0.9950	-808.80
0.0027,0.9973	-797.96
0.0054,0.9946	-798.30
0.0110,0.9890	-799.72
0.0098,0.9902	-803.98
0.0043,0.9957	-798.11
0.0048,0.9952	-803.52
0.0030,0.9970	-797.97
0.0046,0.9954	-798.15
0.0101,0.9899	-799.47
0.0072,0.9928	-798.69
0.0044,0.9956	-798.13
0.0042,0.9958	-798.10
0.0027,0.9973	-797.97
0.0038,0.9962	-803.61
0.0106,0.9894	-817.74
0.0075,0.9925	-798.76
0.0034,0.9966	-798.00
0.0051,0.9949	-803.51
0.0029,0.9971	-797.97
0.0048,0.9952	-798.20
0.0101,0.9899	-799.46
0.0084,0.9916	-803.76
0.0036,0.9964	-798.02
0.0051,0.9949	-798.24
0.0027,0.9973	-797.97
0.0036,0.9964	-798.02
0.0103,0.9897	-808.64
0.0079,0.9921	-798.87
0.0030,0.9970	-797.98
0.0046,0.9954	-808.90
0.0035,0.9965	-798.01
0.0038,0.9962	-809.19
0.0103,0.9897	-804.08
0.0090,0.9910	-799.16
0.0029,0.9971	-797.97
0.0056,0.9944	-798.33
0.0039,0.9961	-809.14
0.0035,0.9965	-803.66
0.0112,0.9888	-804.26
0.0087,0.9913	-803.81
0.0027,0.9973	-797.96
0.0069,0.9931	-798.63
0.0040,0.9960	-798.07
0.0049,0.9951	-814.16
0.0112,0.9888	-808.73
0.0085,0.9915	-808.54
0.0025,0.9975	-797.97
0.0061,0.9939	-798.43
0.0037,0.9963	-798.03
0.0038,0.9962	-798.04
0.0133,0.9867	-800.40
0.0065,0.9935	-803.56
0.0023,0.9977	-797.97
0.0055,0.9945	-798.32
0.0039,0.9961	-803.60
0.0043,0.9957	-798.11
0.0143,0.9857	-800.71
0.0067,0.9933	-798.58
0.0021,0.9979	-804.14
0.0050,0.9950	-803.52
0.0033,0.9967	-809.40
0.0045,0.9955	-798.13
0.0143,0.9857	-804.93
0.0065,0.9935	-803.56
0.0021,0.9979	-797.99
0.0071,0.9929	-798.66
0.0024,0.9976	-803.99
0.0060,0.9940	-798.43
0.0155,0.9845	-809.38
0.0061,0.9939	-803.54
0.0016,0.9984	-798.06
0.0048,0.9952	-798.20
0.0019,0.9981	-804.25
0.0052,0.9948	-803.51
0.0140,0.9860	-800.60
0.0069,0.9931	-803.60
0.0019,0.9981	-798.01
0.0046,0.9954	-798.15
0.0017,0.9983	-798.05
0.0061,0.9939	-798.44
0.0138,0.9862	-800.55
0.0078,0.9922	-798.83
0.0019,0.9981	-798.01
0.0057,0.9943	-798.36
0.0017,0.9983	-798.05
0.0060,0.9940	-803.53
0.0150,0.9850	-809.29
0.0091,0.9909	-799.17
0.0019,0.9981	-798.01
0.0040,0.9960	-798.07
0.0020,0.9980	-798.00
0.0044,0.9956	-808.95
0.0152,0.9848	-805.16
0.0077,0.9923	-798.83
0.0020,0.9980	-797.99
0.0052,0.9948	-803.51
0.0017,0.9983	-798.05
0.0040,0.9960	-798.07
0.0138,0.9862	-809.09
0.0082,0.9918	-803.74
0.0020,0.9980	-798.00
0.0055,0.9945	-803.52
0.0020,0.9980	-797.99
0.0049,0.9951	-798.21
0.0121,0.9879	-808.84
0.0079,0.9921	-803.71
0.0016,0.9984	-798.06
0.0049,0.9951	-803.52
0.0019,0.9981	-798.01
0.0059,0.9941	-803.53
0.0097,0.9903	-813.22
0.0086,0.9914	-799.06
0.0021,0.9979	-804.14
0.0056,0.9944	-798.34
0.0019,0.9981	-798.02
0.0046,0.9954	-798.15
0.0093,0.9907	-799.24
0.0088,0.9912	-803.82
0.0025,0.9975	-797.97
0.0065,0.9935	-808.59
0.0023,0.9977	-797.97
0.0049,0.9951	-803.52
0.0093,0.9907	-803.90
0.0086,0.9914	-799.06
0.0029,0.9971	-797.97
0.0050,0.9950	-798.23
0.0024,0.9976	-797.97
0.0049,0.9951	-798.21
0.0098,0.9902	-803.98
0.0063,0.9937	-803.55
0.0033,0.9967	-798.00
0.0048,0.9952	-803.52
0.0022,0.9978	-797.98
0.0047,0.9953	-798.18
0.0082,0.9918	-798.94
0.0047,0.9953	-803.53
0.0036,0.9964	-798.02
0.0042,0.9958	-798.10
0.0022,0.9978	-804.10
0.0050,0.9950	-808.82
0.0099,0.9901	-799.39
0.0054,0.9946	-798.31
0.0031,0.9969	-797.98
0.0043,0.9957	-803.55
0.0030,0.9970	-815.35
0.0050,0.9950	-803.52
0.0093,0.9907	-803.90
0.0047,0.9953	-798.17
0.0032,0.9968	-797.99
0.0043,0.9957	-798.11
0.0025,0.9975	-797.97
0.0034,0.9966	-798.00
0.0074,0.9926	-808.54
0.0061,0.9939	-808.63
0.0035,0.9965	-803.65
0.0051,0.9949	-803.51
0.0020,0.9980	-797.99
0.0033,0.9967	-798.00
0.0090,0.9910	-799.16
0.0057,0.9943	-798.35
0.0038,0.9962	-798.04
0.0069,0.9931	-798.61
0.0025,0.9975	-797.97
0.0027,0.9973	-797.96
0.0114,0.9886	-808.76
0.0051,0.9949	-798.25
0.0040,0.9960	-798.06
0.0063,0.9937	-798.48
0.0027,0.9973	-797.96
0.0027,0.9973	-797.96
0.0110,0.9890	-808.70
0.0052,0.9948	-798.25
0.0048,0.9952	-803.52
0.0085,0.9915	-808.54
0.0022,0.9978	-797.98
0.0031,0.9969	-797.98
0.0119,0.9881	-813.23
0.0046,0.9954	-798.15
0.0055,0.9945	-803.52
0.0083,0.9917	-803.75
0.0022,0.9978	-797.98
0.0028,0.9972	-797.97
0.0132,0.9868	-800.36
0.0056,0.9944	-803.52
0.0053,0.9947	-798.28
0.0087,0.9913	-808.54
0.0020,0.9980	-798.00
0.0035,0.9965	-803.67
0.0119,0.9881	-804.39
0.0049,0.9951	-798.20
0.0043,0.9957	-803.56
0.0086,0.9914	-799.06
0.0022,0.9978	-797.98
0.0036,0.9964	-798.02
0.0114,0.9886	-808.75
0.0040,0.9960	-803.59
0.0038,0.9962	-798.04
0.0093,0.9907	-813.24
0.0020,0.9980	-798.00
0.0038,0.9962	-803.61
0.0095,0.9905	-813.23
0.0038,0.9962	-798.04
0.0043,0.9957	-798.11
0.0096,0.9904	-799.31
0.0022,0.9978	-797.98
0.0042,0.9958	-798.09
0.0091,0.9909	-803.88
0.0048,0.9952	-798.18
0.0038,0.9962	-809.19
0.0097,0.9903	-799.35
0.0020,0.9980	-798.00
0.0037,0.9963	-798.03
0.0105,0.9895	-799.58
0.0049,0.9951	-798.20
0.0036,0.9964	-803.64
0.0101,0.9899	-799.46
0.0019,0.9981	-798.02
0.0040,0.9960	-798.07
0.0107,0.9893	-799.63
0.0053,0.9947	-798.29
0.0042,0.9958	-798.10
0.0092,0.9908	-803.89
0.0021,0.9979	-797.99
0.0044,0.9956	-798.12
0.0078,0.9922	-803.69
0.0040,0.9960	-809.11
0.0042,0.9958	-803.57
0.0081,0.9919	-798.91
0.0022,0.9978	-804.08
0.0048,0.9952	-798.18
0.0083,0.9917	-803.76
0.0036,0.9964	-798.02
0.0045,0.9955	-803.54
0.0065,0.9935	-803.56
0.0022,0.9978	-797.98
0.0050,0.9950	-798.23
0.0072,0.9928	-808.55
0.0041,0.9959	-798.08
0.0041,0.9959	-803.57
0.0068,0.9932	-798.61
0.0022,0.9978	-797.98
0.0048,0.9952	-803.52
0.0074,0.9926	-798.74
0.0039,0.9961	-803.60
0.0041,0.9959	-798.08
0.0072,0.9928	-803.62
0.0025,0.9975	-797.96
0.0043,0.9957	-798.11
0.0065,0.9935	-798.53
0.0037,0.9963	-803.63
0.0036,0.9964	-798.02
0.0056,0.9944	-798.35
0.0022,0.9978	-797.98
0.0043,0.9957	-803.55
0.0055,0.9945	-798.32
0.0043,0.9957	-803.55
0.0036,0.9964	-803.64
0.0064,0.9936	-798.50
0.0017,0.9983	-804.42
0.0040,0.9960	-809.11
0.0056,0.9944	-813.88
0.0036,0.9964	-798.01
0.0041,0.9959	-798.08
0.0065,0.9935	-808.59
0.0016,0.9984	-798.06
0.0039,0.9961	-803.59
0.0065,0.9935	-803.56
0.0035,0.9965	-798.01
0.0040,0.9960	-798.07
0.0052,0.9948	-798.26
0.0018,0.9982	-798.03
0.0041,0.9959	-803.57
0.0066,0.9934	-803.57
0.0033,0.9967	-803.70
0.0045,0.9955	-803.54
0.0044,0.9956	-803.54
0.0016,0.9984	-798.06
0.0040,0.9960	-803.59
0.0051,0.9949	-798.24
0.0042,0.9958	-798.10
0.0057,0.9943	-808.69
0.0043,0.9957	-803.55
0.0015,0.9985	-798.10
0.0045,0.9955	-798.14
0.0044,0.9956	-803.55
0.0028,0.9972	-797.97
0.0065,0.9935	-798.52
0.0047,0.9953	-798.17
0.0017,0.9983	-798.05
0.0042,0.9958	-798.09
0.0043,0.9957	-803.55
0.0026,0.9974	-797.96
0.0062,0.9938	-798.46
0.0044,0.9956	-803.54
0.0020,0.9980	-798.00
0.0036,0.9964	-809.27
0.0038,0.9962	-798.04
0.0022,0.9978	-797.98
0.0063,0.9937	-808.61
0.0042,0.9958	-798.10
0.0025,0.9975	-797.97
0.0036,0.9964	-803.64
0.0042,0.9958	-798.09
0.0027,0.9973	-803.86
0.0076,0.9924	-798.80
0.0048,0.9952	-803.52
0.0023,0.9977	-797.97
0.0034,0.9966	-798.00
0.0053,0.9947	-798.28
0.0025,0.9975	-797.96
0.0085,0.9915	-808.54
0.0058,0.9942	-803.52
0.0024,0.9976	-797.97
0.0042,0.9958	-798.09
0.0049,0.9951	-798.21
0.0026,0.9974	-797.96
0.0070,0.9930	-813.51
0.0055,0.9945	-798.32
0.0027,0.9973	-803.87
0.0044,0.9956	-803.55
0.0043,0.9957	-803.55
0.0030,0.9970	-797.97
0.0073,0.9927	-808.54
0.0051,0.9949	-803.51
0.0029,0.9971	-797.97
0.0062,0.9938	-808.61
0.0043,0.9957	-803.56
0.0026,0.9974	-797.96
0.0059,0.9941	-803.53
0.0056,0.9944	-803.52
0.0026,0.9974	-797.96
0.0067,0.9933	-798.58
0.0040,0.9960	-803.58
0.0025,0.9975	-797.97
0.0053,0.9947	-798.28
0.0061,0.9939	-798.44
0.0024,0.9976	-797.97
0.0068,0.9932	-798.60
0.0039,0.9961	-798.06
0.0021,0.9979	-797.99
0.0054,0.9946	-803.51
0.0061,0.9939	-798.45
0.0029,0.9971	-797.97
0.0088,0.9912	-803.82
0.0034,0.9966	-798.00
0.0023,0.9977	-797.97
0.0055,0.9945	-798.33
0.0057,0.9943	-798.37
0.0027,0.9973	-797.97
0.0102,0.9898	-804.07
0.0046,0.9954	-798.15
0.0021,0.9979	-797.99
0.0043,0.9957	-803.55
0.0058,0.9942	-803.52
0.0032,0.9968	-797.98
0.0120,0.9880	-817.65
0.0055,0.9945	-798.31
0.0022,0.9978	-804.12
0.0035,0.9965	-803.66
0.0052,0.9948	-798.27
0.0024,0.9976	-797.97
0.0126,0.9874	-808.90
0.0054,0.9946	-798.30
0.0022,0.9978	-797.98
0.0034,0.9966	-798.00
0.0062,0.9938	-798.46
0.0025,0.9975	-797.97
0.0124,0.9876	-817.63
0.0053,0.9947	-798.28
0.0021,0.9979	-797.99
0.0042,0.9958	-798.09
0.0063,0.9937	-798.49
0.0024,0.9976	-797.97
0.0113,0.9887	-808.74
0.0067,0.9933	-803.58
0.0028,0.9972	-797.97
0.0040,0.9960	-803.58
0.0060,0.9940	-803.53
0.0026,0.9974	-797.96
0.0121,0.9879	-800.03
0.0057,0.9943	-798.36
0.0029,0.9971	-797.97
0.0044,0.9956	-803.55
0.0068,0.9932	-798.60
0.0037,0.9963	-803.63
0.0124,0.9876	-804.50
0.0074,0.9926	-803.64
0.0031,0.9969	-797.98
0.0045,0.9955	-798.13
0.0074,0.9926	-803.65
0.0036,0.9964	-798.02
0.0143,0.9857	-804.93
0.0078,0.9922	-808.53
0.0035,0.9965	-798.01
0.0037,0.9963	-798.03
0.0081,0.9919	-798.93
0.0037,0.9963	-798.03
0.0146,0.9854	-805.01
0.0100,0.9900	-799.43
0.0044,0.9956	-803.55
0.0039,0.9961	-798.05
0.0084,0.9916	-799.00
0.0036,0.9964	-803.65
0.0177,0.9823	-809.80
0.0185,0.9815	-821.88
0.0042,0.9958	-803.56
0.0032,0.9968	-797.98
0.0088,0.9912	-803.83
0.0037,0.9963	-798.02
0.0182,0.9818	-809.90
0.0162,0.9838	-805.40
0.0041,0.9959	-803.57
0.0033,0.9967	-797.99
0.0069,0.9931	-798.63
0.0038,0.9962	-798.04
0.0189,0.9811	-802.15
0.0178,0.9822	-813.83
0.0035,0.9965	-803.66
0.0032,0.9968	-797.99
0.0075,0.9925	-803.65
0.0030,0.9970	-797.97
0.0200,0.9800	-806.42
0.0156,0.9844	-809.40
0.0036,0.9964	-798.02
0.0029,0.9971	-797.97
0.0088,0.9912	-803.83
0.0030,0.9970	-803.78
0.0194,0.9806	-802.31
0.0161,0.9839	-805.37
0.0049,0.9951	-798.21
0.0031,0.9969	-797.98
0.0063,0.9937	-798.48
0.0023,0.9977	-797.98
0.0169,0.9831	-809.64
0.0130,0.9870	-804.62
0.0063,0.9937	-798.49
0.0028,0.9972	-797.97
0.0065,0.9935	-798.52
0.0022,0.9978	-810.21
0.0140,0.9860	-800.62
0.0125,0.9875	-804.51
0.0058,0.9942	-803.52
0.0022,0.9978	-797.98
0.0060,0.9940	-798.41
0.0024,0.9976	-797.97
0.0153,0.9847	-809.34
0.0131,0.9869	-808.98
0.0063,0.9937	-803.55
0.0023,0.9977	-797.97
0.0071,0.9929	-798.66
0.0027,0.9973	-797.96
0.0151,0.9849	-809.31
0.0138,0.9862	-817.62
0.0045,0.9955	-798.14
0.0029,0.9971	-797.97
0.0067,0.9933	-798.57
0.0028,0.9972	-797.97
0.0134,0.9866	-817.62
0.0144,0.9856	-804.96
0.0053,0.9947	-814.00
0.0027,0.9973	-797.96
0.0061,0.9939	-798.44
0.0034,0.9966	-798.00
0.0117,0.9883	-804.35
0.0132,0.9868	-804.67
0.0060,0.9940	-803.53
0.0027,0.9973	-803.88
0.0067,0.9933	-798.57
0.0027,0.9973	-797.96
0.0119,0.9881	-804.39
0.0119,0.9881	-799.96
0.0049,0.9951	-803.52
0.0027,0.9973	-797.96
0.0060,0.9940	-798.42
0.0024,0.9976	-804.02
0.0104,0.9896	-808.65
0.0119,0.9881	-804.39
0.0055,0.9945	-803.52
0.0032,0.9968	-803.73
0.0087,0.9913	-803.82
0.0019,0.9981	-804.25
0.0120,0.9880	-804.42
0.0121,0.9879	-804.44
0.0053,0.9947	-803.51
0.0029,0.9971	-797.97
0.0081,0.9919	-798.93
0.0021,0.9979	-797.99
0.0108,0.9892	-799.65
0.0118,0.9882	-808.80
0.0051,0.9949	-798.24
0.0034,0.9966	-798.00
0.0084,0.9916	-799.01
0.0015,0.9985	-798.11
0.0143,0.9857	-813.40
0.0109,0.9891	-799.67
0.0075,0.9925	-803.65
0.0039,0.9961	-798.05
0.0074,0.9926	-798.73
0.0015,0.9985	-798.11
0.0134,0.9866	-804.73
0.0113,0.9887	-799.79
0.0076,0.9924	-798.78
0.0043,0.9957	-809.00
0.0073,0.9927	-808.54
0.0016,0.9984	-798.07
0.0146,0.9854	-809.22
0.0134,0.9866	-809.02
0.0075,0.9925	-813.43
0.0037,0.9963	-803.63
0.0096,0.9904	-803.95
0.0017,0.9983	-798.04
0.0177,0.9823	-809.80
0.0150,0.9850	-805.09
0.0081,0.9919	-803.73
0.0038,0.9962	-809.19
0.0090,0.9910	-808.56
0.0015,0.9985	-798.08
0.0172,0.9828	-805.66
0.0159,0.9841	-801.19
0.0077,0.9923	-803.68
0.0054,0.9946	-798.30
0.0091,0.9909	-799.19
0.0016,0.9984	-804.54
0.0158,0.9842	-805.30
0.0174,0.9826	-801.69
0.0075,0.9925	-803.66
0.0054,0.9946	-798.29
0.0094,0.9906	-803.92
0.0015,0.9985	-798.10
0.0134,0.9866	-813.32
0.0205,0.9795	-806.56
0.0089,0.9911	-799.14
0.0051,0.9949	-798.24
0.0073,0.9927	-803.63
0.0018,0.9982	-798.03
0.0130,0.9870	-800.29
0.0217,0.9783	-829.73
0.0077,0.9923	-803.68
0.0040,0.9960	-798.07
0.0080,0.9920	-798.90
0.0019,0.9981	-798.01
0.0112,0.9888	-804.25
0.0218,0.9782	-806.91
0.0061,0.9939	-808.63
0.0045,0.9955	-798.14
0.0068,0.9932	-803.58
0.0021,0.9979	-797.99
0.0116,0.9884	-799.89
0.0192,0.9808	-810.12
0.0048,0.9952	-803.52
0.0036,0.9964	-798.02
0.0066,0.9934	-798.55
0.0020,0.9980	-804.20
0.0118,0.9882	-799.94
0.0193,0.9807	-814.07
0.0053,0.9947	-798.27
0.0035,0.9965	-798.01
0.0077,0.9923	-803.67
0.0022,0.9978	-797.98
0.0116,0.9884	-799.90
0.0195,0.9805	-810.19
0.0062,0.9938	-798.46
0.0030,0.9970	-797.97
0.0081,0.9919	-803.73
0.0024,0.9976	-804.00
0.0096,0.9904	-799.32
0.0176,0.9824	-813.80
0.0058,0.9942	-798.39
0.0035,0.9965	-798.01
0.0071,0.9929	-798.66
0.0027,0.9973	-797.96
0.0079,0.9921	-808.53
0.0165,0.9835	-805.48
0.0054,0.9946	-798.30
0.0036,0.9964	-798.02
0.0066,0.9934	-798.56
0.0026,0.9974	-803.93
0.0088,0.9912	-799.11
0.0145,0.9855	-813.41
0.0053,0.9947	-803.51
0.0031,0.9969	-797.98
0.0071,0.9929	-803.61
0.0020,0.9980	-797.99
0.0094,0.9906	-803.92
0.0156,0.9844	-805.23
0.0054,0.9946	-798.30
0.0030,0.9970	-797.98
0.0056,0.9944	-803.52
0.0018,0.9982	-798.03
0.0102,0.9898	-799.49
0.0196,0.9804	-810.21
0.0067,0.9933	-798.58
0.0032,0.9968	-797.99
0.0064,0.9936	-798.50
0.0018,0.9982	-798.03
0.0091,0.9909	-813.25
0.0166,0.9834	-809.58
0.0071,0.9929	-798.66
0.0032,0.9968	-797.99
0.0058,0.9942	-803.52
0.0022,0.9978	-797.98
0.0109,0.9891	-808.70
0.0146,0.9854	-800.80
0.0068,0.9932	-798.60
0.0026,0.9974	-797.96
0.0063,0.9937	-803.54
0.0018,0.9982	-798.03
0.0095,0.9905	-803.94
0.0106,0.9894	-804.13
0.0062,0.9938	-798.47
0.0024,0.9976	-809.99
0.0070,0.9930	-803.60
0.0019,0.9981	-798.02
0.0092,0.9908	-799.20
0.0155,0.9845	-801.08
0.0060,0.9940	-808.64
0.0022,0.9978	-797.98
0.0088,0.9912	-799.10
0.0019,0.9981	-798.02
0.0109,0.9891	-808.70
0.0159,0.9841	-809.44
0.0063,0.9937	-803.55
0.0025,0.9975	-797.97
0.0096,0.9904	-799.32
0.0014,0.9986	-798.11
0.0086,0.9914	-799.05
0.0141,0.9859	-804.87
0.0073,0.9927	-803.63
0.0024,0.9976	-797.97
0.0081,0.9919	-803.72
0.0020,0.9980	-804.20
0.0082,0.9918	-803.74
0.0106,0.9894	-799.60
0.0070,0.9930	-798.64
0.0024,0.9976	-797.97
0.0074,0.9926	-803.64
0.0020,0.9980	-798.00
0.0084,0.9916	-803.76
0.0106,0.9894	-799.59
0.0068,0.9932	-808.57
0.0025,0.9975	-803.96
0.0083,0.9917	-803.75
0.0023,0.9977	-797.97
0.0112,0.9888	-808.73
0.0104,0.9896	-808.65
0.0058,0.9942	-803.52
0.0023,0.9977	-797.97
0.0072,0.9928	-798.70
0.0023,0.9977	-797.98
0.0115,0.9885	-799.87
0.0084,0.9916	-808.54
0.0051,0.9949	-803.51
0.0032,0.9968	-797.98
0.0061,0.9939	-798.45
0.0026,0.9974	-797.96
0.0111,0.9889	-813.21
0.0077,0.9923	-803.67
0.0038,0.9962	-798.04
0.0037,0.9963	-798.04
0.0052,0.9948	-798.26
0.0032,0.9968	-797.98
0.0078,0.9922	-798.83
0.0077,0.9923	-813.40
0.0037,0.9963	-803.63
0.0038,0.9962	-809.16
0.0069,0.9931	-798.62
0.0036,0.9964	-798.02
0.0087,0.9913	-803.81
0.0074,0.9926	-798.74
0.0048,0.9952	-798.19
0.0044,0.9956	-803.55
0.0077,0.9923	-808.53
0.0046,0.9954	-798.15
0.0108,0.9892	-804.17
0.0067,0.9933	-798.57
0.0061,0.9939	-803.53
0.0060,0.9940	-798.42
0.0086,0.9914	-799.06
0.0052,0.9948	-803.51
0.0090,0.9910	-808.56
0.0059,0.9941	-798.41
0.0059,0.9941	-803.53
0.0060,0.9940	-798.42
0.0092,0.9908	-817.92
0.0044,0.9956	-803.54
0.0111,0.9889	-804.23
0.0061,0.9939	-808.63
0.0060,0.9940	-803.53
0.0051,0.9949	-798.25
0.0088,0.9912	-799.11
0.0048,0.9952	-803.52
0.0114,0.9886	-804.30
0.0055,0.9945	-798.31
0.0060,0.9940	-798.42
0.0065,0.9935	-803.56
0.0112,0.9888	-804.24
0.0040,0.9960	-798.07
0.0135,0.9865	-800.45
0.0072,0.9928	-798.69
0.0066,0.9934	-798.55
0.0083,0.9917	-808.54
0.0091,0.9909	-799.18
0.0037,0.9963	-798.03
0.0140,0.9860	-804.85
0.0084,0.9916	-799.00
0.0070,0.9930	-803.60
0.0103,0.9897	-799.51
0.0077,0.9923	-803.67
0.0028,0.9972	-797.97
0.0101,0.9899	-804.04
0.0082,0.9918	-798.94
0.0082,0.9918	-798.94
0.0110,0.9890	-799.72
0.0075,0.9925	-798.76
0.0024,0.9976	-803.99
0.0111,0.9889	-799.75
0.0083,0.9917	-803.75
0.0078,0.9922	-803.69
0.0114,0.9886	-804.30
0.0084,0.9916	-803.77
0.0021,0.9979	-797.99
0.0106,0.9894	-808.67
0.0080,0.9920	-803.71
0.0082,0.9918	-798.95
0.0104,0.9896	-804.09
0.0081,0.9919	-803.73
0.0020,0.9980	-797.99
0.0071,0.9929	-798.68
0.0087,0.9913	-808.55
0.0075,0.9925	-803.65
0.0087,0.9913	-799.07
0.0086,0.9914	-803.80
0.0026,0.9974	-797.96
0.0080,0.9920	-808.53
0.0082,0.9918	-803.73
0.0084,0.9916	-808.54
0.0116,0.9884	-813.22
0.0106,0.9894	-799.59
0.0026,0.9974	-797.96
0.0080,0.9920	-798.90
0.0085,0.9915	-799.02
0.0096,0.9904	-803.95
0.0119,0.9881	-813.23
0.0105,0.9895	-808.66
0.0025,0.9975	-797.97
0.0104,0.9896	-804.10
0.0101,0.9899	-799.46
0.0111,0.9889	-804.23
0.0137,0.9863	-804.80
0.0094,0.9906	-803.92
0.0027,0.9973	-797.96
0.0142,0.9858	-809.14
0.0131,0.9869	-804.65
0.0122,0.9878	-804.45
0.0118,0.9882	-804.36
0.0075,0.9925	-808.54
0.0031,0.9969	-797.98
0.0123,0.9877	-804.48
0.0104,0.9896	-799.53
0.0140,0.9860	-804.85
0.0112,0.9888	-799.76
0.0075,0.9925	-803.66
0.0030,0.9970	-797.97
0.0127,0.9873	-804.57
0.0093,0.9907	-803.90
0.0111,0.9889	-799.73
0.0087,0.9913	-803.82
0.0076,0.9924	-798.79
0.0035,0.9965	-798.01
0.0126,0.9874	-800.19
0.0071,0.9929	-798.68
0.0125,0.9875	-804.52
0.0087,0.9913	-803.80
0.0068,0.9932	-803.58
0.0034,0.9966	-798.00
0.0129,0.9871	-808.95
0.0077,0.9923	-798.82
0.0135,0.9865	-809.04
0.0087,0.9913	-808.55
0.0062,0.9938	-808.62
0.0035,0.9965	-798.01
0.0145,0.9855	-809.20
0.0088,0.9912	-803.83
0.0156,0.9844	-805.25
0.0086,0.9914	-799.06
0.0058,0.9942	-808.66
0.0034,0.9966	-803.69
0.0134,0.9866	-800.44
0.0071,0.9929	-803.62
0.0152,0.9848	-800.98
0.0084,0.9916	-813.31
0.0065,0.9935	-803.56
0.0038,0.9962	-798.04
0.0123,0.9877	-804.48
0.0054,0.9946	-798.30
0.0161,0.9839	-801.27
0.0092,0.9908	-803.88
0.0067,0.9933	-803.58
0.0039,0.9961	-803.60
0.0151,0.9849	-805.13
0.0054,0.9946	-798.30
0.0202,0.9798	-806.47
0.0127,0.9873	-804.56
0.0073,0.9927	-798.71
0.0038,0.9962	-798.04
0.0137,0.9863	-809.06
0.0051,0.9949	-798.25
0.0217,0.9783	-803.08
0.0111,0.9889	-799.75
0.0073,0.9927	-798.72
0.0029,0.9971	-797.97
0.0110,0.9890	-804.21
0.0056,0.9944	-798.35
0.0232,0.9768	-811.04
0.0105,0.9895	-813.21
0.0072,0.9928	-798.70
0.0031,0.9969	-797.98
0.0153,0.9847	-801.02
0.0059,0.9941	-803.53
0.0233,0.9767	-803.60
0.0108,0.9892	-799.66
0.0065,0.9935	-808.59
0.0035,0.9965	-798.01
0.0136,0.9864	-804.77
0.0053,0.9947	-803.51
0.0254,0.9746	-807.95
0.0088,0.9912	-803.82
0.0043,0.9957	-798.11
0.0037,0.9963	-798.03
0.0128,0.9872	-804.59
0.0049,0.9951	-803.52
0.0253,0.9747	-815.23
0.0082,0.9918	-798.94
0.0043,0.9957	-798.10
0.0036,0.9964	-798.02
0.0114,0.9886	-808.75
0.0050,0.9950	-798.22
0.0245,0.9755	-807.68
0.0076,0.9924	-803.67
0.0051,0.9949	-798.25
0.0030,0.9970	-797.97
0.0123,0.9877	-804.48
0.0053,0.9947	-803.51
0.0279,0.9721	-808.70
0.0063,0.9937	-798.48
0.0070,0.9930	-798.64
0.0023,0.9977	-797.97
0.0154,0.9846	-809.36
0.0061,0.9939	-798.44
0.0227,0.9773	-818.45
0.0078,0.9922	-798.85
0.0062,0.9938	-798.46
0.0024,0.9976	-797.97
0.0155,0.9845	-813.52
0.0061,0.9939	-798.45
0.0267,0.9733	-811.95
0.0067,0.9933	-798.58
0.0067,0.9933	-803.57
0.0021,0.9979	-804.16
0.0180,0.9820	-809.85
0.0051,0.9949	-803.52
0.0222,0.9778	-810.81
0.0078,0.9922	-803.68
0.0083,0.9917	-798.97
0.0021,0.9979	-797.99
0.0139,0.9861	-804.83
0.0050,0.9950	-803.52
0.0220,0.9780	-806.98
0.0083,0.9917	-803.75
0.0091,0.9909	-803.88
0.0021,0.9979	-797.99
0.0143,0.9857	-809.16
0.0041,0.9959	-803.57
0.0167,0.9833	-801.46
0.0111,0.9889	-817.70
0.0100,0.9900	-799.42
0.0021,0.9979	-797.99
0.0125,0.9875	-800.15
0.0029,0.9971	-803.81
0.0175,0.9825	-805.74
0.0117,0.9883	-804.35
0.0094,0.9906	-803.93
0.0025,0.9975	-797.97
0.0145,0.9855	-800.75
0.0027,0.9973	-797.96
0.0176,0.9824	-805.75
0.0096,0.9904	-803.95
0.0082,0.9918	-803.74
0.0024,0.9976	-797.97
0.0149,0.9851	-809.27
0.0028,0.9972	-797.97
0.0176,0.9824	-801.75
0.0088,0.9912	-808.55
0.0079,0.9921	-803.70
0.0029,0.9971	-815.52
0.0168,0.9832	-809.62
0.0031,0.9969	-797.98
0.0150,0.9850	-817.65
0.0066,0.9934	-803.57
0.0080,0.9920	-808.53
0.0026,0.9974	-803.93
0.0145,0.9855	-804.98
0.0035,0.9965	-798.01
0.0147,0.9853	-813.44
0.0082,0.9918	-798.93
0.0075,0.9925	-808.54
0.0026,0.9974	-797.96
0.0110,0.9890	-808.71
0.0033,0.9967	-797.99
0.0161,0.9839	-805.37
0.0099,0.9901	-813.22
0.0067,0.9933	-798.58
0.0026,0.9974	-803.93
0.0100,0.9900	-804.02
0.0029,0.9971	-797.97
0.0150,0.9850	-805.09
0.0078,0.9922	-808.53
0.0084,0.9916	-803.77
0.0021,0.9979	-797.98
0.0116,0.9884	-799.89
0.0028,0.9972	-797.97
0.0136,0.9864	-804.76
0.0085,0.9915	-799.02
0.0096,0.9904	-799.31
0.0013,0.9987	-798.15
0.0120,0.9880	-808.82
0.0028,0.9972	-797.97
0.0158,0.9842	-809.43
0.0078,0.9922	-803.69
0.0069,0.9931	-798.63
0.0012,0.9988	-798.19
0.0134,0.9866	-800.44
0.0024,0.9976	-797.97
0.0153,0.9847	-801.00
0.0073,0.9927	-798.72
0.0063,0.9937	-803.55
0.0017,0.9983	-798.05
0.0120,0.9880	-804.42
0.0029,0.9971	-797.97
0.0167,0.9833	-801.46
0.0071,0.9929	-798.66
0.0053,0.9947	-798.28
0.0021,0.9979	-797.99
0.0115,0.9885	-804.31
0.0023,0.9977	-797.97
0.0194,0.9806	-802.31
0.0073,0.9927	-798.72
0.0064,0.9936	-798.52
0.0017,0.9983	-798.05
0.0131,0.9869	-800.33
0.0024,0.9976	-797.97
0.0180,0.9820	-809.85
0.0064,0.9936	-798.50
0.0069,0.9931	-808.56
0.0021,0.9979	-797.99
0.0127,0.9873	-804.57
0.0028,0.9972	-803.86
0.0224,0.9776	-814.64
0.0053,0.9947	-808.75
0.0068,0.9932	-798.59
0.0019,0.9981	-798.01
0.0122,0.9878	-804.46
0.0035,0.9965	-798.01
0.0163,0.9837	-801.32
0.0059,0.9941	-808.66
0.0089,0.9911	-803.84
0.0021,0.9979	-797.99
0.0112,0.9888	-808.73
0.0035,0.9965	-798.01
0.0198,0.9802	-802.44
0.0062,0.9938	-803.54
0.0096,0.9904	-808.59
0.0020,0.9980	-798.00
0.0113,0.9887	-804.27
0.0045,0.9955	-798.13
0.0151,0.9849	-800.96
0.0077,0.9923	-798.81
0.0090,0.9910	-799.17
0.0031,0.9969	-803.75
0.0136,0.9864	-809.06
0.0053,0.9947	-803.51
0.0114,0.9886	-799.83
0.0102,0.9898	-808.64
0.0070,0.9930	-808.55
0.0040,0.9960	-803.58
0.0133,0.9867	-800.39
0.0035,0.9965	-798.01
0.0101,0.9899	-804.04
0.0110,0.9890	-808.71
0.0049,0.9951	-803.52
0.0042,0.9958	-803.56
0.0115,0.9885	-817.67
0.0033,0.9967	-797.99
0.0092,0.9908	-803.89
0.0095,0.9905	-799.28
0.0051,0.9949	-798.23
0.0044,0.9956	-803.54
0.0143,0.9857	-804.92
0.0031,0.9969	-797.98
0.0092,0.9908	-803.88
0.0075,0.9925	-798.78
0.0045,0.9955	-798.13
0.0049,0.9951	-803.52
0.0114,0.9886	-804.30
0.0028,0.9972	-803.83
0.0091,0.9909	-813.25
0.0063,0.9937	-798.49
0.0056,0.9944	-803.52
0.0063,0.9937	-798.49
0.0117,0.9883	-799.91
0.0035,0.9965	-798.01
0.0128,0.9872	-808.93
0.0060,0.9940	-803.53
0.0076,0.9924	-798.79
0.0069,0.9931	-803.59
0.0110,0.9890	-799.71
0.0033,0.9967	-803.71
0.0113,0.9887	-799.79
0.0050,0.9950	-798.23
0.0070,0.9930	-808.56
0.0061,0.9939	-798.43
0.0089,0.9911	-803.84
0.0039,0.9961	-798.05
0.0107,0.9893	-799.63
0.0051,0.9949	-798.24
0.0063,0.9937	-798.49
0.0057,0.9943	-803.52
0.0071,0.9929	-798.68
0.0037,0.9963	-798.03
0.0121,0.9879	-808.84
0.0053,0.9947	-803.51
0.0060,0.9940	-798.43
0.0056,0.9944	-798.34
0.0069,0.9931	-798.63
0.0039,0.9961	-803.60
0.0115,0.9885	-804.32
0.0060,0.9940	-798.42
0.0062,0.9938	-803.54
0.0056,0.9944	-798.33
0.0069,0.9931	-813.53
0.0045,0.9955	-798.15
0.0117,0.9883	-808.78
0.0060,0.9940	-798.42
0.0059,0.9941	-798.40
0.0053,0.9947	-803.51
0.0062,0.9938	-798.47
0.0037,0.9963	-803.62
0.0153,0.9847	-809.34
0.0063,0.9937	-798.49
0.0041,0.9959	-798.08
0.0037,0.9963	-798.03
0.0057,0.9943	-808.68
0.0036,0.9964	-798.02
0.0165,0.9835	-809.56
0.0049,0.9951	-803.52
0.0032,0.9968	-797.98
0.0043,0.9957	-803.55
0.0060,0.9940	-798.42
0.0033,0.9967	-797.99
0.0168,0.9832	-809.62
0.0056,0.9944	-803.52
0.0028,0.9972	-797.97
0.0040,0.9960	-798.07
0.0054,0.9946	-798.29
0.0035,0.9965	-803.66
0.0137,0.9863	-809.07
0.0055,0.9945	-798.32
0.0027,0.9973	-797.96
0.0046,0.9954	-803.53
0.0061,0.9939	-798.44
0.0032,0.9968	-797.99
0.0130,0.9870	-804.63
0.0044,0.9956	-798.13
0.0031,0.9969	-797.98
0.0046,0.9954	-808.92
0.0061,0.9939	-803.54
0.0031,0.9969	-815.29
0.0143,0.9857	-809.17
0.0033,0.9967	-797.99
0.0026,0.9974	-815.82
0.0039,0.9961	-798.05
0.0055,0.9945	-798.32
0.0027,0.9973	-797.96
0.0117,0.9883	-804.35
0.0040,0.9960	-809.11
0.0026,0.9974	-797.96
0.0035,0.9965	-798.01
0.0059,0.9941	-798.41
0.0023,0.9977	-797.97
0.0103,0.9897	-804.08
0.0041,0.9959	-798.08
0.0027,0.9973	-803.86
0.0032,0.9968	-797.99
0.0053,0.9947	-803.51
0.0017,0.9983	-798.05
0.0120,0.9880	-804.41
0.0036,0.9964	-798.02
0.0035,0.9965	-798.01
0.0037,0.9963	-798.03
0.0042,0.9958	-803.56
0.0017,0.9983	-798.05
0.0112,0.9888	-817.69
0.0032,0.9968	-797.99
0.0036,0.9964	-798.02
0.0043,0.9957	-798.10
0.0046,0.9954	-798.16
0.0017,0.9983	-798.05
0.0106,0.9894	-799.60
0.0027,0.9973	-797.96
0.0029,0.9971	-797.97
0.0039,0.9961	-798.06
0.0041,0.9959	-803.57
0.0018,0.9982	-804.34
0.0143,0.9857	-804.93
0.0023,0.9977	-797.97
0.0033,0.9967	-798.00
0.0024,0.9976	-797.97
0.0036,0.9964	-798.02
0.0019,0.9981	-798.01
0.0155,0.9845	-809.38
0.0023,0.9977	-797.97
0.0034,0.9966	-798.00
0.0025,0.9975	-797.97
0.0034,0.9966	-803.69
0.0022,0.9978	-797.98
0.0166,0.9834	-821.83
0.0029,0.9971	-797.97
0.0032,0.9968	-797.98
0.0023,0.9977	-797.97
0.0035,0.9965	-798.01
0.0025,0.9975	-797.97
0.0196,0.9804	-814.13
0.0026,0.9974	-797.96
0.0029,0.9971	-803.81
0.0027,0.9973	-803.87
0.0030,0.9970	-797.97
0.0022,0.9978	-797.98
0.0181,0.9819	-801.91
0.0023,0.9977	-797.97
0.0027,0.9973	-797.96
0.0034,0.9966	-798.00
0.0030,0.9970	-797.97
0.0024,0.9976	-797.97
0.0170,0.9830	-809.66
0.0028,0.9972	-797.97
0.0026,0.9974	-797.96
0.0036,0.9964	-798.02
0.0027,0.9973	-803.87
0.0019,0.9981	-798.01
0.0125,0.9875	-800.14
0.0027,0.9973	-797.96
0.0021,0.9979	-797.98
0.0035,0.9965	-798.01
0.0026,0.9974	-797.96
0.0021,0.9979	-810.33
0.0120,0.9880	-800.02
0.0023,0.9977	-804.04
0.0027,0.9973	-797.96
0.0036,0.9964	-798.02
0.0031,0.9969	-797.98
0.0026,0.9974	-797.96
0.0157,0.9843	-801.13
0.0023,0.9977	-797.97
0.0022,0.9978	-797.98
0.0032,0.9968	-797.99
0.0024,0.9976	-797.97
0.0025,0.9975	-797.97
0.0137,0.9863	-800.53
0.0023,0.9977	-797.97
0.0021,0.9979	-797.98
0.0028,0.9972	-803.85
0.0018,0.9982	-798.03
0.0024,0.9976	-797.97
0.0131,0.9869	-813.30
0.0029,0.9971	-797.97
0.0021,0.9979	-797.99
0.0032,0.9968	-797.99
0.0022,0.9978	-804.12
0.0028,0.9972	-803.83
0.0129,0.9871	-808.94
0.0033,0.9967	-797.99
0.0020,0.9980	-816.65
0.0029,0.9971	-797.97
0.0024,0.9976	-797.97
0.0027,0.9973	-797.97
0.0115,0.9885	-799.86
0.0034,0.9966	-803.67
0.0015,0.9985	-798.09
0.0022,0.9978	-797.98
0.0028,0.9972	-797.97
0.0023,0.9977	-797.97
0.0132,0.9868	-804.67
0.0030,0.9970	-797.97
0.0015,0.9985	-798.10
0.0018,0.9982	-798.03
0.0027,0.9973	-797.96
0.0023,0.9977	-797.97
0.0147,0.9853	-809.24
0.0042,0.9958	-798.10
0.0017,0.9983	-798.05
0.0020,0.9980	-798.00
0.0025,0.9975	-797.97
0.0019,0.9981	-798.01
0.0115,0.9885	-799.85
0.0042,0.9958	-809.02
0.0018,0.9982	-798.02
0.0021,0.9979	-797.99
0.0025,0.9975	-797.97
0.0023,0.9977	-797.97
0.0113,0.9887	-808.74
0.0034,0.9966	-803.68
0.0024,0.9976	-797.97
0.0021,0.9979	-797.99
0.0019,0.9981	-798.01
0.0028,0.9972	-797.97
0.0102,0.9898	-804.07
0.0033,0.9967	-797.99
0.0029,0.9971	-797.97
0.0017,0.9983	-798.04
0.0018,0.9982	-810.68
0.0031,0.9969	-797.98
0.0109,0.9891	-799.69
0.0026,0.9974	-797.96
0.0023,0.9977	-797.98
0.0019,0.9981	-798.01
0.0017,0.9983	-798.04
0.0036,0.9964	-798.02
0.0104,0.9896	-799.54
0.0029,0.9971	-797.97
0.0032,0.9968	-803.74
0.0021,0.9979	-804.13
0.0015,0.9985	-798.09
0.0032,0.9968	-797.99
0.0084,0.9916	-799.00
0.0033,0.9967	-797.99
0.0034,0.9966	-798.00
0.0020,0.9980	-798.00
0.0014,0.9986	-798.12
0.0026,0.9974	-803.92
0.0082,0.9918	-803.73
0.0033,0.9967	-797.99
0.0026,0.9974	-797.96
0.0023,0.9977	-797.98
0.0016,0.9984	-798.07
0.0026,0.9974	-797.96
0.0064,0.9936	-798.51
0.0038,0.9962	-798.04
0.0027,0.9973	-803.87
0.0026,0.9974	-797.96
0.0016,0.9984	-798.07
0.0020,0.9980	-798.00
0.0045,0.9955	-803.54
0.0035,0.9965	-798.01
0.0027,0.9973	-803.87
0.0019,0.9981	-798.01
0.0017,0.9983	-804.42
0.0020,0.9980	-797.99
0.0047,0.9953	-798.18
0.0038,0.9962	-798.04
0.0022,0.9978	-797.98
0.0018,0.9982	-798.02
0.0017,0.9983	-798.05
0.0020,0.9980	-797.99
0.0039,0.9961	-798.05
0.0027,0.9973	-797.96
0.0023,0.9977	-804.07
0.0021,0.9979	-797.99
0.0023,0.9977	-797.98
0.0023,0.9977	-797.97
0.0036,0.9964	-798.02
0.0027,0.9973	-797.96
0.0021,0.9979	-797.99
0.0022,0.9978	-797.98
0.0022,0.9978	-797.98
0.0017,0.9983	-798.05
0.0042,0.9958	-798.10
0.0029,0.9971	-797.97
0.0020,0.9980	-798.00
0.0016,0.9984	-798.06
0.0023,0.9977	-797.97
0.0019,0.9981	-804.29
0.0034,0.9966	-803.68
0.0029,0.9971	-809.66
0.0021,0.9979	-797.99
0.0017,0.9983	-798.05
0.0024,0.9976	-797.97
0.0020,0.9980	-798.00
0.0034,0.9966	-798.00
0.0030,0.9970	-797.97
0.0025,0.9975	-797.97
0.0015,0.9985	-798.10
0.0026,0.9974	-797.96
0.0018,0.9982	-798.02
0.0035,0.9965	-798.01
0.0033,0.9967	-797.99
0.0019,0.9981	-798.02
0.0016,0.9984	-798.08
0.0025,0.9975	-797.97
0.0020,0.9980	-798.00
0.0034,0.9966	-798.00
0.0038,0.9962	-798.04
0.0017,0.9983	-798.04
0.0018,0.9982	-810.60
0.0023,0.9977	-797.97
0.0019,0.9981	-804.30
0.0032,0.9968	-797.98
0.0037,0.9963	-798.03
0.0012,0.9988	-804.94
0.0019,0.9981	-798.02
0.0022,0.9978	-797.98
0.0019,0.9981	-798.01
0.0024,0.9976	-797.97
0.0037,0.9963	-809.22
0.0013,0.9987	-798.16
0.0018,0.9982	-810.70
0.0023,0.9977	-804.07
0.0019,0.9981	-798.01
0.0026,0.9974	-797.96
0.0038,0.9962	-809.18
0.0013,0.9987	-804.81
0.0016,0.9984	-804.55
0.0017,0.9983	-798.05
0.0021,0.9979	-797.99
0.0023,0.9977	-797.97
0.0035,0.9965	-798.01
0.0011,0.9989	-798.24
0.0013,0.9987	-798.17
0.0016,0.9984	-798.06
0.0018,0.9982	-798.03
0.0019,0.9981	-804.26
0.0031,0.9969	-803.75
0.0010,0.9990	-798.32
0.0013,0.9987	-798.17
0.0013,0.9987	-798.17
0.0020,0.9980	-797.99
0.0017,0.9983	-798.05
0.0031,0.9969	-797.98
0.0008,0.9992	-798.44
0.0014,0.9986	-798.13
0.0012,0.9988	-798.20
0.0020,0.9980	-798.00
0.0017,0.9983	-798.05
0.0043,0.9957	-798.11
0.0008,0.9992	-798.49
0.0011,0.9989	-798.28
0.0014,0.9986	-798.12
0.0022,0.9978	-797.98
0.0013,0.9987	-804.84
0.0046,0.9954	-798.15
0.0007,0.9993	-798.57
0.0012,0.9988	-798.20
0.0018,0.9982	-798.02
0.0017,0.9983	-798.05
0.0014,0.9986	-798.14
0.0039,0.9961	-798.05
0.0006,0.9994	-798.64
0.0014,0.9986	-798.12
0.0018,0.9982	-798.03
0.0019,0.9981	-798.01
0.0019,0.9981	-804.25
0.0040,0.9960	-803.59
0.0005,0.9995	-798.80
0.0014,0.9986	-798.14
0.0018,0.9982	-804.36
0.0022,0.9978	-797.98
0.0016,0.9984	-798.07
0.0044,0.9956	-808.96
0.0004,0.9996	-798.91
0.0016,0.9984	-798.06
0.0022,0.9978	-797.98
0.0027,0.9973	-797.96
0.0015,0.9985	-798.10
0.0040,0.9960	-798.06
0.0005,0.9995	-798.85
0.0018,0.9982	-798.03
0.0022,0.9978	-804.10
0.0024,0.9976	-797.97
0.0013,0.9987	-798.17
0.0035,0.9965	-798.01
0.0005,0.9995	-798.88
0.0018,0.9982	-798.03
0.0022,0.9978	-797.98
0.0020,0.9980	-798.00
0.0012,0.9988	-798.19
0.0032,0.9968	-809.49
0.0003,0.9997	-807.22
0.0016,0.9984	-798.07
0.0023,0.9977	-797.98
0.0018,0.9982	-798.03
0.0010,0.9990	-798.30
0.0030,0.9970	-797.98
0.0003,0.9997	-799.11
0.0020,0.9980	-798.00
0.0026,0.9974	-797.96
0.0018,0.9982	-798.04
0.0010,0.9990	-798.33
0.0029,0.9971	-797.97
0.0004,0.9996	-799.01
0.0016,0.9984	-798.06
0.0034,0.9966	-803.69
0.0017,0.9983	-798.06
0.0013,0.9987	-798.18
0.0028,0.9972	-797.97
0.0005,0.9995	-798.87
0.0016,0.9984	-798.07
0.0032,0.9968	-797.98
0.0017,0.9983	-798.05
0.0012,0.9988	-798.18
0.0026,0.9974	-797.96
0.0005,0.9995	-798.80
0.0012,0.9988	-798.19
0.0031,0.9969	-797.98
0.0020,0.9980	-804.24
0.0012,0.9988	-798.21
0.0020,0.9980	-797.99
0.0005,0.9995	-798.74
0.0014,0.9986	-798.13
0.0035,0.9965	-798.01
0.0021,0.9979	-797.98
0.0011,0.9989	-798.23
0.0025,0.9975	-797.97
0.0006,0.9994	-798.65
0.0012,0.9988	-798.19
0.0036,0.9964	-798.02
0.0020,0.9980	-798.00
0.0013,0.9987	-798.18
0.0029,0.9971	-797.97
0.0007,0.9993	-798.60
0.0011,0.9989	-798.25
0.0043,0.9957	-798.11
0.0017,0.9983	-798.04
0.0011,0.9989	-798.27
0.0023,0.9977	-804.06
0.0007,0.9993	-798.58
0.0011,0.9989	-798.23
0.0044,0.9956	-798.13
0.0018,0.9982	-798.02
0.0014,0.9986	-798.14
0.0021,0.9979	-797.99
0.0008,0.9992	-805.60
0.0013,0.9987	-798.18
0.0051,0.9949	-798.25
0.0020,0.9980	-798.00
0.0010,0.9990	-798.30
0.0024,0.9976	-797.97
0.0009,0.9991	-798.35
0.0011,0.9989	-798.25
0.0052,0.9948	-798.26
0.0020,0.9980	-798.00
0.0012,0.9988	-804.89
0.0024,0.9976	-804.02
0.0009,0.9991	-798.35
0.0008,0.9992	-798.46
0.0047,0.9953	-798.18
0.0018,0.9982	-798.04
