#isoforms=['ENSG00000110080.SE.2.A.up_ENSG00000110080.SE.2.A.SE1_ENSG00000110080.SE.2.A.dn','ENSG00000110080.SE.2.B.up_ENSG00000110080.SE.2.B.dn']	exon_lens=('ENSG00000110080.SE.2.A.up',61),('ENSG00000110080.SE.2.A.SE1',96),('ENSG00000110080.SE.2.A.dn',190),('ENSG00000110080.SE.2.B.up',61),('ENSG00000110080.SE.2.B.dn',190)	iters=5000	burn_in=500	lag=10	percent_accept=97.35	proposal_type=drift	counts=(0,0):40,(1,0):27,(1,1):15	assigned_counts=0:39,1:3	chrom=chr11	strand=+	mRNA_starts=126407574,126407574	mRNA_ends=126408496,126408496
sampled_psi	log_score
0.8664,0.1336	-238.92
0.8591,0.1409	-240.83
0.9458,0.0542	-235.70
0.8221,0.1779	-239.67
0.8709,0.1291	-236.95
0.8678,0.1322	-235.13
0.8551,0.1449	-244.41
0.8752,0.1248	-242.70
0.9470,0.0530	-232.81
0.8603,0.1397	-237.19
0.8880,0.1120	-236.58
0.8687,0.1313	-244.55
0.8410,0.1590	-244.32
0.8490,0.1510	-240.91
0.9412,0.0588	-241.29
0.8621,0.1379	-237.14
0.8739,0.1261	-242.69
0.8689,0.1311	-236.99
0.8328,0.1672	-239.47
0.8631,0.1369	-242.65
0.9406,0.0594	-238.51
0.8885,0.1115	-234.50
0.8772,0.1228	-240.74
0.8982,0.1018	-238.56
0.8670,0.1330	-238.91
0.8805,0.1195	-234.74
0.9509,0.0491	-232.70
0.9141,0.0859	-245.57
0.8733,0.1267	-236.89
0.8932,0.1068	-234.36
0.8500,0.1500	-242.64
0.8948,0.1052	-234.31
0.9452,0.0548	-232.86
0.9173,0.0827	-233.65
0.8673,0.1327	-238.90
0.9202,0.0798	-233.56
0.8837,0.1163	-240.73
0.8825,0.1175	-244.76
0.9629,0.0371	-232.37
0.9213,0.0787	-235.99
0.8707,0.1293	-235.04
0.9137,0.0863	-233.75
0.8780,0.1220	-240.74
0.8685,0.1315	-235.11
0.9604,0.0396	-235.63
0.9381,0.0619	-235.77
0.8820,0.1180	-238.72
0.9017,0.0983	-236.32
0.8818,0.1182	-238.72
0.8694,0.1306	-238.88
0.9540,0.0460	-232.61
0.9158,0.0842	-233.69
0.9025,0.0975	-234.08
0.9086,0.0914	-238.49
0.9005,0.0995	-245.15
0.8470,0.1530	-242.64
0.9504,0.0496	-232.71
0.9098,0.0902	-238.49
0.8960,0.1040	-238.58
0.9003,0.0997	-242.95
0.9041,0.0959	-240.76
0.8425,0.1575	-235.94
0.9481,0.0519	-232.78
0.9027,0.0973	-242.99
0.9004,0.0996	-238.55
0.8961,0.1039	-240.73
0.9001,0.0999	-236.35
0.8334,0.1666	-241.07
0.9607,0.0393	-235.63
0.9146,0.0854	-233.72
0.9110,0.0890	-240.81
0.8866,0.1134	-236.61
0.8740,0.1260	-238.82
0.8090,0.1910	-244.27
0.9425,0.0575	-235.73
0.9206,0.0794	-233.55
0.9029,0.0971	-238.53
0.9014,0.0986	-240.75
0.8871,0.1129	-240.73
0.8487,0.1513	-235.74
0.9482,0.0518	-238.59
0.9226,0.0774	-235.97
0.9090,0.0910	-236.19
0.8951,0.1049	-236.44
0.8821,0.1179	-240.73
0.8519,0.1481	-242.63
0.9498,0.0502	-232.73
0.9281,0.0719	-233.34
0.9248,0.0752	-233.43
0.8719,0.1281	-236.93
0.8981,0.1019	-236.39
0.8908,0.1092	-236.53
0.9505,0.0495	-244.53
0.9275,0.0725	-235.90
0.9370,0.0630	-233.08
0.8766,0.1234	-238.78
0.9191,0.0809	-238.46
0.8942,0.1058	-240.73
0.9370,0.0630	-233.09
0.9179,0.0821	-240.87
0.9174,0.0826	-236.05
0.9115,0.0885	-238.48
0.9033,0.0967	-238.53
0.8637,0.1363	-238.95
0.9561,0.0439	-238.72
0.9254,0.0746	-235.93
0.9287,0.0713	-238.45
0.9002,0.0998	-234.15
0.8997,0.1003	-238.55
0.8696,0.1304	-240.77
0.9531,0.0469	-235.65
0.9271,0.0729	-233.37
0.9384,0.0616	-233.05
0.8968,0.1032	-240.74
0.8985,0.1015	-238.56
0.8705,0.1295	-244.58
0.9628,0.0372	-232.38
0.9309,0.0691	-233.26
0.9493,0.0507	-232.74
0.9038,0.0962	-234.04
0.9045,0.0955	-236.27
0.9009,0.0991	-238.54
0.9608,0.0392	-235.63
0.9162,0.0838	-238.46
0.9571,0.0429	-238.74
0.8927,0.1073	-242.85
0.8825,0.1175	-234.68
0.9023,0.0977	-238.53
0.9618,0.0382	-232.40
0.9171,0.0829	-236.06
0.9571,0.0429	-238.74
0.8920,0.1080	-236.50
0.8815,0.1185	-236.72
0.8777,0.1223	-238.77
0.9542,0.0458	-238.68
0.9240,0.0760	-233.45
0.9582,0.0418	-232.50
0.8926,0.1074	-240.73
0.8848,0.1152	-246.84
0.9067,0.0933	-240.78
0.9489,0.0511	-235.68
0.9325,0.0675	-235.84
0.9569,0.0431	-235.64
0.8764,0.1236	-236.83
0.8863,0.1137	-236.62
0.8953,0.1047	-234.30
0.9461,0.0539	-235.70
0.9360,0.0640	-238.48
0.9574,0.0426	-232.52
0.8889,0.1111	-236.57
0.8903,0.1097	-236.54
0.8918,0.1082	-236.51
0.9495,0.0505	-235.67
0.9513,0.0487	-235.66
0.9553,0.0447	-232.58
0.8974,0.1026	-236.40
0.8781,0.1219	-238.76
0.8457,0.1543	-237.54
0.9506,0.0494	-235.66
0.9561,0.0439	-238.72
0.9579,0.0421	-238.76
0.8595,0.1405	-239.02
0.8950,0.1050	-236.45
0.8564,0.1436	-239.06
0.9515,0.0485	-232.68
0.9667,0.0333	-232.27
0.9630,0.0370	-232.37
0.8690,0.1310	-242.67
0.9066,0.0934	-236.23
0.8495,0.1505	-240.91
0.9409,0.0591	-235.74
0.9623,0.0377	-232.39
0.9658,0.0342	-232.29
0.8587,0.1413	-239.03
0.9215,0.0785	-235.99
0.8261,0.1739	-238.04
0.9371,0.0629	-235.78
0.9565,0.0435	-235.64
0.9622,0.0378	-235.63
0.8516,0.1484	-237.39
0.9065,0.0935	-240.78
0.7976,0.2024	-240.19
0.9372,0.0628	-233.08
0.9587,0.0413	-232.49
0.9664,0.0336	-235.64
0.8620,0.1380	-235.31
0.9055,0.0945	-236.25
0.7806,0.2194	-241.86
0.9391,0.0609	-233.03
0.9371,0.0629	-233.08
0.9616,0.0384	-232.41
0.8474,0.1526	-239.21
0.9115,0.0885	-233.82
0.8283,0.1717	-237.98
0.9397,0.0603	-233.01
0.9446,0.0554	-232.88
0.9559,0.0441	-232.56
0.8434,0.1566	-240.96
0.8937,0.1063	-236.47
0.8422,0.1578	-240.97
0.9356,0.0644	-235.80
0.9352,0.0648	-235.81
0.9532,0.0468	-232.64
0.8729,0.1271	-244.61
0.8942,0.1058	-242.86
0.8775,0.1225	-240.74
0.9457,0.0543	-232.84
0.9378,0.0622	-233.06
0.9545,0.0455	-232.60
0.8721,0.1279	-238.84
0.8942,0.1058	-238.60
0.8740,0.1260	-238.82
0.9517,0.0483	-232.68
0.9444,0.0556	-232.88
0.9462,0.0538	-235.70
0.8554,0.1446	-244.41
0.8988,0.1012	-236.37
0.8938,0.1062	-234.34
0.9562,0.0438	-235.64
0.9372,0.0628	-235.78
0.9436,0.0564	-232.90
0.8454,0.1546	-240.94
0.9225,0.0775	-238.45
0.8374,0.1626	-242.66
0.9521,0.0479	-232.67
0.9315,0.0685	-233.24
0.9420,0.0580	-235.73
0.8165,0.1835	-241.28
0.9166,0.0834	-238.46
0.8180,0.1820	-236.75
0.9539,0.0461	-235.65
0.9275,0.0725	-233.35
0.9460,0.0540	-235.70
0.7755,0.2245	-243.20
0.9100,0.0900	-236.17
0.7878,0.2122	-243.04
0.9590,0.0410	-232.48
0.9097,0.0903	-240.80
0.9372,0.0628	-235.78
0.7759,0.2241	-240.71
0.8975,0.1025	-234.23
0.8163,0.1837	-238.30
0.9703,0.0297	-239.14
0.9082,0.0918	-233.91
0.9445,0.0555	-238.55
0.7589,0.2411	-243.44
0.8688,0.1312	-238.88
0.8043,0.1957	-242.87
0.9748,0.0252	-232.05
0.9279,0.0721	-238.45
0.9415,0.0585	-235.74
0.7573,0.2427	-241.18
0.8745,0.1255	-236.87
0.8050,0.1950	-238.61
0.9802,0.0198	-231.91
0.9230,0.0770	-238.45
0.9516,0.0484	-241.62
0.7225,0.2775	-244.08
0.8653,0.1347	-238.93
0.8471,0.1529	-240.93
0.9802,0.0198	-231.91
0.9294,0.0706	-233.30
0.9546,0.0454	-235.64
0.7533,0.2467	-241.29
0.8881,0.1119	-236.58
0.8583,0.1417	-235.43
0.9792,0.0208	-231.94
0.9352,0.0648	-233.14
0.9513,0.0487	-235.66
0.7378,0.2622	-240.69
0.8771,0.1229	-238.78
0.8649,0.1351	-237.08
0.9784,0.0216	-235.77
0.9363,0.0637	-238.48
0.9440,0.0560	-235.72
0.7613,0.2387	-243.40
0.8651,0.1349	-240.79
0.8676,0.1324	-240.78
0.9756,0.0244	-232.03
0.9234,0.0766	-238.45
0.9311,0.0689	-235.86
0.7930,0.2070	-240.30
0.8842,0.1158	-240.73
0.9083,0.0917	-243.08
0.9673,0.0327	-232.25
0.9180,0.0820	-240.87
0.9319,0.0681	-233.23
0.8278,0.1722	-239.56
0.8825,0.1175	-242.75
0.9138,0.0862	-233.75
0.9747,0.0253	-235.71
0.9076,0.0924	-236.21
0.9303,0.0697	-235.87
0.8171,0.1829	-242.77
0.8518,0.1482	-235.64
0.9187,0.0813	-233.61
0.9793,0.0207	-231.93
0.9147,0.0853	-233.72
0.9315,0.0685	-235.85
0.8172,0.1828	-241.27
0.8696,0.1304	-244.57
0.9159,0.0841	-236.08
0.9795,0.0205	-231.93
0.8897,0.1103	-242.81
0.9340,0.0660	-235.82
0.8238,0.1762	-241.18
0.8736,0.1264	-238.82
0.9121,0.0879	-238.48
0.9740,0.0260	-232.07
0.8912,0.1088	-234.42
0.9093,0.0907	-236.19
0.8251,0.1749	-244.27
0.8650,0.1350	-237.08
0.8985,0.1015	-238.56
0.9698,0.0302	-232.19
0.9123,0.0877	-238.48
0.9063,0.0937	-236.24
0.8275,0.1725	-241.14
0.8454,0.1546	-240.94
0.9038,0.0962	-240.76
0.9721,0.0279	-235.68
0.8987,0.1013	-236.38
0.9141,0.0859	-233.74
0.8053,0.1947	-240.02
0.8509,0.1491	-237.41
0.9092,0.0908	-236.19
0.9616,0.0384	-235.63
0.9138,0.0862	-238.47
0.8989,0.1011	-238.56
0.8295,0.1705	-239.53
0.8271,0.1729	-241.14
0.9097,0.0903	-236.18
0.9652,0.0348	-235.63
0.9228,0.0772	-233.49
0.9082,0.0918	-238.50
0.8402,0.1598	-239.33
0.8083,0.1917	-239.96
0.9215,0.0785	-233.53
0.9633,0.0367	-232.36
0.8980,0.1020	-236.39
0.9123,0.0877	-233.79
0.8210,0.1790	-239.70
0.7769,0.2231	-240.68
0.9338,0.0662	-238.47
0.9623,0.0377	-232.39
0.9220,0.0780	-233.51
0.9249,0.0751	-233.43
0.8151,0.1849	-236.85
0.7943,0.2057	-241.62
0.9218,0.0782	-238.45
0.9650,0.0350	-232.32
0.9204,0.0796	-236.01
0.9118,0.0882	-236.14
0.8560,0.1440	-242.64
0.8339,0.1661	-241.06
0.9179,0.0821	-236.04
0.9676,0.0324	-232.24
0.9174,0.0826	-236.05
0.9120,0.0880	-238.48
0.8399,0.1601	-237.68
0.8161,0.1839	-238.31
0.8993,0.1007	-242.93
0.9649,0.0351	-232.32
0.9053,0.0947	-236.26
0.9350,0.0650	-235.81
0.8372,0.1628	-239.39
0.8526,0.1474	-242.63
0.8616,0.1384	-242.64
0.9612,0.0388	-232.42
0.8821,0.1179	-236.71
0.9449,0.0551	-235.71
0.8489,0.1511	-240.91
0.8653,0.1347	-237.07
0.8918,0.1082	-238.62
0.9673,0.0327	-232.25
0.8978,0.1022	-238.57
0.9379,0.0621	-233.06
0.8668,0.1332	-238.91
0.8833,0.1167	-236.68
0.8824,0.1176	-238.72
0.9637,0.0363	-235.63
0.9044,0.0956	-238.52
0.9446,0.0554	-232.88
0.8768,0.1232	-240.74
0.8657,0.1343	-242.65
0.8749,0.1251	-240.75
0.9608,0.0392	-235.63
0.9204,0.0796	-238.45
0.9469,0.0531	-232.81
0.8547,0.1453	-237.32
0.8681,0.1319	-235.12
0.8886,0.1114	-238.65
0.9623,0.0377	-232.39
0.9190,0.0810	-233.60
0.9522,0.0478	-241.64
0.8675,0.1325	-244.54
0.8840,0.1160	-236.67
0.9051,0.0949	-236.26
0.9573,0.0427	-238.74
0.9154,0.0846	-233.70
0.9491,0.0509	-235.67
0.8554,0.1446	-244.41
0.8828,0.1172	-234.67
0.8925,0.1075	-234.38
0.9534,0.0466	-235.65
0.9359,0.0641	-243.84
0.9501,0.0499	-232.72
0.8322,0.1678	-239.48
0.8728,0.1272	-236.91
0.8850,0.1150	-236.65
0.9515,0.0485	-235.66
0.9472,0.0528	-235.69
0.9466,0.0534	-232.82
0.8533,0.1467	-235.59
0.8509,0.1491	-237.41
0.8906,0.1094	-240.73
0.9425,0.0575	-235.73
0.9430,0.0570	-232.92
0.9570,0.0430	-232.53
0.8818,0.1182	-240.73
0.8364,0.1636	-245.93
0.8844,0.1156	-236.66
0.9435,0.0565	-232.90
0.9493,0.0507	-232.74
0.9635,0.0365	-232.35
0.8863,0.1137	-236.62
0.8500,0.1500	-246.10
0.8978,0.1022	-236.39
0.9337,0.0663	-233.18
0.9508,0.0492	-232.70
0.9666,0.0334	-232.27
0.8858,0.1142	-236.63
0.8673,0.1327	-235.15
0.9012,0.0988	-238.54
0.9402,0.0598	-235.75
0.9554,0.0446	-238.70
0.9668,0.0332	-232.27
0.8855,0.1145	-238.68
0.9038,0.0962	-236.28
0.9078,0.0922	-236.21
0.9213,0.0787	-235.99
0.9588,0.0412	-232.48
0.9681,0.0319	-239.06
0.8380,0.1620	-236.09
0.9087,0.0913	-238.49
0.9059,0.0941	-233.98
0.9030,0.0970	-234.06
0.9626,0.0374	-232.38
0.9632,0.0368	-235.63
0.8311,0.1689	-245.87
0.9128,0.0872	-238.47
0.9367,0.0633	-235.79
0.8932,0.1068	-236.48
0.9611,0.0389	-238.84
0.9673,0.0327	-232.25
0.8443,0.1557	-235.88
0.9093,0.0907	-238.49
0.9191,0.0809	-233.60
0.8831,0.1169	-238.71
0.9488,0.0512	-238.60
0.9718,0.0282	-232.13
0.8355,0.1645	-239.42
0.9078,0.0922	-233.92
0.9253,0.0747	-233.42
0.8949,0.1051	-240.73
0.9561,0.0439	-232.56
0.9728,0.0272	-232.11
0.8604,0.1396	-239.00
0.9047,0.0953	-234.02
0.9139,0.0861	-233.75
0.9065,0.0935	-243.05
0.9570,0.0430	-235.64
0.9737,0.0263	-239.31
0.8575,0.1425	-242.64
0.8805,0.1195	-236.74
0.9113,0.0887	-236.15
0.8969,0.1031	-238.57
0.9617,0.0383	-232.40
0.9693,0.0307	-232.20
0.8407,0.1593	-237.66
0.9020,0.0980	-234.10
0.9067,0.0933	-236.23
0.8969,0.1031	-238.57
0.9583,0.0417	-235.63
0.9736,0.0264	-232.08
0.8439,0.1561	-237.58
0.8962,0.1038	-234.27
0.8980,0.1020	-238.56
0.9121,0.0879	-236.14
0.9574,0.0426	-235.63
0.9710,0.0290	-232.15
0.8675,0.1325	-240.78
0.8841,0.1159	-238.70
0.9126,0.0874	-233.78
0.9309,0.0691	-238.46
0.9626,0.0374	-232.38
0.9729,0.0271	-232.10
0.8895,0.1105	-234.47
0.8724,0.1276	-238.84
0.9120,0.0880	-236.14
0.9123,0.0877	-236.13
0.9583,0.0417	-238.77
0.9713,0.0287	-232.15
0.8711,0.1289	-242.67
0.8991,0.1009	-238.56
0.9062,0.0938	-236.24
0.8776,0.1224	-240.74
0.9467,0.0533	-238.57
0.9788,0.0212	-231.95
0.8853,0.1147	-238.68
0.8936,0.1064	-236.47
0.9075,0.0925	-238.50
0.8684,0.1316	-238.89
0.9508,0.0492	-232.70
0.9817,0.0183	-231.87
0.8974,0.1026	-240.74
0.8946,0.1054	-234.32
0.9148,0.0852	-236.09
0.8845,0.1155	-240.73
0.9425,0.0575	-232.93
0.9826,0.0174	-231.85
0.9111,0.0889	-233.83
0.8870,0.1130	-238.67
0.9289,0.0711	-235.88
0.8676,0.1324	-244.54
0.9314,0.0686	-241.07
0.9841,0.0159	-231.81
0.9189,0.0811	-233.60
0.8791,0.1209	-236.77
0.9265,0.0735	-233.38
0.8703,0.1297	-236.96
0.9157,0.0843	-238.46
0.9845,0.0155	-231.80
0.8856,0.1144	-236.63
0.8658,0.1342	-237.06
0.9228,0.0772	-238.45
0.8606,0.1394	-240.82
0.8883,0.1117	-234.50
0.9876,0.0124	-231.72
0.9262,0.0738	-240.98
0.8807,0.1193	-238.73
0.9086,0.0914	-240.79
0.8676,0.1324	-238.90
0.8884,0.1116	-236.58
0.9886,0.0114	-231.69
0.9176,0.0824	-238.46
0.8937,0.1063	-236.47
0.9020,0.0980	-236.32
0.8227,0.1773	-239.66
0.9188,0.0812	-238.46
0.9895,0.0105	-231.67
0.9179,0.0821	-236.04
0.8652,0.1348	-242.65
0.8809,0.1191	-236.73
0.8222,0.1778	-244.27
0.9326,0.0674	-235.84
0.9905,0.0095	-231.64
0.8957,0.1043	-236.43
0.8402,0.1598	-239.33
0.8826,0.1174	-236.70
0.7985,0.2015	-240.17
0.9077,0.0923	-233.93
0.9897,0.0103	-231.66
0.8878,0.1122	-236.59
0.8693,0.1307	-238.88
0.8795,0.1205	-236.76
0.8031,0.1969	-240.07
0.8869,0.1131	-234.55
0.9900,0.0100	-231.65
0.8861,0.1139	-240.73
0.8649,0.1351	-235.22
0.8759,0.1241	-238.79
0.8114,0.1886	-242.81
0.8894,0.1106	-234.47
0.9869,0.0131	-231.73
0.8888,0.1112	-234.49
0.8566,0.1434	-237.27
0.8589,0.1411	-235.42
0.8020,0.1980	-240.10
0.8744,0.1256	-234.93
0.9851,0.0149	-235.97
0.8980,0.1020	-238.56
0.8928,0.1072	-242.85
0.8714,0.1286	-244.59
0.8242,0.1758	-244.27
0.8876,0.1124	-240.73
0.9825,0.0175	-231.85
0.9079,0.0921	-240.79
0.8953,0.1047	-238.59
0.8872,0.1128	-240.73
0.8153,0.1847	-241.30
0.9279,0.0721	-235.90
0.9786,0.0214	-235.77
0.9221,0.0779	-238.45
0.9008,0.0992	-240.75
0.8973,0.1027	-238.57
0.8241,0.1759	-239.63
0.9431,0.0569	-241.34
0.9804,0.0196	-231.90
0.8952,0.1048	-234.30
0.9035,0.0965	-234.05
0.8833,0.1167	-238.71
0.8462,0.1538	-235.82
0.9342,0.0658	-235.82
0.9796,0.0204	-235.80
0.8959,0.1041	-238.58
0.9132,0.0868	-233.77
0.8952,0.1048	-236.44
0.8659,0.1341	-238.92
0.9149,0.0851	-233.72
0.9782,0.0218	-231.96
0.8971,0.1029	-242.90
0.9134,0.0866	-238.47
0.8958,0.1042	-236.43
0.8651,0.1349	-238.94
0.9247,0.0753	-238.45
0.9771,0.0229	-231.99
0.9172,0.0828	-240.87
0.8985,0.1015	-238.56
0.8846,0.1154	-236.65
0.8758,0.1242	-238.79
0.9202,0.0798	-233.56
0.9806,0.0194	-231.90
0.9245,0.0755	-235.95
0.9127,0.0873	-236.13
0.8494,0.1506	-239.18
0.8685,0.1315	-235.11
0.9193,0.0807	-240.89
0.9765,0.0235	-235.73
0.9081,0.0919	-233.92
0.9155,0.0845	-233.70
0.8484,0.1516	-242.64
0.8562,0.1438	-239.07
0.9166,0.0834	-236.07
0.9780,0.0220	-231.97
0.9136,0.0864	-236.11
0.9121,0.0879	-236.14
0.8523,0.1477	-237.38
0.8618,0.1382	-238.98
0.9316,0.0684	-235.85
0.9788,0.0212	-239.61
0.9137,0.0863	-238.47
0.9092,0.0908	-233.88
0.8554,0.1446	-239.08
0.8894,0.1106	-236.56
0.9320,0.0680	-235.85
0.9788,0.0212	-231.95
0.9141,0.0859	-233.74
0.8944,0.1056	-236.46
0.8777,0.1223	-234.83
0.8910,0.1090	-240.73
0.9459,0.0541	-235.70
0.9791,0.0209	-231.94
0.9200,0.0800	-233.57
0.8694,0.1306	-240.77
0.8310,0.1690	-237.91
0.8908,0.1092	-236.53
0.9534,0.0466	-235.65
0.9803,0.0197	-231.91
0.9410,0.0590	-235.74
0.8416,0.1584	-239.31
0.8132,0.1868	-241.33
0.8941,0.1059	-238.60
0.9515,0.0485	-232.68
0.9746,0.0254	-232.06
0.9376,0.0624	-233.07
0.8405,0.1595	-236.01
0.8247,0.1753	-241.17
0.8870,0.1130	-238.67
0.9617,0.0383	-232.41
0.9665,0.0335	-232.28
0.9422,0.0578	-232.94
0.8231,0.1769	-239.65
0.8605,0.1395	-237.18
0.9024,0.0976	-236.31
0.9612,0.0388	-235.63
0.9673,0.0327	-232.25
0.9257,0.0743	-235.93
0.8000,0.2000	-245.69
0.8764,0.1236	-236.83
0.9154,0.0846	-238.47
0.9600,0.0400	-238.81
0.9716,0.0284	-235.67
0.9353,0.0647	-238.48
0.8366,0.1634	-236.13
0.8776,0.1224	-238.77
0.9122,0.0878	-236.14
0.9626,0.0374	-232.38
0.9744,0.0256	-235.70
0.9327,0.0673	-241.09
0.8505,0.1495	-240.90
0.8750,0.1250	-242.69
0.9087,0.0913	-236.20
0.9681,0.0319	-232.23
0.9705,0.0295	-235.66
0.9280,0.0720	-233.34
0.8177,0.1823	-241.26
0.8770,0.1230	-240.74
0.9070,0.0930	-233.95
0.9617,0.0383	-232.40
0.9729,0.0271	-232.10
0.9281,0.0719	-238.45
0.8517,0.1483	-240.89
0.8832,0.1168	-236.68
0.8987,0.1013	-234.19
0.9640,0.0360	-235.63
0.9758,0.0242	-235.72
0.9304,0.0696	-233.27
0.8333,0.1667	-239.46
0.8831,0.1169	-236.69
0.9082,0.0918	-243.08
0.9702,0.0298	-239.14
0.9820,0.0180	-231.86
0.9061,0.0939	-238.51
0.8118,0.1882	-244.27
0.9070,0.0930	-236.22
0.9327,0.0673	-235.84
0.9720,0.0280	-232.13
0.9836,0.0164	-231.82
0.9172,0.0828	-238.46
0.8036,0.1964	-240.06
0.9041,0.0959	-234.03
0.9379,0.0621	-235.78
0.9743,0.0257	-232.07
0.9785,0.0215	-231.95
0.9316,0.0684	-235.85
0.7964,0.2036	-238.86
0.9187,0.0813	-236.03
0.9312,0.0688	-235.85
0.9769,0.0231	-232.00
0.9716,0.0284	-232.14
0.9472,0.0528	-232.80
0.7736,0.2264	-239.53
0.9063,0.0937	-238.51
0.9294,0.0706	-238.46
0.9768,0.0232	-232.00
0.9705,0.0295	-235.66
0.9526,0.0474	-232.65
0.7566,0.2434	-240.07
0.9141,0.0859	-236.11
0.9338,0.0662	-235.82
0.9747,0.0253	-232.06
0.9546,0.0454	-235.64
0.9398,0.0602	-235.76
0.7566,0.2434	-241.20
0.9193,0.0807	-238.46
0.9463,0.0537	-235.70
0.9766,0.0234	-232.00
0.9422,0.0578	-232.94
0.9426,0.0574	-238.53
0.7130,0.2870	-242.45
0.9105,0.0895	-238.48
0.9289,0.0711	-235.88
0.9717,0.0283	-232.14
0.9532,0.0468	-235.65
0.9446,0.0554	-235.71
0.7611,0.2389	-244.56
0.9285,0.0715	-235.89
0.9365,0.0635	-235.79
0.9782,0.0218	-235.77
0.9515,0.0485	-232.68
0.9489,0.0511	-235.68
0.7466,0.2534	-242.56
0.9347,0.0653	-235.81
0.9364,0.0636	-238.48
0.9793,0.0207	-231.93
0.9485,0.0515	-232.77
0.9542,0.0458	-232.61
0.8186,0.1814	-241.25
0.9325,0.0675	-233.21
0.9440,0.0560	-238.54
0.9782,0.0218	-231.96
0.9469,0.0531	-241.45
0.9465,0.0535	-232.82
0.7936,0.2064	-240.29
0.9409,0.0591	-235.74
0.9469,0.0531	-232.81
0.9767,0.0233	-232.00
0.9413,0.0587	-232.97
0.9415,0.0585	-235.74
0.7817,0.2183	-241.84
0.9482,0.0518	-238.59
0.9423,0.0577	-232.94
0.9788,0.0212	-231.95
0.9487,0.0513	-238.60
0.9422,0.0578	-235.73
0.7822,0.2178	-239.28
0.9393,0.0607	-238.50
0.9460,0.0540	-232.84
0.9774,0.0226	-235.75
0.9516,0.0484	-235.66
0.9264,0.0736	-235.92
0.8084,0.1916	-238.52
0.9440,0.0560	-232.89
0.9428,0.0572	-235.73
0.9803,0.0197	-231.91
0.9379,0.0621	-233.06
0.9335,0.0665	-233.19
0.8177,0.1823	-242.76
0.9478,0.0522	-235.68
0.9409,0.0591	-238.51
0.9798,0.0202	-235.80
0.9387,0.0613	-235.77
0.9361,0.0639	-235.80
0.8108,0.1892	-241.36
0.9454,0.0546	-235.70
0.9411,0.0589	-241.28
0.9818,0.0182	-231.87
0.9393,0.0607	-233.02
0.9505,0.0495	-232.71
0.8437,0.1563	-237.59
0.9574,0.0426	-235.63
0.9507,0.0493	-232.70
0.9845,0.0155	-231.80
0.9453,0.0547	-235.70
0.9402,0.0598	-235.75
0.8415,0.1585	-240.98
0.9553,0.0447	-232.58
0.9611,0.0389	-232.42
0.9858,0.0142	-231.76
0.9539,0.0461	-235.65
0.9520,0.0480	-235.66
0.8566,0.1434	-235.49
0.9371,0.0629	-233.08
0.9509,0.0491	-238.63
0.9834,0.0166	-231.83
0.9650,0.0350	-232.32
0.9587,0.0413	-232.48
0.8617,0.1383	-240.81
0.9626,0.0374	-232.38
0.9586,0.0414	-235.63
0.9820,0.0180	-231.86
0.9693,0.0307	-232.20
0.9560,0.0440	-232.56
0.8500,0.1500	-237.43
0.9700,0.0300	-232.18
0.9499,0.0501	-232.73
0.9830,0.0170	-231.84
0.9722,0.0278	-232.12
0.9478,0.0522	-235.68
0.8390,0.1610	-237.70
0.9734,0.0266	-242.89
0.9540,0.0460	-235.65
0.9817,0.0183	-231.87
0.9761,0.0239	-235.73
0.9425,0.0575	-235.73
0.8537,0.1463	-237.34
0.9807,0.0193	-231.90
0.9491,0.0509	-232.75
0.9821,0.0179	-231.86
0.9779,0.0221	-231.97
0.9468,0.0532	-235.69
0.8381,0.1619	-242.66
0.9821,0.0179	-231.86
0.9475,0.0525	-238.58
0.9827,0.0173	-231.84
0.9751,0.0249	-232.05
0.9491,0.0509	-232.75
0.8598,0.1402	-237.20
0.9783,0.0217	-231.96
0.9460,0.0540	-232.83
0.9817,0.0183	-231.87
0.9743,0.0257	-235.70
0.9462,0.0538	-232.83
0.8760,0.1240	-240.75
0.9753,0.0247	-232.04
0.9364,0.0636	-235.79
0.9815,0.0185	-231.88
0.9797,0.0203	-231.92
0.9487,0.0513	-232.76
0.8964,0.1036	-234.26
0.9776,0.0224	-231.98
0.9360,0.0640	-235.80
0.9796,0.0204	-231.93
0.9687,0.0313	-232.21
0.9630,0.0370	-232.37
0.9178,0.0822	-236.05
0.9820,0.0180	-231.86
0.9110,0.0890	-236.16
0.9803,0.0197	-231.91
0.9723,0.0277	-232.12
0.9622,0.0378	-238.87
0.9323,0.0677	-233.22
0.9803,0.0197	-239.72
0.9379,0.0621	-233.06
0.9836,0.0164	-231.82
0.9659,0.0341	-232.29
0.9463,0.0537	-241.43
0.9219,0.0781	-233.52
0.9760,0.0240	-232.02
0.9251,0.0749	-235.94
0.9857,0.0143	-236.00
0.9661,0.0339	-232.29
0.9464,0.0536	-232.82
0.9273,0.0727	-243.54
0.9752,0.0248	-235.71
0.9213,0.0787	-238.45
0.9888,0.0112	-231.68
0.9704,0.0296	-235.66
0.9480,0.0520	-235.68
0.9429,0.0571	-232.92
0.9823,0.0177	-231.85
0.9208,0.0792	-238.45
0.9876,0.0124	-236.10
0.9720,0.0280	-232.13
0.9458,0.0542	-232.84
0.9356,0.0644	-241.15
0.9852,0.0148	-231.78
0.9232,0.0768	-233.48
0.9881,0.0119	-231.70
0.9710,0.0290	-232.15
0.9503,0.0497	-235.67
0.9235,0.0765	-240.94
0.9885,0.0115	-231.69
0.9189,0.0811	-240.88
0.9893,0.0107	-231.67
0.9676,0.0324	-232.25
0.9555,0.0445	-238.71
0.9325,0.0675	-235.84
0.9863,0.0137	-231.75
0.9332,0.0668	-233.19
0.9910,0.0090	-231.63
0.9671,0.0329	-235.64
0.9532,0.0468	-232.64
0.9125,0.0875	-233.79
0.9805,0.0195	-239.73
0.9369,0.0631	-233.09
0.9918,0.0082	-231.61
0.9617,0.0383	-232.41
0.9431,0.0569	-235.72
0.9052,0.0948	-236.26
0.9831,0.0169	-231.83
0.9315,0.0685	-241.07
0.9904,0.0096	-231.64
0.9531,0.0469	-232.64
0.9508,0.0492	-238.63
0.8869,0.1131	-238.67
0.9858,0.0142	-236.00
0.9424,0.0576	-232.93
0.9914,0.0086	-231.62
0.9560,0.0440	-235.64
0.9581,0.0419	-235.63
0.9026,0.0974	-234.08
0.9816,0.0184	-231.87
0.9505,0.0495	-235.67
0.9872,0.0128	-231.73
0.9403,0.0597	-235.75
0.9447,0.0553	-235.71
0.8904,0.1096	-240.73
0.9812,0.0188	-231.88
0.9509,0.0491	-232.70
0.9837,0.0163	-231.82
0.9441,0.0559	-235.71
0.9471,0.0529	-232.80
0.9052,0.0948	-236.26
0.9828,0.0172	-231.84
0.9493,0.0507	-232.74
0.9802,0.0198	-235.81
0.9423,0.0577	-235.73
0.9584,0.0416	-232.49
0.9085,0.0915	-236.20
0.9842,0.0158	-235.93
0.9590,0.0410	-232.48
0.9805,0.0195	-235.82
0.9480,0.0520	-232.78
0.9593,0.0407	-235.63
0.8971,0.1029	-236.41
0.9869,0.0131	-231.73
0.9460,0.0540	-238.56
0.9753,0.0247	-232.04
0.9461,0.0539	-244.29
0.9643,0.0357	-232.33
0.8991,0.1009	-245.12
0.9900,0.0100	-231.65
0.9355,0.0645	-238.48
0.9785,0.0215	-231.95
0.9435,0.0565	-235.72
0.9633,0.0367	-235.63
0.8626,0.1374	-238.97
0.9903,0.0097	-231.65
0.9407,0.0593	-232.98
0.9833,0.0167	-231.83
0.9391,0.0609	-238.50
0.9694,0.0306	-232.20
0.8853,0.1147	-238.68
0.9893,0.0107	-231.67
0.9172,0.0828	-238.46
0.9799,0.0201	-231.92
0.9361,0.0639	-233.11
0.9686,0.0314	-232.22
0.8628,0.1372	-242.65
0.9892,0.0108	-231.67
0.9299,0.0701	-238.46
0.9840,0.0160	-231.81
0.9458,0.0542	-238.56
0.9678,0.0322	-239.05
0.8725,0.1275	-240.76
0.9912,0.0088	-231.62
0.9240,0.0760	-233.46
0.9785,0.0215	-235.77
0.9471,0.0529	-238.57
0.9739,0.0261	-232.08
0.8617,0.1383	-238.98
0.9900,0.0100	-231.65
0.9368,0.0632	-238.48
0.9760,0.0240	-232.02
0.9394,0.0606	-233.02
0.9693,0.0307	-235.65
0.8467,0.1533	-244.35
0.9899,0.0101	-231.65
0.9351,0.0649	-238.48
0.9748,0.0252	-232.05
0.9354,0.0646	-241.15
0.9741,0.0259	-232.07
0.8602,0.1398	-242.64
0.9910,0.0090	-231.63
0.9304,0.0696	-241.05
0.9767,0.0233	-232.00
0.9348,0.0652	-235.81
0.9751,0.0249	-232.04
0.8568,0.1432	-239.06
0.9887,0.0113	-231.69
0.9253,0.0747	-233.42
0.9699,0.0301	-232.18
0.9207,0.0793	-233.55
0.9806,0.0194	-231.90
0.8589,0.1411	-239.03
0.9864,0.0136	-231.75
0.9054,0.0946	-233.99
0.9720,0.0280	-232.13
0.9215,0.0785	-238.45
0.9842,0.0158	-231.80
0.8953,0.1047	-236.44
0.9873,0.0127	-231.72
0.9001,0.0999	-240.75
0.9769,0.0231	-232.00
0.9200,0.0800	-236.01
0.9881,0.0119	-236.12
0.9187,0.0813	-238.46
0.9849,0.0151	-231.79
0.8941,0.1059	-238.60
0.9761,0.0239	-232.02
0.9308,0.0692	-233.26
0.9843,0.0157	-231.80
0.9181,0.0819	-233.63
0.9894,0.0106	-231.67
0.9071,0.0929	-238.50
0.9746,0.0254	-235.71
0.9394,0.0606	-235.76
0.9838,0.0162	-231.81
0.9337,0.0663	-241.11
0.9906,0.0094	-236.29
0.8897,0.1103	-238.64
0.9718,0.0282	-232.13
0.9361,0.0639	-233.11
0.9856,0.0144	-231.77
0.9229,0.0771	-238.45
0.9900,0.0100	-231.65
0.8763,0.1237	-236.83
0.9698,0.0302	-235.66
0.9407,0.0593	-235.75
0.9855,0.0145	-231.77
0.9272,0.0728	-235.91
0.9921,0.0079	-231.60
0.8746,0.1254	-236.87
0.9642,0.0358	-232.34
0.9360,0.0640	-233.11
0.9874,0.0126	-236.08
0.9204,0.0796	-236.01
0.9923,0.0077	-231.59
0.8641,0.1359	-238.95
0.9605,0.0395	-232.44
0.9320,0.0680	-235.85
0.9860,0.0140	-231.76
0.9365,0.0635	-238.48
0.9944,0.0056	-236.71
0.8613,0.1387	-237.16
0.9557,0.0443	-232.57
0.9418,0.0582	-235.74
0.9837,0.0163	-231.82
0.9275,0.0725	-233.35
0.9934,0.0066	-231.56
0.8731,0.1269	-240.76
0.9642,0.0358	-235.63
0.9534,0.0466	-235.65
0.9807,0.0193	-231.90
0.9320,0.0680	-233.23
0.9926,0.0074	-231.59
0.8646,0.1354	-240.80
0.9591,0.0409	-235.63
0.9464,0.0536	-241.44
0.9854,0.0146	-231.77
0.9168,0.0832	-238.46
0.9941,0.0059	-231.55
0.8672,0.1328	-237.03
0.9557,0.0443	-232.57
0.9430,0.0570	-235.72
0.9838,0.0162	-235.92
0.9118,0.0882	-236.14
0.9947,0.0053	-231.53
0.9037,0.0963	-234.04
0.9554,0.0446	-232.57
0.9405,0.0595	-232.99
0.9830,0.0170	-231.83
0.9361,0.0639	-233.11
0.9949,0.0051	-231.53
0.8942,0.1058	-234.33
0.9478,0.0522	-235.68
0.9341,0.0659	-241.12
0.9834,0.0166	-231.82
0.9198,0.0802	-240.89
0.9950,0.0050	-231.52
0.8958,0.1042	-236.43
0.9546,0.0454	-235.64
0.9333,0.0667	-233.19
0.9753,0.0247	-235.71
0.9403,0.0597	-235.75
0.9963,0.0037	-231.49
0.9095,0.0905	-236.18
0.9560,0.0440	-235.64
0.9434,0.0566	-232.91
0.9739,0.0261	-239.31
0.9494,0.0506	-232.74
0.9961,0.0039	-231.50
0.8980,0.1020	-234.21
0.9490,0.0510	-235.68
0.9386,0.0614	-235.77
0.9699,0.0301	-232.18
0.9449,0.0551	-235.71
0.9947,0.0053	-231.53
0.9046,0.0954	-238.52
0.9396,0.0604	-238.50
0.9320,0.0680	-235.85
0.9643,0.0357	-242.22
0.9459,0.0541	-238.56
0.9911,0.0089	-231.62
0.8781,0.1219	-238.76
0.9466,0.0534	-241.44
0.9312,0.0688	-243.67
0.9550,0.0450	-235.64
0.9511,0.0489	-232.69
0.9897,0.0103	-231.66
0.8869,0.1131	-244.84
0.9572,0.0428	-232.53
0.9386,0.0614	-235.77
0.9606,0.0394	-235.63
0.9317,0.0683	-238.46
0.9892,0.0108	-231.67
0.8994,0.1006	-238.55
0.9552,0.0448	-232.58
0.9497,0.0503	-235.67
0.9627,0.0373	-232.38
0.9431,0.0569	-232.91
0.9905,0.0095	-231.64
0.8753,0.1247	-240.75
0.9601,0.0399	-235.63
0.9574,0.0426	-235.63
0.9584,0.0416	-232.49
0.9464,0.0536	-232.82
0.9893,0.0107	-231.67
0.9032,0.0968	-236.29
0.9530,0.0470	-235.65
0.9504,0.0496	-232.71
0.9528,0.0472	-235.65
0.9461,0.0539	-235.70
0.9909,0.0091	-231.63
0.9014,0.0986	-236.33
0.9410,0.0590	-235.74
0.9557,0.0443	-232.57
0.9504,0.0496	-235.67
0.9561,0.0439	-232.56
0.9884,0.0116	-236.14
0.8867,0.1133	-238.67
0.9303,0.0697	-235.87
0.9488,0.0512	-232.76
0.9492,0.0508	-232.75
0.9612,0.0388	-238.84
0.9877,0.0123	-240.48
0.8711,0.1289	-236.94
0.9247,0.0753	-233.43
0.9508,0.0492	-238.63
0.9581,0.0419	-235.63
0.9615,0.0385	-232.41
0.9891,0.0109	-231.68
0.8832,0.1168	-234.66
0.9218,0.0782	-238.45
0.9498,0.0502	-235.67
0.9550,0.0450	-232.59
0.9603,0.0397	-232.44
0.9877,0.0123	-231.71
0.8739,0.1261	-238.82
0.9156,0.0844	-236.08
0.9499,0.0501	-232.73
0.9511,0.0489	-241.60
0.9586,0.0414	-232.49
0.9893,0.0107	-231.67
0.8386,0.1614	-242.66
0.9008,0.0992	-238.54
0.9477,0.0523	-238.58
0.9541,0.0459	-232.61
0.9642,0.0358	-235.63
0.9893,0.0107	-231.67
0.8528,0.1472	-239.12
0.9116,0.0884	-238.48
0.9500,0.0500	-232.73
0.9621,0.0379	-235.63
0.9689,0.0311	-232.21
0.9895,0.0105	-231.67
0.8403,0.1597	-240.99
0.9222,0.0778	-238.45
0.9553,0.0447	-235.64
0.9640,0.0360	-232.34
0.9719,0.0281	-232.13
0.9871,0.0129	-236.06
0.8688,0.1312	-240.77
0.9157,0.0843	-238.46
0.9581,0.0419	-238.76
0.9691,0.0309	-232.21
0.9683,0.0317	-232.23
0.9866,0.0134	-231.74
0.8866,0.1134	-236.61
0.9155,0.0845	-233.70
0.9614,0.0386	-232.41
0.9730,0.0270	-232.10
0.9642,0.0358	-232.34
0.9849,0.0151	-235.97
0.8776,0.1224	-238.77
0.8918,0.1082	-240.73
0.9484,0.0516	-241.50
0.9785,0.0215	-231.95
0.9623,0.0377	-238.87
0.9846,0.0154	-231.79
0.9016,0.0984	-238.54
0.9097,0.0903	-238.49
0.9557,0.0443	-232.57
0.9738,0.0262	-232.08
0.9552,0.0448	-232.58
0.9865,0.0135	-231.74
0.8991,0.1009	-238.56
0.9059,0.0941	-243.04
0.9495,0.0505	-232.74
0.9701,0.0299	-232.18
0.9533,0.0467	-235.65
0.9870,0.0130	-236.06
0.8943,0.1057	-236.46
0.9240,0.0760	-233.46
0.9640,0.0360	-232.34
0.9700,0.0300	-235.66
0.9434,0.0566	-232.91
0.9864,0.0136	-236.03
0.8997,0.1003	-236.36
0.9212,0.0788	-235.99
0.9663,0.0337	-232.28
0.9640,0.0360	-232.34
0.9494,0.0506	-238.61
0.9864,0.0136	-231.75
0.8892,0.1108	-240.73
0.9135,0.0865	-243.19
0.9745,0.0255	-232.06
0.9682,0.0318	-232.23
0.9524,0.0476	-238.65
0.9861,0.0139	-236.02
0.8925,0.1075	-236.49
0.9244,0.0756	-235.95
0.9769,0.0231	-235.74
0.9717,0.0283	-235.67
0.9585,0.0415	-232.49
0.9857,0.0143	-231.77
0.9042,0.0958	-238.52
0.9204,0.0796	-236.01
0.9797,0.0203	-231.92
0.9710,0.0290	-232.15
0.9556,0.0444	-241.78
0.9860,0.0140	-231.76
0.8984,0.1016	-234.20
0.9143,0.0857	-238.47
0.9791,0.0209	-231.94
0.9761,0.0239	-235.73
0.9588,0.0412	-232.48
0.9894,0.0106	-236.20
0.9277,0.0723	-233.35
0.9159,0.0841	-236.08
0.9771,0.0229	-231.99
0.9726,0.0274	-235.68
0.9427,0.0573	-235.73
0.9883,0.0117	-231.70
0.9394,0.0606	-235.76
0.9224,0.0776	-233.50
0.9788,0.0212	-231.95
0.9697,0.0303	-232.19
0.9464,0.0536	-238.57
0.9857,0.0143	-231.76
0.9451,0.0549	-232.86
0.9233,0.0767	-240.94
0.9744,0.0256	-232.06
0.9644,0.0356	-232.33
0.9501,0.0499	-235.67
0.9849,0.0151	-231.79
0.9485,0.0515	-235.68
0.9049,0.0951	-240.77
0.9710,0.0290	-235.67
0.9592,0.0408	-235.63
0.9376,0.0624	-233.07
0.9870,0.0130	-231.73
0.9463,0.0537	-235.70
0.9316,0.0684	-235.85
0.9704,0.0296	-232.17
0.9599,0.0401	-232.45
0.9193,0.0807	-238.46
0.9876,0.0124	-231.71
0.9587,0.0413	-232.49
0.9345,0.0655	-235.81
0.9793,0.0207	-231.93
0.9527,0.0473	-235.65
0.9042,0.0958	-236.28
0.9886,0.0114	-236.15
0.9617,0.0383	-232.41
0.9333,0.0667	-235.83
0.9817,0.0183	-231.87
0.9515,0.0485	-232.68
0.8997,0.1003	-236.36
0.9899,0.0101	-231.66
0.9528,0.0472	-232.65
0.9398,0.0602	-233.01
0.9814,0.0186	-231.88
0.9521,0.0479	-238.65
0.8836,0.1164	-234.65
0.9890,0.0110	-231.68
0.9557,0.0443	-232.57
0.9445,0.0555	-235.71
0.9774,0.0226	-231.98
0.9378,0.0622	-235.78
0.8714,0.1286	-240.76
0.9885,0.0115	-231.69
0.9511,0.0489	-232.69
0.9360,0.0640	-233.11
0.9805,0.0195	-231.90
0.9422,0.0578	-232.94
0.8802,0.1198	-236.75
0.9883,0.0117	-236.13
0.9658,0.0342	-232.29
0.9276,0.0724	-233.35
0.9775,0.0225	-235.75
0.9415,0.0585	-235.74
0.8647,0.1353	-238.94
0.9878,0.0122	-231.71
0.9641,0.0359	-235.63
0.9059,0.0941	-238.51
0.9759,0.0241	-232.02
0.9299,0.0701	-238.46
0.8667,0.1333	-238.91
0.9882,0.0118	-231.70
0.9610,0.0390	-235.63
0.9125,0.0875	-240.82
0.9859,0.0141	-231.76
0.9324,0.0676	-233.21
0.8764,0.1236	-236.83
0.9886,0.0114	-231.69
0.9582,0.0418	-235.63
0.9111,0.0889	-238.48
0.9845,0.0155	-231.80
0.9362,0.0638	-233.11
0.8844,0.1156	-236.66
0.9886,0.0114	-231.69
0.9626,0.0374	-235.63
0.9366,0.0634	-238.48
0.9868,0.0132	-231.74
0.9446,0.0554	-232.88
0.8688,0.1312	-235.10
0.9883,0.0117	-231.70
0.9655,0.0345	-232.30
0.9343,0.0657	-235.82
0.9855,0.0145	-235.99
0.9284,0.0716	-233.33
0.8828,0.1172	-236.69
0.9909,0.0091	-231.63
0.9687,0.0313	-232.22
0.9231,0.0769	-235.97
0.9847,0.0153	-231.79
0.9206,0.0794	-236.00
0.8911,0.1089	-236.52
0.9911,0.0089	-231.62
0.9685,0.0315	-232.22
0.9098,0.0902	-233.87
0.9806,0.0194	-231.90
0.9183,0.0817	-236.04
0.8787,0.1213	-236.78
0.9902,0.0098	-231.65
0.9669,0.0331	-232.27
0.9117,0.0883	-236.15
0.9777,0.0223	-235.76
0.9147,0.0853	-236.10
0.8929,0.1071	-238.61
0.9895,0.0105	-236.21
0.9635,0.0365	-232.36
0.9101,0.0899	-233.86
0.9726,0.0274	-232.11
0.9177,0.0823	-243.28
0.8558,0.1442	-239.07
0.9922,0.0078	-231.59
0.9642,0.0358	-232.34
0.9034,0.0966	-240.76
0.9680,0.0320	-232.23
0.9124,0.0876	-233.79
0.8666,0.1334	-238.91
0.9918,0.0082	-231.60
0.9669,0.0331	-232.26
0.9112,0.0888	-240.81
0.9603,0.0397	-235.63
0.9070,0.0930	-236.22
0.8532,0.1468	-242.63
0.9912,0.0088	-231.62
0.9741,0.0259	-235.70
0.9138,0.0862	-236.11
0.9530,0.0470	-235.65
0.9260,0.0740	-235.92
0.8748,0.1252	-238.81
0.9911,0.0089	-231.62
0.9766,0.0234	-232.01
0.9145,0.0855	-233.73
0.9518,0.0482	-232.67
0.9248,0.0752	-240.96
0.8555,0.1445	-240.86
0.9893,0.0107	-231.67
0.9782,0.0218	-231.96
0.8932,0.1068	-234.36
0.9615,0.0385	-232.41
0.9180,0.0820	-238.46
0.8675,0.1325	-240.78
0.9897,0.0103	-236.23
0.9768,0.0232	-235.74
0.8803,0.1197	-238.74
0.9585,0.0415	-232.49
0.8990,0.1010	-240.74
0.8440,0.1560	-239.27
0.9883,0.0117	-231.70
0.9711,0.0289	-232.15
0.8981,0.1019	-234.21
0.9649,0.0351	-232.32
0.8814,0.1186	-236.72
0.8494,0.1506	-239.18
0.9914,0.0086	-236.36
0.9760,0.0240	-232.02
0.9142,0.0858	-233.74
0.9692,0.0308	-235.65
0.8859,0.1141	-244.82
0.8717,0.1283	-236.93
0.9934,0.0066	-231.57
0.9705,0.0295	-235.66
0.8917,0.1083	-236.51
0.9693,0.0307	-232.20
0.9059,0.0941	-238.51
0.8770,0.1230	-236.81
0.9936,0.0064	-231.56
0.9719,0.0281	-235.67
0.9012,0.0988	-236.33
0.9685,0.0315	-235.65
0.8689,0.1311	-240.77
0.9013,0.0987	-234.12
0.9950,0.0050	-231.52
0.9688,0.0312	-242.52
0.8987,0.1013	-242.93
0.9664,0.0336	-232.28
0.8589,0.1411	-237.22
0.8941,0.1059	-240.73
0.9944,0.0056	-231.54
0.9627,0.0373	-235.63
0.8938,0.1062	-236.47
0.9659,0.0341	-235.63
0.8711,0.1289	-238.85
0.8968,0.1032	-242.90
0.9941,0.0059	-231.55
0.9544,0.0456	-235.64
0.9122,0.0878	-236.14
0.9672,0.0328	-232.26
0.8741,0.1259	-234.94
0.8820,0.1180	-236.71
0.9947,0.0053	-231.53
0.9588,0.0412	-232.48
0.9239,0.0761	-235.95
0.9685,0.0315	-232.22
0.8552,0.1448	-235.53
0.9025,0.0975	-238.53
0.9952,0.0048	-231.52
0.9580,0.0420	-235.63
0.9155,0.0845	-236.08
0.9775,0.0225	-231.98
0.8599,0.1401	-240.83
0.8923,0.1077	-236.50
0.9932,0.0068	-231.57
0.9604,0.0396	-232.44
0.9094,0.0906	-236.18
0.9775,0.0225	-235.75
0.8435,0.1565	-246.01
0.9012,0.0988	-236.33
0.9923,0.0077	-231.59
0.9592,0.0408	-238.79
0.9084,0.0916	-236.20
0.9754,0.0246	-235.72
0.8542,0.1458	-239.10
0.9033,0.0967	-243.00
0.9936,0.0064	-231.56
0.9555,0.0445	-232.57
0.9006,0.0994	-242.95
0.9749,0.0251	-232.05
0.8845,0.1155	-236.66
0.8730,0.1270	-236.90
0.9937,0.0063	-231.56
0.9275,0.0725	-241.00
0.9236,0.0764	-235.96
0.9701,0.0299	-235.66
0.8847,0.1153	-240.73
0.8725,0.1275	-234.99
0.9940,0.0060	-231.55
0.9124,0.0876	-238.48
0.9278,0.0722	-233.35
0.9766,0.0234	-235.74
0.8691,0.1309	-236.99
0.9007,0.0993	-240.75
0.9947,0.0053	-231.53
0.9105,0.0895	-240.80
0.9160,0.0840	-236.07
0.9816,0.0184	-231.87
0.8744,0.1256	-236.87
0.8944,0.1056	-238.59
0.9928,0.0072	-231.58
0.9025,0.0975	-236.30
0.9050,0.0950	-234.01
0.9858,0.0142	-236.00
0.8287,0.1713	-242.70
0.8951,0.1049	-238.59
0.9923,0.0077	-236.45
0.8856,0.1144	-234.59
0.8967,0.1033	-236.41
0.9846,0.0154	-235.95
0.8370,0.1630	-244.30
0.8568,0.1432	-237.27
0.9929,0.0071	-231.58
0.8959,0.1041	-236.43
0.8979,0.1021	-240.74
0.9863,0.0137	-231.75
0.8090,0.1910	-241.39
0.8689,0.1311	-236.99
0.9949,0.0051	-231.53
0.9042,0.0958	-234.03
0.8840,0.1160	-240.73
0.9866,0.0134	-236.04
0.8014,0.1986	-244.29
0.8876,0.1124	-234.53
0.9951,0.0049	-231.52
0.9155,0.0845	-233.70
0.8802,0.1198	-240.73
0.9852,0.0148	-231.78
0.8232,0.1768	-244.27
0.8697,0.1303	-238.87
0.9967,0.0033	-231.48
0.9127,0.0873	-238.48
0.8904,0.1096	-238.63
0.9865,0.0135	-231.74
0.7989,0.2011	-240.16
0.8667,0.1333	-240.79
0.9968,0.0032	-231.48
0.9041,0.0959	-236.28
0.9113,0.0887	-238.48
0.9856,0.0144	-231.77
0.8030,0.1970	-238.67
0.8702,0.1298	-238.87
0.9973,0.0027	-231.46
0.8963,0.1037	-238.58
0.9070,0.0930	-233.95
0.9863,0.0137	-231.75
0.8213,0.1787	-241.22
0.8713,0.1287	-235.03
0.9975,0.0025	-231.46
0.8875,0.1125	-236.59
0.9203,0.0797	-233.56
0.9880,0.0120	-231.71
0.8411,0.1589	-237.65
0.8765,0.1235	-234.86
0.9973,0.0027	-231.46
0.8911,0.1089	-242.83
0.9285,0.0715	-233.33
0.9874,0.0126	-231.72
0.8495,0.1505	-239.18
0.8482,0.1518	-240.92
0.9970,0.0030	-231.47
0.8870,0.1130	-236.61
0.9207,0.0793	-236.00
0.9871,0.0129	-236.07
0.8563,0.1437	-237.28
0.8540,0.1460	-239.10
0.9966,0.0034	-231.48
0.8899,0.1101	-236.55
0.9277,0.0723	-241.00
0.9865,0.0135	-231.74
0.8719,0.1281	-240.76
0.8479,0.1521	-240.92
0.9970,0.0030	-231.47
0.8914,0.1086	-244.94
0.9398,0.0602	-235.76
0.9885,0.0115	-231.69
0.8897,0.1103	-240.73
0.8625,0.1375	-238.97
0.9974,0.0026	-231.46
0.8899,0.1101	-236.55
0.9376,0.0624	-233.07
0.9883,0.0117	-231.70
0.9054,0.0946	-238.51
0.8762,0.1238	-238.79
0.9972,0.0028	-231.47
0.8897,0.1103	-238.64
0.9400,0.0600	-238.50
0.9895,0.0105	-231.67
0.9034,0.0966	-243.00
0.8776,0.1224	-242.71
0.9972,0.0028	-231.47
0.8829,0.1171	-236.69
0.9398,0.0602	-233.01
0.9892,0.0108	-236.19
0.9090,0.0910	-238.49
0.8905,0.1095	-234.44
0.9981,0.0019	-231.44
0.9035,0.0965	-240.76
0.9263,0.0737	-240.98
0.9848,0.0152	-231.79
0.9294,0.0706	-235.88
0.8936,0.1064	-236.47
0.9977,0.0023	-231.45
0.8994,0.1006	-236.36
0.9138,0.0862	-238.47
0.9819,0.0181	-235.86
0.9160,0.0840	-233.68
0.8792,0.1208	-238.75
0.9976,0.0024	-231.46
0.9090,0.0910	-236.19
0.9054,0.0946	-233.99
0.9833,0.0167	-231.83
0.9294,0.0706	-238.46
0.8952,0.1048	-238.59
0.9984,0.0016	-231.44
0.8929,0.1071	-236.49
0.9234,0.0766	-233.47
0.9786,0.0214	-231.95
0.9229,0.0771	-233.48
0.8795,0.1205	-242.72
0.9986,0.0014	-231.43
0.8603,0.1397	-239.00
0.9469,0.0531	-232.81
0.9812,0.0188	-231.88
0.9243,0.0757	-233.45
0.8819,0.1181	-240.73
0.9988,0.0012	-231.43
0.8855,0.1145	-240.73
0.9534,0.0466	-235.65
0.9786,0.0214	-231.95
0.9310,0.0690	-233.26
0.8537,0.1463	-237.34
0.9988,0.0012	-231.42
0.8983,0.1017	-238.56
0.9620,0.0380	-235.63
0.9679,0.0321	-235.64
0.9337,0.0663	-238.47
0.8758,0.1242	-242.70
0.9983,0.0017	-231.44
0.9180,0.0820	-233.63
0.9618,0.0382	-238.85
0.9712,0.0288	-235.67
0.9239,0.0761	-238.45
0.8841,0.1159	-238.70
0.9984,0.0016	-237.89
0.9094,0.0906	-236.18
0.9400,0.0600	-233.00
0.9735,0.0265	-232.09
0.9346,0.0654	-235.81
0.8788,0.1212	-238.76
0.9978,0.0022	-231.45
0.9185,0.0815	-236.03
0.9305,0.0695	-235.86
0.9730,0.0270	-232.10
0.9245,0.0755	-235.95
0.8879,0.1121	-242.79
0.9974,0.0026	-231.46
0.9190,0.0810	-236.03
0.9168,0.0832	-238.46
0.9747,0.0253	-235.71
0.9116,0.0884	-236.15
0.8801,0.1199	-238.74
0.9974,0.0026	-231.46
0.9193,0.0807	-238.46
0.9048,0.0952	-236.26
0.9711,0.0289	-235.67
0.9153,0.0847	-233.70
0.8934,0.1066	-238.60
0.9974,0.0026	-231.46
0.9353,0.0647	-238.48
0.8726,0.1274	-238.83
0.9624,0.0376	-232.38
0.9020,0.0980	-236.31
0.9142,0.0858	-236.10
0.9974,0.0026	-231.46
0.9421,0.0579	-232.94
0.9079,0.0921	-236.21
0.9529,0.0471	-232.65
0.9103,0.0897	-238.49
0.9176,0.0824	-240.87
0.9968,0.0032	-231.48
0.9374,0.0626	-235.78
0.8956,0.1044	-236.43
0.9538,0.0462	-232.62
0.8904,0.1096	-236.54
0.9282,0.0718	-233.34
0.9972,0.0028	-231.47
0.9418,0.0582	-235.74
0.8990,0.1010	-236.37
0.9519,0.0481	-241.63
0.8742,0.1258	-236.87
0.9174,0.0826	-236.05
0.9975,0.0025	-231.46
0.9344,0.0656	-241.13
0.9163,0.0837	-238.46
0.9435,0.0565	-232.90
0.8974,0.1026	-236.40
0.9095,0.0905	-233.87
0.9970,0.0030	-231.47
0.9435,0.0565	-235.72
0.8894,0.1106	-240.73
0.9385,0.0615	-235.77
0.9111,0.0889	-233.83
0.9013,0.0987	-236.33
0.9961,0.0039	-231.50
0.9322,0.0678	-235.84
0.8849,0.1151	-240.73
0.9384,0.0616	-235.77
0.9054,0.0946	-243.03
0.9033,0.0967	-234.06
0.9964,0.0036	-231.49
0.9379,0.0621	-235.78
0.8882,0.1118	-234.51
0.9433,0.0567	-232.91
0.9105,0.0895	-245.45
0.8928,0.1072	-238.61
0.9966,0.0034	-231.48
0.9428,0.0572	-232.92
0.8763,0.1237	-238.79
0.9461,0.0539	-238.56
0.9044,0.0956	-240.77
0.8926,0.1074	-240.73
0.9957,0.0043	-231.50
0.9465,0.0535	-232.82
0.8824,0.1176	-236.70
0.9500,0.0500	-235.67
0.8806,0.1194	-236.74
0.9014,0.0986	-240.75
0.9965,0.0035	-231.48
0.9501,0.0499	-232.72
0.8409,0.1591	-242.65
0.9406,0.0594	-232.98
0.8513,0.1487	-239.15
0.8874,0.1126	-242.79
0.9968,0.0032	-231.48
0.9463,0.0537	-232.83
0.8402,0.1598	-240.99
0.9390,0.0610	-235.76
0.8638,0.1362	-242.65
0.8785,0.1215	-234.80
0.9968,0.0032	-231.48
0.9338,0.0662	-233.18
0.8388,0.1612	-244.31
0.9374,0.0626	-235.78
0.8528,0.1472	-240.88
0.9048,0.0952	-238.52
0.9971,0.0029	-237.32
0.9338,0.0662	-233.18
0.8610,0.1390	-235.35
0.9379,0.0621	-238.49
0.8461,0.1539	-242.64
0.9018,0.0982	-238.54
0.9978,0.0022	-231.45
0.9493,0.0507	-235.67
0.8813,0.1187	-236.72
0.9378,0.0622	-235.78
0.8742,0.1258	-238.81
0.8791,0.1209	-240.74
0.9975,0.0025	-231.46
0.9445,0.0555	-232.88
0.8818,0.1182	-238.72
0.9542,0.0458	-235.65
0.8948,0.1052	-236.45
0.8965,0.1035	-236.42
0.9974,0.0026	-231.46
0.9331,0.0669	-233.20
0.8718,0.1282	-236.93
0.9596,0.0404	-238.80
0.8867,0.1133	-238.67
0.8844,0.1156	-234.62
0.9963,0.0037	-231.49
0.9425,0.0575	-232.93
0.8807,0.1193	-240.73
0.9570,0.0430	-238.74
0.8973,0.1027	-236.40
0.8671,0.1329	-238.91
0.9958,0.0042	-231.50
0.9460,0.0540	-235.70
0.8773,0.1227	-236.81
0.9443,0.0557	-232.88
0.8943,0.1057	-236.46
0.8841,0.1159	-238.70
0.9959,0.0041	-231.50
0.9491,0.0509	-238.60
0.8795,0.1205	-236.76
0.9389,0.0611	-238.50
0.8783,0.1217	-238.76
0.8805,0.1195	-238.74
0.9948,0.0052	-231.53
0.9547,0.0453	-238.69
0.8725,0.1275	-238.83
0.9413,0.0587	-235.74
0.8842,0.1158	-238.70
0.8860,0.1140	-236.62
0.9960,0.0040	-231.50
0.9517,0.0483	-232.68
0.8915,0.1085	-236.51
0.9450,0.0550	-235.71
0.8791,0.1209	-244.70
0.8817,0.1183	-238.72
0.9965,0.0035	-231.49
0.9581,0.0419	-238.76
0.9020,0.0980	-234.09
0.9535,0.0465	-238.67
0.8776,0.1224	-236.80
0.8804,0.1196	-234.75
0.9956,0.0044	-231.51
0.9572,0.0428	-235.63
0.9301,0.0699	-238.46
0.9541,0.0459	-232.61
0.8782,0.1218	-238.76
0.8842,0.1158	-238.70
0.9963,0.0037	-231.49
0.9673,0.0327	-232.25
0.9302,0.0698	-238.46
0.9549,0.0451	-232.59
0.8975,0.1025	-236.40
0.8890,0.1110	-236.56
0.9967,0.0033	-231.48
0.9652,0.0348	-232.31
0.9271,0.0729	-235.91
0.9389,0.0611	-233.03
0.8794,0.1206	-236.76
0.8775,0.1225	-236.80
0.9963,0.0037	-231.49
0.9695,0.0305	-235.65
0.9045,0.0955	-236.27
0.9305,0.0695	-235.86
0.8479,0.1521	-239.20
0.8910,0.1090	-236.52
0.9962,0.0038	-231.49
0.9680,0.0320	-232.24
0.9011,0.0989	-236.33
0.9251,0.0749	-233.42
0.8522,0.1478	-237.38
0.8821,0.1179	-236.71
0.9962,0.0038	-231.49
0.9682,0.0318	-235.65
0.9064,0.0936	-236.24
0.9376,0.0624	-238.49
0.8637,0.1363	-242.65
0.9006,0.0994	-238.54
0.9973,0.0027	-231.46
0.9666,0.0334	-235.64
0.9200,0.0800	-236.01
0.9247,0.0753	-235.94
0.8536,0.1464	-239.11
0.8938,0.1062	-234.34
0.9975,0.0025	-231.46
0.9668,0.0332	-232.27
0.9121,0.0879	-236.14
0.9140,0.0860	-236.11
0.9028,0.0972	-242.99
0.8970,0.1030	-234.25
0.9969,0.0031	-231.47
0.9671,0.0329	-235.64
0.9103,0.0897	-240.80
0.8843,0.1157	-238.69
0.8635,0.1365	-237.11
0.9028,0.0972	-238.53
0.9965,0.0035	-231.48
0.9577,0.0423	-235.63
0.9211,0.0789	-236.00
0.8946,0.1054	-240.73
0.8597,0.1403	-240.83
0.9029,0.0971	-234.07
0.9968,0.0032	-231.48
0.9532,0.0468	-232.64
0.9150,0.0850	-233.71
0.9018,0.0982	-234.10
0.8726,0.1274	-238.83
0.9063,0.0937	-240.78
0.9961,0.0039	-231.50
0.9540,0.0460	-235.65
0.9139,0.0861	-233.75
0.9210,0.0790	-236.00
0.8729,0.1271	-236.90
0.9268,0.0732	-235.91
0.9964,0.0036	-231.49
0.9521,0.0479	-232.67
0.9219,0.0781	-233.51
0.9127,0.0873	-236.13
0.8320,0.1680	-242.68
0.9214,0.0786	-235.99
0.9970,0.0030	-231.47
0.9489,0.0511	-235.68
0.8954,0.1046	-236.44
0.8949,0.1051	-240.73
0.8325,0.1675	-241.08
0.9198,0.0802	-233.57
0.9956,0.0044	-231.51
0.9473,0.0527	-232.80
0.8525,0.1475	-235.62
0.8874,0.1126	-238.66
0.8561,0.1439	-239.07
0.9219,0.0781	-235.98
0.9947,0.0053	-231.53
0.9528,0.0472	-238.66
0.8228,0.1772	-239.66
0.8958,0.1042	-240.73
0.8595,0.1405	-240.83
0.9422,0.0578	-232.94
0.9960,0.0040	-231.50
0.9487,0.0513	-235.68
0.8105,0.1895	-242.82
0.8991,0.1009	-238.56
0.8657,0.1343	-238.93
0.9502,0.0498	-232.72
0.9963,0.0037	-237.09
0.9550,0.0450	-235.64
0.8091,0.1909	-247.16
0.9122,0.0878	-236.14
0.8278,0.1722	-242.70
0.9449,0.0551	-232.87
0.9962,0.0038	-231.49
0.9640,0.0360	-232.34
0.8112,0.1888	-239.90
0.9040,0.0960	-236.28
0.7741,0.2259	-241.98
0.9464,0.0536	-232.82
0.9966,0.0034	-231.48
0.9554,0.0446	-232.58
0.8289,0.1711	-239.54
0.9026,0.0974	-238.53
0.7646,0.2354	-240.99
0.9357,0.0643	-246.51
0.9963,0.0037	-231.49
0.9518,0.0482	-232.67
0.8271,0.1729	-236.45
0.8846,0.1154	-236.65
0.7901,0.2099	-243.02
0.9378,0.0622	-238.49
0.9953,0.0047	-231.52
0.9578,0.0422	-238.76
0.8104,0.1896	-239.91
0.8912,0.1088	-238.62
0.7384,0.2616	-245.85
0.9221,0.0779	-235.98
0.9942,0.0058	-231.54
0.9535,0.0465	-238.67
0.8256,0.1744	-239.61
0.9079,0.0921	-233.92
0.7393,0.2607	-241.68
0.9240,0.0760	-233.46
0.9936,0.0064	-231.56
0.9374,0.0626	-233.07
0.7762,0.2238	-243.19
0.9040,0.0960	-238.52
0.7065,0.2935	-245.29
0.9488,0.0512	-238.60
0.9938,0.0062	-231.55
0.9352,0.0648	-233.14
0.7834,0.2166	-248.24
0.9067,0.0933	-236.23
0.7031,0.2969	-245.35
0.9466,0.0534	-235.69
0.9942,0.0058	-231.54
0.9368,0.0632	-238.48
0.7807,0.2193	-244.40
0.9035,0.0965	-234.05
0.6897,0.3103	-245.59
0.9535,0.0465	-235.65
0.9953,0.0047	-231.51
0.9159,0.0841	-240.85
0.7743,0.2257	-239.52
0.9051,0.0949	-238.51
0.7313,0.2687	-242.91
0.9489,0.0511	-232.76
0.9952,0.0048	-231.52
0.8911,0.1089	-236.52
0.7447,0.2553	-244.74
0.9168,0.0832	-233.66
0.7582,0.2418	-242.30
0.9409,0.0591	-235.74
0.9943,0.0057	-231.54
0.8865,0.1135	-238.67
0.7443,0.2557	-245.81
0.9196,0.0804	-233.58
0.7817,0.2183	-245.67
0.9412,0.0588	-235.74
0.9945,0.0055	-231.54
0.8925,0.1075	-236.50
0.7702,0.2298	-240.85
0.9255,0.0745	-240.97
0.7697,0.2303	-245.69
0.9511,0.0489	-232.69
0.9943,0.0057	-231.54
0.8722,0.1278	-238.84
0.7596,0.2404	-243.42
0.9464,0.0536	-235.69
0.7630,0.2370	-242.20
0.9570,0.0430	-235.64
0.9939,0.0061	-231.55
0.8641,0.1359	-238.95
0.7341,0.2659	-244.87
0.9412,0.0588	-238.51
0.7483,0.2517	-242.52
0.9594,0.0406	-235.63
0.9943,0.0057	-231.54
0.8456,0.1544	-242.64
0.7456,0.2544	-245.80
0.9448,0.0552	-232.87
0.7832,0.2168	-241.81
0.9576,0.0424	-235.63
0.9940,0.0060	-231.55
0.8351,0.1649	-241.05
0.7800,0.2200	-243.14
0.9564,0.0436	-238.73
0.7673,0.2327	-243.31
0.9514,0.0486	-232.69
0.9935,0.0065	-231.56
0.8143,0.1857	-239.83
0.7805,0.2195	-244.40
0.9518,0.0482	-232.67
0.7426,0.2574	-246.88
0.9602,0.0398	-232.45
0.9943,0.0057	-231.54
0.8500,0.1500	-242.64
0.7880,0.2120	-243.04
0.9452,0.0548	-235.70
0.7368,0.2632	-242.78
0.9555,0.0445	-235.64
0.9934,0.0066	-231.56
0.8707,0.1293	-240.77
0.8165,0.1835	-238.29
0.9355,0.0645	-235.80
0.7344,0.2656	-243.85
0.9583,0.0417	-235.63
0.9944,0.0056	-231.54
0.8677,0.1323	-237.02
0.8361,0.1639	-239.41
0.9446,0.0554	-235.71
0.7228,0.2772	-246.95
0.9488,0.0512	-235.68
0.9948,0.0052	-231.53
0.8703,0.1297	-238.86
0.8336,0.1664	-239.45
0.9442,0.0558	-235.71
0.7465,0.2535	-244.72
0.9482,0.0518	-235.68
0.9948,0.0052	-231.53
0.8946,0.1054	-238.59
0.8391,0.1609	-241.00
0.9490,0.0510	-232.75
0.7482,0.2518	-240.34
0.9397,0.0603	-235.76
0.9951,0.0049	-231.52
0.9060,0.0940	-236.24
0.8682,0.1318	-238.89
0.9522,0.0478	-232.66
0.7005,0.2995	-244.55
0.9569,0.0431	-232.53
0.9942,0.0058	-231.54
0.8945,0.1055	-236.46
0.8715,0.1285	-236.93
0.9587,0.0413	-232.49
0.7302,0.2698	-243.93
0.9609,0.0391	-232.43
0.9932,0.0068	-231.57
0.8969,0.1031	-240.74
0.8886,0.1114	-238.65
0.9557,0.0443	-241.78
0.7591,0.2409	-244.58
0.9588,0.0412	-232.48
0.9934,0.0066	-231.57
0.8866,0.1134	-234.56
0.8839,0.1161	-238.70
0.9580,0.0420	-232.50
0.7225,0.2775	-244.08
0.9486,0.0514	-232.76
0.9921,0.0079	-231.60
0.8878,0.1122	-240.73
0.8975,0.1025	-238.57
0.9647,0.0353	-232.32
0.7382,0.2618	-246.89
0.9461,0.0539	-235.70
0.9941,0.0059	-231.55
0.8776,0.1224	-234.83
0.9003,0.0997	-236.35
0.9610,0.0390	-235.63
0.7262,0.2738	-242.06
0.9367,0.0633	-238.48
0.9950,0.0050	-231.52
0.8847,0.1153	-234.61
0.8940,0.1060	-238.60
0.9624,0.0376	-232.39
0.7221,0.2779	-244.09
0.9347,0.0653	-235.81
0.9939,0.0061	-231.55
0.8667,0.1333	-237.04
0.9014,0.0986	-238.54
0.9608,0.0392	-238.83
0.7575,0.2425	-244.60
0.9357,0.0643	-233.12
0.9936,0.0064	-231.56
0.8655,0.1345	-242.65
0.9302,0.0698	-241.05
0.9594,0.0406	-235.63
0.7734,0.2266	-243.22
0.9382,0.0618	-235.77
0.9927,0.0073	-231.58
0.9005,0.0995	-234.14
0.9164,0.0836	-236.07
0.9596,0.0404	-232.46
0.7725,0.2275	-243.24
0.9304,0.0696	-241.05
0.9924,0.0076	-231.59
0.9141,0.0859	-236.11
0.9023,0.0977	-234.09
0.9616,0.0384	-238.85
0.7628,0.2372	-243.38
0.9090,0.0910	-236.19
0.9888,0.0112	-231.68
0.9301,0.0699	-233.28
0.8964,0.1036	-234.26
0.9657,0.0343	-232.30
0.7729,0.2271	-243.23
0.9301,0.0699	-235.87
0.9918,0.0082	-231.61
0.9219,0.0781	-235.98
0.8940,0.1060	-236.47
0.9683,0.0317	-232.23
0.7675,0.2325	-242.11
0.9089,0.0911	-233.89
0.9907,0.0093	-231.64
0.9254,0.0746	-233.41
0.9003,0.0997	-234.15
0.9715,0.0285	-232.14
0.7293,0.2707	-241.97
0.9170,0.0830	-236.06
0.9897,0.0103	-231.66
0.9272,0.0728	-238.45
0.9126,0.0874	-236.13
0.9684,0.0316	-232.22
0.7148,0.2852	-246.07
0.9030,0.0970	-234.07
0.9890,0.0110	-231.68
0.9287,0.0713	-233.32
0.9139,0.0861	-236.11
0.9679,0.0321	-232.24
0.7286,0.2714	-243.96
0.8967,0.1033	-242.90
0.9876,0.0124	-231.72
0.9293,0.0707	-235.88
0.9063,0.0937	-233.97
0.9719,0.0281	-232.13
0.6708,0.3292	-244.55
0.9062,0.0938	-233.97
0.9857,0.0143	-231.77
0.9177,0.0823	-238.46
0.9281,0.0719	-235.90
0.9695,0.0305	-232.19
0.6893,0.3107	-244.80
0.9035,0.0965	-234.05
0.9829,0.0171	-231.84
0.9053,0.0947	-236.26
0.9388,0.0612	-233.04
0.9712,0.0288	-232.15
0.6596,0.3404	-244.23
0.9009,0.0991	-240.75
0.9812,0.0188	-231.88
0.8927,0.1073	-238.61
0.9439,0.0561	-232.89
0.9665,0.0335	-235.64
0.7295,0.2705	-245.93
0.9160,0.0840	-233.68
0.9736,0.0264	-232.08
0.8632,0.1368	-238.96
0.9498,0.0502	-235.67
0.9673,0.0327	-232.25
0.7238,0.2762	-245.02
0.9172,0.0828	-236.06
0.9718,0.0282	-232.13
0.8287,0.1713	-239.54
0.9388,0.0612	-238.50
0.9676,0.0324	-232.25
0.8105,0.1895	-242.82
0.9201,0.0799	-236.01
0.9721,0.0279	-235.68
0.8576,0.1424	-246.23
0.9205,0.0795	-243.35
0.9575,0.0425	-232.52
0.8159,0.1841	-239.80
0.9334,0.0666	-235.83
0.9696,0.0304	-232.19
0.8540,0.1460	-239.10
0.9247,0.0753	-233.43
0.9590,0.0410	-232.48
0.8082,0.1918	-239.96
0.9349,0.0651	-233.15
0.9718,0.0282	-235.67
0.8288,0.1712	-237.97
0.9061,0.0939	-236.24
0.9661,0.0339	-232.29
0.8208,0.1792	-238.18
0.9314,0.0686	-238.46
0.9654,0.0346	-232.30
0.8428,0.1572	-242.65
0.9064,0.0936	-238.51
0.9696,0.0304	-232.19
0.8212,0.1788	-238.17
0.9385,0.0615	-241.22
0.9695,0.0305	-239.11
0.8940,0.1060	-240.73
0.9213,0.0787	-233.53
0.9699,0.0301	-232.18
0.8446,0.1554	-242.64
0.9409,0.0591	-235.74
0.9649,0.0351	-232.32
0.9036,0.0964	-234.05
0.9302,0.0698	-233.28
0.9747,0.0253	-239.36
0.8145,0.1855	-239.83
0.9415,0.0585	-232.96
0.9653,0.0347	-232.31
0.9211,0.0789	-236.00
0.9333,0.0667	-235.83
0.9763,0.0237	-232.01
0.8253,0.1747	-238.06
0.9362,0.0638	-238.48
0.9651,0.0349	-235.63
0.9186,0.0814	-236.03
0.9303,0.0697	-233.27
0.9801,0.0199	-235.81
0.8298,0.1702	-241.11
0.9437,0.0563	-232.90
0.9674,0.0326	-235.64
0.9061,0.0939	-238.51
0.9130,0.0870	-233.77
0.9788,0.0212	-231.95
0.8609,0.1391	-240.82
0.9415,0.0585	-238.52
0.9715,0.0285	-232.14
0.9325,0.0675	-233.21
0.9032,0.0968	-236.29
0.9725,0.0275	-232.11
0.8513,0.1487	-239.15
0.9274,0.0726	-233.36
0.9734,0.0266	-232.09
0.9201,0.0799	-240.90
0.9185,0.0815	-236.03
0.9798,0.0202	-231.92
0.8886,0.1114	-236.57
0.9214,0.0786	-235.99
0.9741,0.0259	-235.70
0.9399,0.0601	-233.01
0.9147,0.0853	-236.10
0.9760,0.0240	-232.02
0.9164,0.0836	-238.46
0.9142,0.0858	-238.47
0.9706,0.0294	-235.66
0.9249,0.0751	-235.94
0.9065,0.0935	-236.23
0.9738,0.0262	-232.08
0.9197,0.0803	-236.02
0.8917,0.1083	-238.62
0.9708,0.0292	-232.16
0.9228,0.0772	-238.45
0.9036,0.0964	-236.29
0.9786,0.0214	-231.95
0.9187,0.0813	-233.61
0.8944,0.1056	-238.59
0.9701,0.0299	-235.66
0.9271,0.0729	-235.91
0.8897,0.1103	-238.64
0.9820,0.0180	-231.86
0.9378,0.0622	-238.49
0.8744,0.1256	-234.93
0.9626,0.0374	-235.63
0.9342,0.0658	-233.16
0.8951,0.1049	-242.88
0.9854,0.0146	-231.77
0.9397,0.0603	-233.01
0.8642,0.1358	-237.10
0.9679,0.0321	-232.24
0.9432,0.0568	-241.34
0.8869,0.1131	-236.61
0.9837,0.0163	-231.82
0.9359,0.0641	-235.80
0.8239,0.1761	-239.64
0.9682,0.0318	-235.65
0.9378,0.0622	-238.49
0.8867,0.1133	-238.67
0.9865,0.0135	-231.74
0.9356,0.0644	-238.48
0.8126,0.1874	-244.27
0.9702,0.0298	-232.18
0.9402,0.0598	-235.75
0.8898,0.1102	-236.55
0.9848,0.0152	-235.96
0.9299,0.0701	-235.87
0.8113,0.1887	-238.44
0.9692,0.0308	-235.65
0.9375,0.0625	-241.20
0.9044,0.0956	-236.27
0.9870,0.0130	-231.73
0.9198,0.0802	-236.01
0.8438,0.1562	-239.27
0.9727,0.0273	-232.11
0.9410,0.0590	-232.97
0.8990,0.1010	-236.37
0.9882,0.0118	-231.70
0.9173,0.0827	-236.05
0.8264,0.1736	-236.47
0.9619,0.0381	-238.86
0.9441,0.0559	-235.71
0.9077,0.0923	-233.93
0.9879,0.0121	-231.71
0.9518,0.0482	-232.67
0.8205,0.1795	-236.67
0.9656,0.0344	-232.30
0.9412,0.0588	-235.74
0.9128,0.0872	-236.13
0.9850,0.0150	-231.78
0.9433,0.0567	-232.91
0.8139,0.1861	-247.22
0.9674,0.0326	-232.25
0.9483,0.0517	-235.68
0.9235,0.0765	-238.45
0.9818,0.0182	-235.85
0.9388,0.0612	-241.23
0.7845,0.2155	-241.79
0.9696,0.0304	-239.12
0.9490,0.0510	-235.68
0.9256,0.0744	-235.93
0.9792,0.0208	-235.79
0.9437,0.0563	-235.72
0.7879,0.2121	-246.98
0.9710,0.0290	-239.18
0.9544,0.0456	-232.60
0.9297,0.0703	-233.29
0.9807,0.0193	-235.83
0.9518,0.0482	-235.66
0.7661,0.2339	-243.33
0.9743,0.0257	-232.07
0.9641,0.0359	-232.34
0.9427,0.0573	-232.93
0.9797,0.0203	-235.80
0.9421,0.0579	-235.73
0.7543,0.2457	-241.26
0.9757,0.0243	-232.03
0.9638,0.0362	-232.35
0.9292,0.0708	-241.03
0.9750,0.0250	-235.71
0.9476,0.0524	-235.69
0.7161,0.2839	-246.06
0.9720,0.0280	-232.13
0.9556,0.0444	-232.57
0.9485,0.0515	-241.50
0.9764,0.0236	-239.45
0.9538,0.0462	-235.65
0.7056,0.2944	-245.31
0.9733,0.0267	-232.09
0.9530,0.0470	-235.65
0.9413,0.0587	-232.97
0.9755,0.0245	-232.04
0.9601,0.0399	-235.63
0.7534,0.2466	-244.64
0.9640,0.0360	-232.34
0.9449,0.0551	-238.55
0.9333,0.0667	-238.47
0.9775,0.0225	-235.75
0.9620,0.0380	-232.40
0.7836,0.2164	-240.52
0.9636,0.0364	-235.63
0.9476,0.0524	-235.69
0.9341,0.0659	-233.17
0.9749,0.0251	-239.37
0.9684,0.0316	-235.65
0.7639,0.2361	-242.18
0.9645,0.0355	-235.63
0.9448,0.0552	-238.55
0.9288,0.0712	-241.02
0.9730,0.0270	-232.10
0.9672,0.0328	-232.26
0.7904,0.2096	-245.67
0.9683,0.0317	-232.23
0.9302,0.0698	-233.28
0.9046,0.0954	-238.52
0.9714,0.0286	-232.14
0.9658,0.0342	-232.29
0.7679,0.2321	-240.91
0.9676,0.0324	-232.25
0.9371,0.0629	-235.78
0.9126,0.0874	-233.78
0.9656,0.0344	-232.30
0.9637,0.0363	-232.35
0.7391,0.2609	-244.81
0.9689,0.0311	-232.21
0.9339,0.0661	-233.17
0.8978,0.1022	-238.57
0.9650,0.0350	-232.31
0.9553,0.0447	-235.64
0.7567,0.2433	-243.47
0.9537,0.0463	-235.65
0.9338,0.0662	-233.18
0.8874,0.1126	-236.60
0.9629,0.0371	-232.37
0.9471,0.0529	-238.57
0.7309,0.2691	-244.92
0.9547,0.0453	-238.69
0.9369,0.0631	-235.79
0.8633,0.1367	-235.27
0.9574,0.0426	-232.52
0.9315,0.0685	-233.24
0.6583,0.3417	-247.56
0.9599,0.0401	-232.45
0.9472,0.0528	-232.80
0.8486,0.1514	-237.46
0.9625,0.0375	-232.38
0.9537,0.0463	-232.62
0.6330,0.3670	-246.86
0.9604,0.0396	-235.63
0.9484,0.0516	-232.77
0.8424,0.1576	-240.97
0.9662,0.0338	-232.28
0.9538,0.0462	-241.70
0.6347,0.3653	-246.27
0.9691,0.0309	-235.65
0.9442,0.0558	-235.71
0.8751,0.1249	-234.91
0.9518,0.0482	-238.64
0.9307,0.0693	-233.26
0.6163,0.3837	-245.89
0.9601,0.0399	-232.45
0.9363,0.0637	-233.10
0.8591,0.1409	-239.02
0.9508,0.0492	-235.66
0.9249,0.0751	-235.94
0.6255,0.3745	-247.06
0.9411,0.0589	-232.97
0.9246,0.0754	-238.45
0.8658,0.1342	-235.20
0.9419,0.0581	-238.52
0.9101,0.0899	-240.80
0.6212,0.3788	-248.16
0.9317,0.0683	-235.85
0.9187,0.0813	-236.03
0.8662,0.1338	-237.05
0.9303,0.0697	-235.87
0.9199,0.0801	-236.01
0.6470,0.3530	-248.33
0.9158,0.0842	-240.85
0.9344,0.0656	-238.47
0.8698,0.1302	-242.67
0.9416,0.0584	-232.96
0.9152,0.0848	-233.71
0.6545,0.3455	-247.61
0.9225,0.0775	-238.45
0.9440,0.0560	-232.89
0.8778,0.1222	-236.80
0.9483,0.0517	-235.68
0.9231,0.0769	-235.97
0.6632,0.3368	-244.10
0.9261,0.0739	-235.92
0.9452,0.0548	-232.86
0.8720,0.1280	-236.92
0.9394,0.0606	-235.76
0.9110,0.0890	-236.16
0.7179,0.2821	-241.37
0.9191,0.0809	-238.46
0.9418,0.0582	-232.95
0.8729,0.1271	-246.54
0.9489,0.0511	-232.75
0.9003,0.0997	-234.15
0.7169,0.2831	-246.05
0.9221,0.0779	-235.98
0.9437,0.0563	-232.90
0.8874,0.1126	-234.53
0.9550,0.0450	-232.59
0.9089,0.0911	-233.89
0.7497,0.2503	-242.49
0.9158,0.0842	-236.08
0.9354,0.0646	-235.80
0.8932,0.1068	-240.73
0.9593,0.0407	-238.79
0.9152,0.0848	-238.47
0.7651,0.2349	-240.98
0.8970,0.1030	-238.57
0.9269,0.0731	-233.37
0.8879,0.1121	-236.59
0.9607,0.0393	-232.43
0.9137,0.0863	-233.75
0.8287,0.1713	-239.54
0.9060,0.0940	-238.51
0.9231,0.0769	-238.45
0.8744,0.1256	-234.93
0.9544,0.0456	-232.60
0.9222,0.0778	-235.98
0.8055,0.1945	-241.44
0.9042,0.0958	-238.52
0.8980,0.1020	-238.56
0.8957,0.1043	-240.73
0.9536,0.0464	-232.63
0.9324,0.0676	-233.22
0.7858,0.2142	-241.77
0.9161,0.0839	-240.85
0.8774,0.1226	-236.81
0.9034,0.0966	-238.53
0.9477,0.0523	-232.79
0.9237,0.0763	-233.46
0.7504,0.2496	-241.37
0.9226,0.0774	-240.93
0.8958,0.1042	-238.58
0.9130,0.0870	-236.12
0.9431,0.0569	-232.92
0.9265,0.0735	-240.99
0.7478,0.2522	-242.53
0.9372,0.0628	-233.08
0.8643,0.1357	-238.95
0.8861,0.1139	-236.62
0.9278,0.0722	-243.56
0.9344,0.0656	-238.47
0.7559,0.2441	-243.48
0.9429,0.0571	-235.73
0.8679,0.1321	-237.01
0.8790,0.1210	-240.74
0.9175,0.0825	-240.87
0.9128,0.0872	-243.17
0.7462,0.2538	-241.49
0.9444,0.0556	-232.88
0.8521,0.1479	-239.13
0.8595,0.1405	-235.40
0.9055,0.0945	-238.51
0.9027,0.0973	-234.08
0.7833,0.2167	-244.38
0.9444,0.0556	-232.88
0.8578,0.1422	-240.84
0.8205,0.1795	-239.71
0.9224,0.0776	-235.98
0.9194,0.0806	-233.59
0.7988,0.2012	-242.92
0.9599,0.0401	-235.63
0.8706,0.1294	-240.77
0.8459,0.1541	-240.94
0.9408,0.0592	-235.75
0.9231,0.0769	-238.45
0.8141,0.1859	-242.79
0.9554,0.0446	-235.64
0.8702,0.1298	-246.48
0.8375,0.1625	-239.38
0.9385,0.0615	-233.05
0.9367,0.0633	-233.09
0.7890,0.2110	-239.07
0.9527,0.0473	-232.65
0.8395,0.1605	-244.31
0.8464,0.1536	-240.93
0.9309,0.0691	-233.26
0.9513,0.0487	-235.66
0.7686,0.2314	-240.89
0.9473,0.0527	-232.80
0.7876,0.2124	-244.36
0.8077,0.1923	-239.97
0.9423,0.0577	-235.73
0.9437,0.0563	-235.72
0.7782,0.2218	-243.16
0.9451,0.0549	-232.86
0.7935,0.2065	-245.67
0.8276,0.1724	-241.13
0.9354,0.0646	-238.48
0.9376,0.0624	-233.07
0.7737,0.2263	-241.99
0.9440,0.0560	-235.72
0.7883,0.2117	-241.72
0.8375,0.1625	-241.02
0.9344,0.0656	-233.16
0.9297,0.0703	-233.29
0.7605,0.2395	-243.41
0.9478,0.0522	-238.58
0.8045,0.1955	-242.87
0.8269,0.1731	-241.14
0.9246,0.0754	-233.44
0.9238,0.0762	-233.46
0.7659,0.2341	-243.33
0.9496,0.0504	-235.67
0.8338,0.1662	-242.67
0.8581,0.1419	-237.24
0.9339,0.0661	-235.82
0.9155,0.0845	-233.70
0.7593,0.2407	-242.28
0.9483,0.0517	-232.77
0.8211,0.1789	-239.69
0.8520,0.1480	-239.13
0.9306,0.0694	-235.86
0.9188,0.0812	-236.03
0.7479,0.2521	-241.44
0.9553,0.0447	-235.64
0.8611,0.1389	-235.34
0.8762,0.1238	-240.74
0.9192,0.0808	-236.02
0.9233,0.0767	-235.96
0.7552,0.2448	-243.49
0.9580,0.0420	-232.51
0.8922,0.1078	-236.50
0.8906,0.1094	-238.63
0.9279,0.0721	-238.45
0.9310,0.0690	-233.26
0.7614,0.2386	-244.56
0.9511,0.0489	-238.63
0.8902,0.1098	-238.63
0.8938,0.1062	-236.47
0.9110,0.0890	-245.46
0.9417,0.0583	-232.95
0.7611,0.2389	-242.24
0.9451,0.0549	-232.86
0.9171,0.0829	-233.65
0.8806,0.1194	-238.74
0.8944,0.1056	-238.59
0.9415,0.0585	-232.96
0.7287,0.2713	-241.98
0.9390,0.0610	-235.76
0.8986,0.1014	-238.56
0.8882,0.1118	-238.65
0.9008,0.0992	-236.34
0.9428,0.0572	-238.53
0.7357,0.2643	-244.85
0.9581,0.0419	-235.63
0.8877,0.1123	-238.66
0.8645,0.1355	-237.09
0.9258,0.0742	-235.93
0.9317,0.0683	-235.85
0.7769,0.2231	-244.43
0.9384,0.0616	-235.77
0.8744,0.1256	-240.75
0.8606,0.1394	-244.46
0.9396,0.0604	-233.01
0.9248,0.0752	-233.43
0.7844,0.2156	-243.08
0.9319,0.0681	-235.85
0.8969,0.1031	-236.41
0.8584,0.1416	-242.64
0.9473,0.0527	-232.80
0.9146,0.0854	-236.10
0.7739,0.2261	-241.99
0.9351,0.0649	-235.81
0.8954,0.1046	-236.44
0.8452,0.1548	-239.25
0.9508,0.0492	-238.62
0.9194,0.0806	-236.02
0.7975,0.2025	-241.57
0.9256,0.0744	-235.93
0.9187,0.0813	-236.03
0.8419,0.1581	-235.96
0.9307,0.0693	-235.86
0.9273,0.0727	-235.91
0.8047,0.1953	-242.87
0.9458,0.0542	-241.42
0.9258,0.0742	-235.93
0.8516,0.1484	-240.89
0.9170,0.0830	-236.06
0.9325,0.0675	-233.21
0.7999,0.2001	-240.14
0.9504,0.0496	-232.71
0.9304,0.0696	-233.27
0.8541,0.1459	-240.87
0.9271,0.0729	-235.91
0.9318,0.0682	-233.23
0.7977,0.2023	-241.56
0.9474,0.0526	-232.80
0.9063,0.0937	-238.51
0.8514,0.1486	-242.63
0.9402,0.0598	-233.00
0.9163,0.0837	-233.68
0.8086,0.1914	-239.95
0.9353,0.0647	-233.13
0.8958,0.1042	-238.58
0.8462,0.1538	-242.64
0.9422,0.0578	-241.31
0.9055,0.0945	-238.51
0.7809,0.2191	-241.86
0.9179,0.0821	-233.63
0.8922,0.1078	-238.61
0.8656,0.1344	-235.20
0.9410,0.0590	-235.74
0.9209,0.0791	-236.00
