#isoforms=['ENSG00000211445.SE.0.A.up_ENSG00000211445.SE.0.A.SE1_ENSG00000211445.SE.0.A.dn','ENSG00000211445.SE.0.B.up_ENSG00000211445.SE.0.B.dn']	exon_lens=('ENSG00000211445.SE.0.A.up',136),('ENSG00000211445.SE.0.A.SE1',426),('ENSG00000211445.SE.0.A.dn',154),('ENSG00000211445.SE.0.B.up',179),('ENSG00000211445.SE.0.B.dn',154)	iters=5000	burn_in=500	lag=10	percent_accept=90.99	proposal_type=drift	counts=(0,0):416,(0,1):2250,(1,0):17,(1,1):633	assigned_counts=0:20,1:2880	chrom=chr5	strand=+	mRNA_starts=151020606,151020563	mRNA_ends=151025493,151025493
sampled_psi	log_score
0.0024,0.9976	-16190.29
0.0024,0.9976	-16184.26
0.0026,0.9974	-16184.27
0.0032,0.9968	-16179.20
0.0026,0.9974	-16178.28
0.0032,0.9968	-16184.83
0.0030,0.9970	-16184.53
0.0021,0.9979	-16190.67
0.0027,0.9973	-16184.31
0.0036,0.9964	-16185.62
0.0024,0.9976	-16178.23
0.0036,0.9964	-16191.33
0.0024,0.9976	-16184.26
0.0019,0.9981	-16184.88
0.0022,0.9978	-16190.46
0.0036,0.9964	-16185.72
0.0021,0.9979	-16190.57
0.0025,0.9975	-16184.24
0.0030,0.9970	-16184.61
0.0024,0.9976	-16184.25
0.0026,0.9974	-16184.25
0.0034,0.9966	-16196.56
0.0027,0.9973	-16196.13
0.0027,0.9973	-16190.22
0.0028,0.9972	-16184.38
0.0023,0.9977	-16196.47
0.0024,0.9976	-16184.24
0.0034,0.9966	-16190.84
0.0036,0.9964	-16196.92
0.0034,0.9966	-16196.60
0.0026,0.9974	-16178.33
0.0020,0.9980	-16196.96
0.0023,0.9977	-16178.22
0.0033,0.9967	-16185.01
0.0026,0.9974	-16190.21
0.0030,0.9970	-16178.79
0.0028,0.9972	-16207.90
0.0019,0.9981	-16184.75
0.0031,0.9969	-16184.68
0.0032,0.9968	-16202.11
0.0023,0.9977	-16178.22
0.0036,0.9964	-16208.11
0.0031,0.9969	-16190.50
0.0018,0.9982	-16184.95
0.0033,0.9967	-16196.41
0.0037,0.9963	-16197.02
0.0025,0.9975	-16196.19
0.0037,0.9963	-16197.03
0.0028,0.9972	-16184.38
0.0017,0.9983	-16178.97
0.0038,0.9962	-16180.52
0.0039,0.9961	-16191.94
0.0029,0.9971	-16196.16
0.0041,0.9959	-16192.54
0.0030,0.9970	-16178.80
0.0017,0.9983	-16185.49
0.0036,0.9964	-16219.38
0.0034,0.9966	-16196.59
0.0024,0.9976	-16184.25
0.0040,0.9960	-16197.64
0.0027,0.9973	-16184.32
0.0018,0.9982	-16178.86
0.0044,0.9956	-16187.94
0.0037,0.9963	-16185.99
0.0025,0.9975	-16196.21
0.0042,0.9958	-16192.67
0.0028,0.9972	-16207.86
0.0018,0.9982	-16178.78
0.0045,0.9955	-16188.00
0.0042,0.9958	-16187.16
0.0024,0.9976	-16184.25
0.0041,0.9959	-16198.00
0.0028,0.9972	-16184.35
0.0024,0.9976	-16178.22
0.0043,0.9957	-16220.16
0.0036,0.9964	-16185.59
0.0019,0.9981	-16178.64
0.0037,0.9963	-16196.99
0.0034,0.9966	-16190.91
0.0026,0.9974	-16190.21
0.0040,0.9960	-16186.62
0.0033,0.9967	-16196.40
0.0015,0.9985	-16179.78
0.0032,0.9968	-16190.65
0.0033,0.9967	-16184.95
0.0027,0.9973	-16178.37
0.0036,0.9964	-16208.19
0.0038,0.9962	-16191.67
0.0014,0.9986	-16179.95
0.0037,0.9963	-16202.61
0.0032,0.9968	-16184.89
0.0023,0.9977	-16184.28
0.0031,0.9969	-16196.29
0.0036,0.9964	-16180.07
0.0012,0.9988	-16181.04
0.0040,0.9960	-16186.51
0.0027,0.9973	-16178.38
0.0024,0.9976	-16196.36
0.0029,0.9971	-16190.34
0.0034,0.9966	-16185.18
0.0016,0.9984	-16179.44
0.0036,0.9964	-16185.66
0.0027,0.9973	-16184.29
0.0021,0.9979	-16190.65
0.0034,0.9966	-16202.31
0.0033,0.9967	-16185.03
0.0016,0.9984	-16185.96
0.0033,0.9967	-16196.45
0.0023,0.9977	-16178.22
0.0019,0.9981	-16191.00
0.0031,0.9969	-16190.53
0.0033,0.9967	-16185.08
0.0015,0.9985	-16186.29
0.0030,0.9970	-16190.36
0.0022,0.9978	-16190.44
0.0021,0.9979	-16190.72
0.0027,0.9973	-16190.22
0.0035,0.9965	-16196.79
0.0016,0.9984	-16185.60
0.0026,0.9974	-16190.21
0.0027,0.9973	-16184.29
0.0022,0.9978	-16202.71
0.0026,0.9974	-16202.13
0.0037,0.9963	-16208.30
0.0019,0.9981	-16178.60
0.0028,0.9972	-16184.35
0.0028,0.9972	-16178.53
0.0021,0.9979	-16184.49
0.0027,0.9973	-16184.29
0.0037,0.9963	-16197.05
0.0016,0.9984	-16179.35
0.0030,0.9970	-16184.58
0.0025,0.9975	-16184.24
0.0020,0.9980	-16190.93
0.0023,0.9977	-16184.30
0.0028,0.9972	-16184.41
0.0015,0.9985	-16185.99
0.0025,0.9975	-16184.24
0.0025,0.9975	-16184.24
0.0024,0.9976	-16190.32
0.0016,0.9984	-16191.99
0.0030,0.9970	-16178.83
0.0015,0.9985	-16186.10
0.0027,0.9973	-16178.40
0.0033,0.9967	-16196.40
0.0022,0.9978	-16178.25
0.0017,0.9983	-16185.36
0.0025,0.9975	-16190.23
0.0020,0.9980	-16184.72
0.0029,0.9971	-16184.45
0.0032,0.9968	-16184.81
0.0023,0.9977	-16190.41
0.0017,0.9983	-16185.25
0.0025,0.9975	-16184.25
0.0019,0.9981	-16197.24
0.0024,0.9976	-16190.26
0.0034,0.9966	-16185.20
0.0028,0.9972	-16178.53
0.0023,0.9977	-16184.32
0.0023,0.9977	-16196.39
0.0021,0.9979	-16196.72
0.0024,0.9976	-16178.22
0.0028,0.9972	-16184.38
0.0028,0.9972	-16184.39
0.0030,0.9970	-16184.61
0.0025,0.9975	-16196.21
0.0019,0.9981	-16191.06
0.0023,0.9977	-16178.22
0.0031,0.9969	-16196.26
0.0027,0.9973	-16190.22
0.0032,0.9968	-16184.81
0.0025,0.9975	-16202.20
0.0020,0.9980	-16178.47
0.0022,0.9978	-16190.50
0.0025,0.9975	-16184.24
0.0027,0.9973	-16196.13
0.0034,0.9966	-16185.13
0.0027,0.9973	-16190.21
0.0020,0.9980	-16196.94
0.0022,0.9978	-16184.39
0.0027,0.9973	-16178.42
0.0031,0.9969	-16190.44
0.0042,0.9958	-16198.04
0.0026,0.9974	-16202.10
0.0021,0.9979	-16184.44
0.0025,0.9975	-16178.27
0.0036,0.9964	-16208.16
0.0026,0.9974	-16184.25
0.0036,0.9964	-16202.55
0.0021,0.9979	-16190.74
0.0022,0.9978	-16184.36
0.0022,0.9978	-16190.53
0.0030,0.9970	-16178.72
0.0031,0.9969	-16190.47
0.0034,0.9966	-16190.83
0.0024,0.9976	-16178.23
0.0018,0.9982	-16185.16
0.0023,0.9977	-16184.29
0.0028,0.9972	-16184.38
0.0029,0.9971	-16184.42
0.0037,0.9963	-16197.04
0.0027,0.9973	-16184.29
0.0014,0.9986	-16193.51
0.0020,0.9980	-16190.75
0.0031,0.9969	-16190.48
0.0029,0.9971	-16184.46
0.0042,0.9958	-16187.26
0.0027,0.9973	-16190.22
0.0015,0.9985	-16186.35
0.0020,0.9980	-16178.41
0.0028,0.9972	-16178.54
0.0027,0.9973	-16178.38
0.0041,0.9959	-16186.89
0.0023,0.9977	-16178.22
0.0014,0.9986	-16199.62
0.0023,0.9977	-16196.45
0.0030,0.9970	-16202.00
0.0024,0.9976	-16190.31
0.0030,0.9970	-16184.61
0.0026,0.9974	-16196.16
0.0013,0.9987	-16180.87
0.0019,0.9981	-16178.60
0.0039,0.9961	-16191.90
0.0020,0.9980	-16197.03
0.0030,0.9970	-16178.85
0.0023,0.9977	-16178.23
0.0013,0.9987	-16180.51
0.0019,0.9981	-16197.39
0.0033,0.9967	-16196.44
0.0022,0.9978	-16184.41
0.0027,0.9973	-16190.22
0.0028,0.9972	-16190.26
0.0018,0.9982	-16216.66
0.0020,0.9980	-16190.80
0.0031,0.9969	-16190.48
0.0021,0.9979	-16178.29
0.0024,0.9976	-16196.31
0.0033,0.9967	-16225.01
0.0030,0.9970	-16178.80
0.0022,0.9978	-16202.78
0.0024,0.9976	-16184.26
0.0028,0.9972	-16190.23
0.0028,0.9972	-16190.25
0.0030,0.9970	-16184.54
0.0028,0.9972	-16190.25
0.0022,0.9978	-16184.41
0.0026,0.9974	-16178.30
0.0029,0.9971	-16190.28
0.0035,0.9965	-16219.33
0.0027,0.9973	-16190.21
0.0028,0.9972	-16190.26
0.0029,0.9971	-16190.33
0.0018,0.9982	-16178.73
0.0029,0.9971	-16184.47
0.0034,0.9966	-16185.16
0.0030,0.9970	-16184.53
0.0026,0.9974	-16202.10
0.0023,0.9977	-16184.31
0.0020,0.9980	-16178.37
0.0023,0.9977	-16184.32
0.0031,0.9969	-16190.47
0.0030,0.9970	-16196.20
0.0028,0.9972	-16190.24
0.0022,0.9978	-16178.28
0.0019,0.9981	-16184.90
0.0021,0.9979	-16184.50
0.0028,0.9972	-16196.13
0.0036,0.9964	-16191.24
0.0033,0.9967	-16179.28
0.0024,0.9976	-16190.28
0.0017,0.9983	-16191.96
0.0023,0.9977	-16196.45
0.0025,0.9975	-16190.24
0.0032,0.9968	-16207.85
0.0034,0.9966	-16196.63
0.0020,0.9980	-16190.91
0.0017,0.9983	-16179.14
0.0028,0.9972	-16178.46
0.0028,0.9972	-16184.39
0.0030,0.9970	-16178.83
0.0028,0.9972	-16196.12
0.0017,0.9983	-16178.94
0.0015,0.9985	-16192.79
0.0029,0.9971	-16184.44
0.0025,0.9975	-16178.27
0.0027,0.9973	-16190.23
0.0025,0.9975	-16202.20
0.0016,0.9984	-16185.61
0.0015,0.9985	-16192.65
0.0031,0.9969	-16190.52
0.0024,0.9976	-16184.25
0.0023,0.9977	-16190.33
0.0026,0.9974	-16184.25
0.0019,0.9981	-16197.30
0.0019,0.9981	-16191.17
0.0028,0.9972	-16196.13
0.0025,0.9975	-16184.24
0.0022,0.9978	-16178.26
0.0021,0.9979	-16178.30
0.0020,0.9980	-16178.47
0.0015,0.9985	-16199.12
0.0025,0.9975	-16178.26
0.0037,0.9963	-16185.77
0.0026,0.9974	-16202.09
0.0023,0.9977	-16178.23
0.0019,0.9981	-16184.89
0.0017,0.9983	-16179.04
0.0026,0.9974	-16178.31
0.0036,0.9964	-16185.69
0.0037,0.9963	-16185.76
0.0027,0.9973	-16190.21
0.0017,0.9983	-16178.93
0.0016,0.9984	-16179.21
0.0031,0.9969	-16196.24
0.0040,0.9960	-16203.28
0.0034,0.9966	-16179.47
0.0030,0.9970	-16178.84
0.0022,0.9978	-16178.27
0.0015,0.9985	-16186.15
0.0031,0.9969	-16190.49
0.0033,0.9967	-16202.19
0.0033,0.9967	-16185.09
0.0030,0.9970	-16202.01
0.0025,0.9975	-16202.23
0.0016,0.9984	-16192.32
0.0026,0.9974	-16190.21
0.0029,0.9971	-16190.28
0.0031,0.9969	-16190.50
0.0028,0.9972	-16184.40
0.0024,0.9976	-16196.34
0.0018,0.9982	-16191.49
0.0025,0.9975	-16208.28
0.0031,0.9969	-16184.66
0.0028,0.9972	-16184.41
0.0032,0.9968	-16207.84
0.0022,0.9978	-16184.36
0.0019,0.9981	-16191.03
0.0030,0.9970	-16178.74
0.0029,0.9971	-16196.17
0.0025,0.9975	-16178.26
0.0032,0.9968	-16179.06
0.0022,0.9978	-16178.24
0.0016,0.9984	-16185.79
0.0032,0.9968	-16179.14
0.0036,0.9964	-16180.10
0.0028,0.9972	-16190.26
0.0030,0.9970	-16178.80
0.0027,0.9973	-16184.33
0.0014,0.9986	-16180.03
0.0030,0.9970	-16184.59
0.0030,0.9970	-16184.59
0.0032,0.9968	-16190.60
0.0032,0.9968	-16196.40
0.0026,0.9974	-16178.30
0.0014,0.9986	-16186.45
0.0033,0.9967	-16190.78
0.0028,0.9972	-16190.27
0.0036,0.9964	-16202.50
0.0034,0.9966	-16190.83
0.0023,0.9977	-16190.38
0.0014,0.9986	-16186.68
0.0036,0.9964	-16196.94
0.0032,0.9968	-16207.83
0.0030,0.9970	-16184.56
0.0040,0.9960	-16197.71
0.0020,0.9980	-16197.00
0.0018,0.9982	-16178.68
0.0035,0.9965	-16196.69
0.0034,0.9966	-16196.63
0.0027,0.9973	-16184.32
0.0041,0.9959	-16197.85
0.0019,0.9981	-16191.03
0.0019,0.9981	-16190.98
0.0033,0.9967	-16196.43
0.0033,0.9967	-16185.04
0.0035,0.9965	-16191.03
0.0032,0.9968	-16179.17
0.0020,0.9980	-16178.38
0.0018,0.9982	-16204.20
0.0028,0.9972	-16190.28
0.0025,0.9975	-16190.22
0.0037,0.9963	-16191.48
0.0034,0.9966	-16190.95
0.0019,0.9981	-16184.76
0.0021,0.9979	-16196.79
0.0023,0.9977	-16208.54
0.0023,0.9977	-16184.27
0.0036,0.9964	-16191.28
0.0033,0.9967	-16190.70
0.0020,0.9980	-16197.14
0.0025,0.9975	-16190.24
0.0026,0.9974	-16178.33
0.0020,0.9980	-16178.39
0.0044,0.9956	-16198.68
0.0040,0.9960	-16192.13
0.0021,0.9979	-16190.74
0.0025,0.9975	-16196.20
0.0023,0.9977	-16184.29
0.0018,0.9982	-16191.49
0.0042,0.9958	-16181.68
0.0035,0.9965	-16185.45
0.0017,0.9983	-16185.51
0.0028,0.9972	-16184.37
0.0023,0.9977	-16196.42
0.0016,0.9984	-16198.37
0.0043,0.9957	-16193.03
0.0033,0.9967	-16185.12
0.0016,0.9984	-16185.64
0.0022,0.9978	-16184.37
0.0031,0.9969	-16196.27
0.0018,0.9982	-16191.39
0.0043,0.9957	-16192.96
0.0030,0.9970	-16196.20
0.0014,0.9986	-16180.09
0.0026,0.9974	-16202.15
0.0031,0.9969	-16178.95
0.0020,0.9980	-16184.61
0.0038,0.9962	-16191.78
0.0027,0.9973	-16184.31
0.0015,0.9985	-16186.07
0.0028,0.9972	-16196.12
0.0030,0.9970	-16178.75
0.0019,0.9981	-16191.08
0.0024,0.9976	-16178.23
0.0027,0.9973	-16178.44
0.0017,0.9983	-16185.28
0.0029,0.9971	-16196.14
0.0030,0.9970	-16190.35
0.0024,0.9976	-16184.25
0.0023,0.9977	-16196.46
0.0032,0.9968	-16184.95
0.0018,0.9982	-16178.77
0.0027,0.9973	-16196.13
0.0022,0.9978	-16190.48
0.0028,0.9972	-16184.34
0.0026,0.9974	-16190.21
0.0033,0.9967	-16179.39
0.0023,0.9977	-16178.22
0.0024,0.9976	-16184.26
0.0026,0.9974	-16178.29
0.0024,0.9976	-16184.26
0.0024,0.9976	-16196.36
0.0029,0.9971	-16190.29
0.0023,0.9977	-16184.32
0.0029,0.9971	-16196.15
0.0026,0.9974	-16184.25
0.0034,0.9966	-16190.94
0.0025,0.9975	-16184.24
0.0031,0.9969	-16184.68
0.0022,0.9978	-16196.54
0.0040,0.9960	-16192.09
0.0020,0.9980	-16190.81
0.0036,0.9964	-16196.94
0.0026,0.9974	-16184.25
0.0029,0.9971	-16184.44
0.0024,0.9976	-16178.23
0.0042,0.9958	-16187.26
0.0022,0.9978	-16196.63
0.0036,0.9964	-16185.64
0.0022,0.9978	-16184.38
0.0026,0.9974	-16190.21
0.0019,0.9981	-16184.95
0.0035,0.9965	-16196.80
0.0024,0.9976	-16190.26
0.0041,0.9959	-16203.35
0.0015,0.9985	-16186.37
0.0028,0.9972	-16178.50
0.0016,0.9984	-16179.48
0.0037,0.9963	-16197.05
0.0024,0.9976	-16190.27
0.0044,0.9956	-16204.11
0.0015,0.9985	-16179.62
0.0035,0.9965	-16185.33
0.0015,0.9985	-16186.17
0.0043,0.9957	-16209.34
0.0018,0.9982	-16178.87
0.0052,0.9948	-16190.73
0.0017,0.9983	-16185.44
0.0033,0.9967	-16190.78
0.0019,0.9981	-16197.32
0.0044,0.9956	-16215.00
0.0018,0.9982	-16191.41
0.0046,0.9954	-16193.79
0.0016,0.9984	-16179.30
0.0032,0.9968	-16190.66
0.0025,0.9975	-16184.24
0.0041,0.9959	-16192.34
0.0018,0.9982	-16185.13
0.0039,0.9961	-16191.93
0.0017,0.9983	-16178.97
0.0028,0.9972	-16184.40
0.0019,0.9981	-16191.14
0.0042,0.9958	-16187.34
0.0014,0.9986	-16200.04
0.0042,0.9958	-16203.59
0.0017,0.9983	-16179.06
0.0027,0.9973	-16178.35
0.0021,0.9979	-16184.50
0.0043,0.9957	-16198.44
0.0014,0.9986	-16186.76
0.0031,0.9969	-16178.92
0.0016,0.9984	-16192.37
0.0028,0.9972	-16190.24
0.0022,0.9978	-16184.39
0.0049,0.9951	-16194.95
0.0012,0.9988	-16187.69
0.0026,0.9974	-16184.25
0.0017,0.9983	-16185.43
0.0025,0.9975	-16196.22
0.0028,0.9972	-16196.13
0.0045,0.9955	-16198.89
0.0012,0.9988	-16188.08
0.0029,0.9971	-16178.61
0.0020,0.9980	-16184.71
0.0027,0.9973	-16190.23
0.0029,0.9971	-16190.29
0.0047,0.9953	-16205.01
0.0011,0.9989	-16182.06
0.0034,0.9966	-16185.15
0.0022,0.9978	-16178.27
0.0031,0.9969	-16178.88
0.0036,0.9964	-16208.16
0.0041,0.9959	-16192.39
0.0010,0.9990	-16189.38
0.0027,0.9973	-16178.35
0.0024,0.9976	-16178.23
0.0035,0.9965	-16191.13
0.0041,0.9959	-16192.52
0.0045,0.9955	-16204.29
0.0010,0.9990	-16190.37
0.0025,0.9975	-16178.24
0.0024,0.9976	-16178.22
0.0035,0.9965	-16196.78
0.0039,0.9961	-16208.62
0.0033,0.9967	-16185.11
0.0012,0.9988	-16195.14
0.0022,0.9978	-16178.24
0.0027,0.9973	-16196.12
0.0030,0.9970	-16178.84
0.0045,0.9955	-16204.40
0.0038,0.9962	-16180.58
0.0013,0.9987	-16180.44
0.0030,0.9970	-16178.73
0.0026,0.9974	-16190.21
0.0028,0.9972	-16184.36
0.0047,0.9953	-16194.18
0.0042,0.9958	-16192.72
0.0012,0.9988	-16181.15
0.0027,0.9973	-16178.38
0.0031,0.9969	-16178.87
0.0024,0.9976	-16196.30
0.0043,0.9957	-16187.64
0.0038,0.9962	-16191.69
0.0012,0.9988	-16194.79
0.0028,0.9972	-16196.12
0.0032,0.9968	-16179.15
0.0026,0.9974	-16184.25
0.0046,0.9954	-16204.51
0.0023,0.9977	-16178.22
0.0011,0.9989	-16188.80
0.0034,0.9966	-16196.57
0.0032,0.9968	-16184.82
0.0022,0.9978	-16202.74
0.0046,0.9954	-16209.97
0.0023,0.9977	-16190.37
0.0010,0.9990	-16190.25
0.0033,0.9967	-16196.45
0.0035,0.9965	-16196.74
0.0021,0.9979	-16184.42
0.0041,0.9959	-16186.99
0.0019,0.9981	-16191.06
0.0012,0.9988	-16188.15
0.0036,0.9964	-16180.02
0.0032,0.9968	-16202.06
0.0024,0.9976	-16190.27
0.0042,0.9958	-16187.09
0.0022,0.9978	-16190.43
0.0011,0.9989	-16188.78
0.0028,0.9972	-16178.55
0.0032,0.9968	-16190.65
0.0026,0.9974	-16184.25
0.0032,0.9968	-16190.56
0.0020,0.9980	-16190.85
0.0012,0.9988	-16181.61
0.0030,0.9970	-16190.35
0.0033,0.9967	-16190.70
0.0026,0.9974	-16202.13
0.0033,0.9967	-16196.50
0.0018,0.9982	-16178.75
0.0011,0.9989	-16181.89
0.0031,0.9969	-16202.06
0.0033,0.9967	-16196.47
0.0033,0.9967	-16190.76
0.0033,0.9967	-16207.89
0.0020,0.9980	-16190.92
0.0013,0.9987	-16180.65
0.0026,0.9974	-16196.17
0.0029,0.9971	-16178.57
0.0035,0.9965	-16196.80
0.0033,0.9967	-16202.19
0.0019,0.9981	-16191.00
0.0017,0.9983	-16185.34
0.0024,0.9976	-16196.34
0.0031,0.9969	-16178.96
0.0036,0.9964	-16179.93
0.0027,0.9973	-16184.29
0.0022,0.9978	-16190.53
0.0021,0.9979	-16184.55
0.0020,0.9980	-16209.50
0.0026,0.9974	-16196.18
0.0029,0.9971	-16201.99
0.0029,0.9971	-16184.48
0.0023,0.9977	-16184.29
0.0020,0.9980	-16178.42
0.0020,0.9980	-16184.65
0.0025,0.9975	-16202.25
0.0026,0.9974	-16184.28
0.0033,0.9967	-16185.03
0.0025,0.9975	-16184.24
0.0021,0.9979	-16184.55
0.0020,0.9980	-16178.37
0.0026,0.9974	-16178.33
0.0027,0.9973	-16190.21
0.0024,0.9976	-16184.25
0.0030,0.9970	-16190.36
0.0018,0.9982	-16185.13
0.0020,0.9980	-16184.67
0.0025,0.9975	-16190.23
0.0022,0.9978	-16184.42
0.0022,0.9978	-16178.27
0.0031,0.9969	-16196.24
0.0023,0.9977	-16184.28
0.0021,0.9979	-16184.49
0.0024,0.9976	-16184.24
0.0025,0.9975	-16196.21
0.0021,0.9979	-16178.32
0.0031,0.9969	-16196.25
0.0027,0.9973	-16190.21
0.0019,0.9981	-16178.51
0.0026,0.9974	-16178.31
0.0025,0.9975	-16190.25
0.0020,0.9980	-16197.11
0.0033,0.9967	-16202.15
0.0027,0.9973	-16184.28
0.0020,0.9980	-16184.70
0.0020,0.9980	-16184.64
0.0027,0.9973	-16184.32
0.0021,0.9979	-16178.29
0.0034,0.9966	-16190.84
0.0023,0.9977	-16178.22
0.0022,0.9978	-16184.40
0.0029,0.9971	-16201.99
0.0024,0.9976	-16190.31
0.0026,0.9974	-16184.26
0.0029,0.9971	-16190.32
0.0024,0.9976	-16202.33
0.0023,0.9977	-16178.22
0.0031,0.9969	-16196.24
0.0026,0.9974	-16178.34
0.0022,0.9978	-16190.45
0.0030,0.9970	-16184.57
0.0029,0.9971	-16196.14
0.0023,0.9977	-16184.27
0.0026,0.9974	-16190.21
0.0026,0.9974	-16208.02
0.0023,0.9977	-16190.41
0.0028,0.9972	-16184.40
0.0031,0.9969	-16184.65
0.0022,0.9978	-16208.72
0.0028,0.9972	-16190.23
0.0025,0.9975	-16184.24
0.0021,0.9979	-16184.47
0.0025,0.9975	-16178.24
0.0030,0.9970	-16178.78
0.0024,0.9976	-16202.41
0.0039,0.9961	-16225.20
0.0027,0.9973	-16196.14
0.0022,0.9978	-16208.84
0.0026,0.9974	-16184.27
0.0032,0.9968	-16190.64
0.0021,0.9979	-16184.47
0.0036,0.9964	-16179.96
0.0024,0.9976	-16184.26
0.0018,0.9982	-16178.82
0.0023,0.9977	-16190.37
0.0024,0.9976	-16178.22
0.0027,0.9973	-16184.31
0.0038,0.9962	-16180.56
0.0028,0.9972	-16190.26
0.0023,0.9977	-16190.36
0.0023,0.9977	-16196.47
0.0025,0.9975	-16178.25
0.0030,0.9970	-16202.00
0.0034,0.9966	-16196.57
0.0034,0.9966	-16190.98
0.0021,0.9979	-16178.31
0.0020,0.9980	-16190.77
0.0026,0.9974	-16190.21
0.0031,0.9969	-16190.48
0.0032,0.9968	-16196.34
0.0035,0.9965	-16185.35
0.0025,0.9975	-16178.24
0.0019,0.9981	-16184.91
0.0027,0.9973	-16184.28
0.0031,0.9969	-16196.23
0.0035,0.9965	-16191.11
0.0027,0.9973	-16196.12
0.0024,0.9976	-16190.29
0.0024,0.9976	-16184.26
0.0024,0.9976	-16190.26
0.0024,0.9976	-16202.42
0.0033,0.9967	-16185.06
0.0025,0.9975	-16208.27
0.0025,0.9975	-16178.25
0.0027,0.9973	-16190.21
0.0027,0.9973	-16202.07
0.0024,0.9976	-16208.39
0.0028,0.9972	-16190.27
0.0024,0.9976	-16178.23
0.0028,0.9972	-16178.48
0.0029,0.9971	-16184.42
0.0023,0.9977	-16184.29
0.0021,0.9979	-16184.47
0.0033,0.9967	-16179.33
0.0023,0.9977	-16196.46
0.0026,0.9974	-16184.28
0.0026,0.9974	-16184.26
0.0022,0.9978	-16178.25
0.0024,0.9976	-16178.22
0.0033,0.9967	-16202.18
0.0022,0.9978	-16202.75
0.0024,0.9976	-16184.25
0.0033,0.9967	-16202.21
0.0017,0.9983	-16185.27
0.0028,0.9972	-16178.45
0.0035,0.9965	-16179.78
0.0024,0.9976	-16184.26
0.0022,0.9978	-16190.48
0.0032,0.9968	-16190.62
0.0020,0.9980	-16190.88
0.0021,0.9979	-16190.68
0.0035,0.9965	-16191.02
0.0022,0.9978	-16190.51
0.0022,0.9978	-16178.23
0.0033,0.9967	-16213.59
0.0021,0.9979	-16178.30
0.0025,0.9975	-16196.20
0.0036,0.9964	-16202.47
0.0020,0.9980	-16178.42
0.0023,0.9977	-16202.61
0.0037,0.9963	-16180.39
0.0026,0.9974	-16202.14
0.0030,0.9970	-16207.81
0.0032,0.9968	-16190.62
0.0024,0.9976	-16178.22
0.0022,0.9978	-16178.26
0.0037,0.9963	-16185.81
0.0028,0.9972	-16202.01
0.0024,0.9976	-16184.25
0.0027,0.9973	-16196.12
0.0021,0.9979	-16178.28
0.0025,0.9975	-16202.24
0.0031,0.9969	-16207.82
0.0026,0.9974	-16184.27
0.0019,0.9981	-16184.75
0.0025,0.9975	-16190.23
0.0021,0.9979	-16196.71
0.0026,0.9974	-16202.13
0.0030,0.9970	-16178.79
0.0027,0.9973	-16190.23
0.0019,0.9981	-16184.79
0.0024,0.9976	-16190.31
0.0024,0.9976	-16190.25
0.0031,0.9969	-16184.77
0.0036,0.9964	-16185.67
0.0028,0.9972	-16190.23
0.0016,0.9984	-16185.78
0.0023,0.9977	-16190.42
0.0024,0.9976	-16196.35
0.0034,0.9966	-16207.96
0.0030,0.9970	-16190.41
0.0026,0.9974	-16184.27
0.0017,0.9983	-16185.49
0.0025,0.9975	-16196.24
0.0025,0.9975	-16190.23
0.0028,0.9972	-16184.35
0.0030,0.9970	-16190.37
0.0023,0.9977	-16196.39
0.0021,0.9979	-16190.61
0.0025,0.9975	-16190.22
0.0026,0.9974	-16184.27
0.0030,0.9970	-16196.20
0.0025,0.9975	-16202.20
0.0020,0.9980	-16197.09
0.0018,0.9982	-16197.90
0.0023,0.9977	-16184.28
0.0032,0.9968	-16184.82
0.0033,0.9967	-16190.74
0.0022,0.9978	-16178.23
0.0019,0.9981	-16184.84
0.0020,0.9980	-16178.37
0.0027,0.9973	-16190.22
0.0032,0.9968	-16190.66
0.0031,0.9969	-16207.81
0.0024,0.9976	-16184.26
0.0019,0.9981	-16184.76
0.0021,0.9979	-16190.71
0.0023,0.9977	-16184.27
0.0030,0.9970	-16184.58
0.0041,0.9959	-16192.29
0.0023,0.9977	-16190.40
0.0018,0.9982	-16178.79
0.0020,0.9980	-16190.86
0.0024,0.9976	-16184.24
0.0027,0.9973	-16196.12
0.0036,0.9964	-16191.31
0.0025,0.9975	-16202.19
0.0020,0.9980	-16184.73
0.0024,0.9976	-16196.31
0.0025,0.9975	-16184.24
0.0027,0.9973	-16184.32
0.0032,0.9968	-16202.11
0.0029,0.9971	-16178.69
0.0021,0.9979	-16178.34
0.0034,0.9966	-16185.20
0.0025,0.9975	-16184.24
0.0026,0.9974	-16190.21
0.0029,0.9971	-16178.60
0.0027,0.9973	-16178.40
0.0020,0.9980	-16178.44
0.0031,0.9969	-16184.65
0.0025,0.9975	-16190.24
0.0027,0.9973	-16178.36
0.0023,0.9977	-16178.23
0.0034,0.9966	-16196.58
0.0021,0.9979	-16178.33
0.0033,0.9967	-16179.32
0.0024,0.9976	-16184.26
0.0031,0.9969	-16207.81
0.0023,0.9977	-16190.34
0.0028,0.9972	-16190.24
0.0022,0.9978	-16178.27
0.0026,0.9974	-16178.32
0.0021,0.9979	-16178.30
0.0022,0.9978	-16190.55
0.0026,0.9974	-16184.25
0.0030,0.9970	-16184.61
0.0019,0.9981	-16197.46
0.0023,0.9977	-16178.22
0.0022,0.9978	-16184.36
0.0029,0.9971	-16184.45
0.0027,0.9973	-16178.38
0.0028,0.9972	-16184.39
0.0019,0.9981	-16184.95
0.0025,0.9975	-16178.25
0.0024,0.9976	-16190.27
0.0033,0.9967	-16190.74
0.0030,0.9970	-16178.78
0.0025,0.9975	-16178.25
0.0016,0.9984	-16179.25
0.0030,0.9970	-16190.40
0.0017,0.9983	-16185.29
0.0033,0.9967	-16190.78
0.0027,0.9973	-16178.40
0.0028,0.9972	-16190.24
0.0018,0.9982	-16185.13
0.0030,0.9970	-16184.63
0.0021,0.9979	-16184.49
0.0030,0.9970	-16196.18
0.0032,0.9968	-16179.20
0.0024,0.9976	-16208.30
0.0014,0.9986	-16179.92
0.0037,0.9963	-16202.69
0.0026,0.9974	-16178.30
0.0033,0.9967	-16184.98
0.0028,0.9972	-16178.49
0.0021,0.9979	-16190.74
0.0017,0.9983	-16185.35
0.0037,0.9963	-16202.64
0.0026,0.9974	-16184.25
0.0028,0.9972	-16190.24
0.0029,0.9971	-16201.99
0.0021,0.9979	-16178.31
0.0015,0.9985	-16179.79
0.0037,0.9963	-16191.51
0.0029,0.9971	-16190.32
0.0031,0.9969	-16202.05
0.0024,0.9976	-16178.22
0.0028,0.9972	-16190.26
0.0015,0.9985	-16198.93
0.0032,0.9968	-16190.55
0.0026,0.9974	-16178.28
0.0030,0.9970	-16196.22
0.0021,0.9979	-16190.68
0.0034,0.9966	-16190.95
0.0016,0.9984	-16185.83
0.0030,0.9970	-16184.57
0.0027,0.9973	-16196.13
0.0028,0.9972	-16190.28
0.0023,0.9977	-16190.36
0.0036,0.9964	-16185.66
0.0013,0.9987	-16200.31
0.0026,0.9974	-16184.27
0.0025,0.9975	-16184.24
0.0029,0.9971	-16190.32
0.0024,0.9976	-16190.27
0.0039,0.9961	-16203.05
0.0014,0.9986	-16179.92
0.0024,0.9976	-16190.29
0.0026,0.9974	-16208.09
0.0029,0.9971	-16196.14
0.0023,0.9977	-16184.29
0.0035,0.9965	-16191.15
0.0017,0.9983	-16198.25
0.0023,0.9977	-16178.23
0.0028,0.9972	-16207.88
0.0028,0.9972	-16190.27
0.0026,0.9974	-16178.30
0.0041,0.9959	-16181.36
0.0017,0.9983	-16178.94
0.0022,0.9978	-16184.34
0.0031,0.9969	-16196.26
0.0030,0.9970	-16190.38
0.0026,0.9974	-16184.26
0.0036,0.9964	-16196.81
0.0017,0.9983	-16185.47
0.0020,0.9980	-16190.76
0.0030,0.9970	-16196.17
0.0027,0.9973	-16178.36
0.0027,0.9973	-16184.32
0.0033,0.9967	-16202.15
0.0016,0.9984	-16192.23
0.0027,0.9973	-16190.21
0.0025,0.9975	-16178.24
0.0024,0.9976	-16190.29
0.0029,0.9971	-16190.29
0.0035,0.9965	-16185.52
0.0012,0.9988	-16194.36
0.0031,0.9969	-16178.95
0.0024,0.9976	-16190.26
0.0022,0.9978	-16184.36
0.0025,0.9975	-16190.22
0.0036,0.9964	-16196.88
0.0013,0.9987	-16180.95
0.0028,0.9972	-16184.37
0.0025,0.9975	-16202.24
0.0023,0.9977	-16178.22
0.0022,0.9978	-16184.37
0.0033,0.9967	-16185.09
0.0013,0.9987	-16187.43
0.0032,0.9968	-16196.36
0.0022,0.9978	-16190.51
0.0023,0.9977	-16178.22
0.0024,0.9976	-16178.22
0.0040,0.9960	-16203.14
0.0011,0.9989	-16188.86
0.0036,0.9964	-16185.68
0.0024,0.9976	-16184.24
0.0020,0.9980	-16190.94
0.0022,0.9978	-16184.39
0.0032,0.9968	-16190.57
0.0012,0.9988	-16201.19
0.0032,0.9968	-16196.36
0.0022,0.9978	-16178.25
0.0018,0.9982	-16184.97
0.0020,0.9980	-16178.37
0.0027,0.9973	-16184.29
0.0014,0.9986	-16179.93
0.0036,0.9964	-16196.97
0.0020,0.9980	-16178.41
0.0014,0.9986	-16186.62
0.0020,0.9980	-16184.73
0.0026,0.9974	-16190.21
0.0013,0.9987	-16180.47
0.0030,0.9970	-16184.61
0.0023,0.9977	-16190.39
0.0021,0.9979	-16184.48
0.0022,0.9978	-16184.38
0.0033,0.9967	-16207.87
0.0012,0.9988	-16181.30
0.0031,0.9969	-16190.52
0.0029,0.9971	-16184.43
0.0022,0.9978	-16178.23
0.0021,0.9979	-16178.34
0.0032,0.9968	-16179.10
0.0013,0.9987	-16200.75
0.0026,0.9974	-16184.27
0.0026,0.9974	-16184.25
0.0021,0.9979	-16178.32
0.0020,0.9980	-16184.64
0.0036,0.9964	-16191.21
0.0013,0.9987	-16193.97
0.0030,0.9970	-16184.55
0.0025,0.9975	-16178.23
0.0023,0.9977	-16178.22
0.0019,0.9981	-16184.83
0.0034,0.9966	-16190.84
0.0014,0.9986	-16180.08
0.0028,0.9972	-16184.37
0.0021,0.9979	-16190.57
0.0023,0.9977	-16184.28
0.0020,0.9980	-16190.78
0.0034,0.9966	-16179.64
0.0015,0.9985	-16192.80
0.0024,0.9976	-16190.30
0.0020,0.9980	-16184.67
0.0021,0.9979	-16190.63
0.0020,0.9980	-16184.61
0.0026,0.9974	-16208.06
0.0016,0.9984	-16185.89
0.0024,0.9976	-16190.31
0.0020,0.9980	-16190.83
0.0021,0.9979	-16196.83
0.0019,0.9981	-16178.54
0.0026,0.9974	-16184.27
0.0018,0.9982	-16185.16
0.0030,0.9970	-16184.53
0.0022,0.9978	-16178.25
0.0022,0.9978	-16190.52
0.0022,0.9978	-16190.54
0.0024,0.9976	-16178.23
0.0021,0.9979	-16202.92
0.0029,0.9971	-16184.43
0.0019,0.9981	-16184.73
0.0021,0.9979	-16184.44
0.0025,0.9975	-16190.23
0.0024,0.9976	-16190.28
0.0027,0.9973	-16184.29
0.0023,0.9977	-16184.28
0.0024,0.9976	-16202.35
0.0025,0.9975	-16178.27
0.0025,0.9975	-16190.22
0.0022,0.9978	-16190.52
0.0031,0.9969	-16196.24
0.0027,0.9973	-16184.32
0.0021,0.9979	-16190.60
0.0027,0.9973	-16184.31
0.0027,0.9973	-16184.30
0.0027,0.9973	-16190.21
0.0034,0.9966	-16185.25
0.0026,0.9974	-16190.22
0.0024,0.9976	-16202.28
0.0028,0.9972	-16184.37
0.0023,0.9977	-16184.31
0.0025,0.9975	-16190.23
0.0026,0.9974	-16184.26
0.0023,0.9977	-16190.42
0.0021,0.9979	-16184.52
0.0032,0.9968	-16184.88
0.0032,0.9968	-16179.13
0.0024,0.9976	-16202.30
0.0022,0.9978	-16184.39
0.0020,0.9980	-16184.58
0.0022,0.9978	-16178.27
0.0027,0.9973	-16190.23
0.0032,0.9968	-16179.15
0.0017,0.9983	-16178.93
0.0029,0.9971	-16184.43
0.0023,0.9977	-16178.23
0.0024,0.9976	-16184.25
0.0027,0.9973	-16196.12
0.0021,0.9979	-16184.53
0.0019,0.9981	-16184.85
0.0037,0.9963	-16185.92
0.0026,0.9974	-16190.21
0.0025,0.9975	-16190.22
0.0027,0.9973	-16207.95
0.0021,0.9979	-16178.33
0.0021,0.9979	-16184.50
0.0034,0.9966	-16190.89
0.0024,0.9976	-16190.27
0.0022,0.9978	-16178.23
0.0019,0.9981	-16178.51
0.0025,0.9975	-16184.24
0.0025,0.9975	-16178.27
0.0027,0.9973	-16190.21
0.0035,0.9965	-16208.02
0.0022,0.9978	-16184.37
0.0020,0.9980	-16184.57
0.0027,0.9973	-16196.14
0.0023,0.9977	-16190.37
0.0029,0.9971	-16190.34
0.0033,0.9967	-16185.00
0.0027,0.9973	-16184.31
0.0023,0.9977	-16184.28
0.0024,0.9976	-16184.25
0.0028,0.9972	-16184.37
0.0037,0.9963	-16185.99
0.0033,0.9967	-16185.11
0.0031,0.9969	-16190.54
0.0022,0.9978	-16190.56
0.0023,0.9977	-16190.39
0.0024,0.9976	-16184.25
0.0031,0.9969	-16190.52
0.0031,0.9969	-16196.23
0.0029,0.9971	-16184.45
0.0022,0.9978	-16178.24
0.0024,0.9976	-16178.22
0.0023,0.9977	-16178.23
0.0025,0.9975	-16184.24
0.0033,0.9967	-16190.70
0.0020,0.9980	-16184.59
0.0028,0.9972	-16196.13
0.0024,0.9976	-16184.24
0.0030,0.9970	-16207.81
0.0025,0.9975	-16184.24
0.0028,0.9972	-16190.25
0.0023,0.9977	-16196.51
0.0035,0.9965	-16202.39
0.0024,0.9976	-16190.29
0.0031,0.9969	-16196.25
0.0030,0.9970	-16184.56
0.0032,0.9968	-16196.39
0.0020,0.9980	-16184.65
0.0032,0.9968	-16190.61
0.0023,0.9977	-16196.47
0.0032,0.9968	-16190.62
0.0035,0.9965	-16185.38
0.0035,0.9965	-16185.43
0.0024,0.9976	-16190.29
0.0030,0.9970	-16201.99
0.0021,0.9979	-16184.51
0.0034,0.9966	-16185.31
0.0027,0.9973	-16190.22
0.0029,0.9971	-16178.69
0.0023,0.9977	-16184.28
0.0033,0.9967	-16196.51
0.0022,0.9978	-16184.36
0.0038,0.9962	-16186.16
0.0030,0.9970	-16190.38
0.0029,0.9971	-16184.50
0.0019,0.9981	-16191.01
0.0028,0.9972	-16190.26
0.0031,0.9969	-16184.68
0.0039,0.9961	-16191.85
0.0029,0.9971	-16190.33
0.0029,0.9971	-16178.66
0.0017,0.9983	-16178.90
0.0030,0.9970	-16207.81
0.0023,0.9977	-16184.28
0.0030,0.9970	-16190.35
0.0029,0.9971	-16201.99
0.0029,0.9971	-16190.32
0.0015,0.9985	-16192.51
0.0031,0.9969	-16202.05
0.0021,0.9979	-16184.43
0.0029,0.9971	-16178.57
0.0030,0.9970	-16184.53
0.0036,0.9964	-16191.18
0.0016,0.9984	-16179.41
0.0039,0.9961	-16202.95
0.0022,0.9978	-16178.25
0.0030,0.9970	-16178.85
0.0039,0.9961	-16197.57
0.0033,0.9967	-16196.51
0.0018,0.9982	-16185.16
0.0039,0.9961	-16203.09
0.0024,0.9976	-16184.24
0.0029,0.9971	-16201.99
0.0033,0.9967	-16207.89
0.0043,0.9957	-16203.96
0.0023,0.9977	-16184.28
0.0041,0.9959	-16203.33
0.0025,0.9975	-16196.21
0.0043,0.9957	-16209.22
0.0029,0.9971	-16190.32
0.0049,0.9951	-16184.04
0.0024,0.9976	-16190.26
0.0047,0.9953	-16199.48
0.0029,0.9971	-16184.44
0.0040,0.9960	-16186.63
0.0033,0.9967	-16202.16
0.0048,0.9952	-16189.31
0.0023,0.9977	-16184.29
0.0042,0.9958	-16187.19
0.0028,0.9972	-16184.39
0.0039,0.9961	-16208.53
0.0031,0.9969	-16184.76
0.0051,0.9949	-16211.28
0.0020,0.9980	-16184.63
0.0033,0.9967	-16190.78
0.0035,0.9965	-16196.66
0.0031,0.9969	-16190.52
0.0028,0.9972	-16178.51
0.0042,0.9958	-16187.23
0.0021,0.9979	-16184.45
0.0031,0.9969	-16196.27
0.0028,0.9972	-16184.39
0.0033,0.9967	-16196.41
0.0026,0.9974	-16184.26
0.0033,0.9967	-16207.86
0.0022,0.9978	-16178.24
0.0041,0.9959	-16203.47
0.0032,0.9968	-16179.07
0.0030,0.9970	-16196.17
0.0023,0.9977	-16184.29
0.0033,0.9967	-16190.69
0.0021,0.9979	-16178.36
0.0039,0.9961	-16208.52
0.0031,0.9969	-16196.24
0.0031,0.9969	-16196.25
0.0021,0.9979	-16190.57
0.0024,0.9976	-16190.26
0.0023,0.9977	-16190.35
0.0038,0.9962	-16197.16
0.0032,0.9968	-16184.83
0.0031,0.9969	-16184.75
0.0022,0.9978	-16190.48
0.0026,0.9974	-16190.21
0.0027,0.9973	-16184.33
0.0035,0.9965	-16191.11
0.0029,0.9971	-16178.70
0.0032,0.9968	-16184.95
0.0026,0.9974	-16184.25
0.0026,0.9974	-16190.21
0.0029,0.9971	-16184.42
0.0031,0.9969	-16196.27
0.0032,0.9968	-16179.21
0.0026,0.9974	-16202.09
0.0026,0.9974	-16178.34
0.0022,0.9978	-16196.63
0.0029,0.9971	-16184.44
0.0034,0.9966	-16185.30
0.0034,0.9966	-16213.63
0.0030,0.9970	-16178.73
0.0030,0.9970	-16196.19
0.0020,0.9980	-16184.63
0.0026,0.9974	-16202.07
0.0028,0.9972	-16190.25
0.0031,0.9969	-16190.47
0.0028,0.9972	-16202.00
0.0026,0.9974	-16190.21
0.0021,0.9979	-16190.72
0.0022,0.9978	-16190.51
0.0019,0.9981	-16178.52
0.0031,0.9969	-16202.05
0.0035,0.9965	-16191.06
0.0030,0.9970	-16178.74
0.0026,0.9974	-16196.15
0.0021,0.9979	-16184.47
0.0021,0.9979	-16190.72
0.0025,0.9975	-16178.27
0.0026,0.9974	-16184.26
0.0036,0.9964	-16196.85
0.0030,0.9970	-16190.36
0.0025,0.9975	-16184.24
0.0024,0.9976	-16178.22
0.0027,0.9973	-16178.41
0.0022,0.9978	-16196.66
0.0033,0.9967	-16190.82
0.0030,0.9970	-16184.59
0.0029,0.9971	-16201.99
0.0026,0.9974	-16196.15
0.0032,0.9968	-16196.31
0.0020,0.9980	-16184.60
0.0040,0.9960	-16186.51
0.0025,0.9975	-16196.23
0.0032,0.9968	-16184.93
0.0025,0.9975	-16178.25
0.0035,0.9965	-16196.75
0.0024,0.9976	-16202.28
0.0037,0.9963	-16197.05
0.0020,0.9980	-16178.41
0.0026,0.9974	-16202.07
0.0019,0.9981	-16203.54
0.0039,0.9961	-16180.97
0.0025,0.9975	-16190.22
0.0029,0.9971	-16196.15
0.0022,0.9978	-16178.26
0.0028,0.9972	-16196.12
0.0017,0.9983	-16179.13
0.0038,0.9962	-16202.90
0.0026,0.9974	-16184.26
0.0030,0.9970	-16190.35
0.0026,0.9974	-16202.11
0.0028,0.9972	-16178.51
0.0015,0.9985	-16185.99
0.0037,0.9963	-16191.53
0.0025,0.9975	-16202.22
0.0027,0.9973	-16184.29
0.0022,0.9978	-16190.54
0.0025,0.9975	-16184.24
0.0018,0.9982	-16178.72
0.0033,0.9967	-16190.72
0.0026,0.9974	-16190.21
0.0029,0.9971	-16184.43
0.0022,0.9978	-16184.42
0.0026,0.9974	-16178.34
0.0019,0.9981	-16178.66
0.0024,0.9976	-16196.29
0.0021,0.9979	-16184.50
0.0031,0.9969	-16190.53
0.0025,0.9975	-16190.22
0.0023,0.9977	-16190.36
0.0019,0.9981	-16178.56
0.0028,0.9972	-16184.36
0.0020,0.9980	-16184.62
0.0026,0.9974	-16196.14
0.0024,0.9976	-16184.26
0.0027,0.9973	-16190.22
0.0018,0.9982	-16185.03
0.0033,0.9967	-16196.41
0.0018,0.9982	-16178.74
0.0024,0.9976	-16178.22
0.0029,0.9971	-16196.14
0.0025,0.9975	-16178.25
0.0017,0.9983	-16185.31
0.0031,0.9969	-16184.78
0.0018,0.9982	-16178.66
0.0021,0.9979	-16196.82
0.0027,0.9973	-16178.37
0.0030,0.9970	-16190.38
0.0017,0.9983	-16179.07
0.0025,0.9975	-16178.25
0.0020,0.9980	-16184.69
0.0024,0.9976	-16190.31
0.0034,0.9966	-16190.83
0.0038,0.9962	-16186.05
0.0020,0.9980	-16190.92
0.0028,0.9972	-16201.99
0.0026,0.9974	-16184.25
0.0031,0.9969	-16184.71
0.0031,0.9969	-16184.75
0.0046,0.9954	-16215.38
0.0023,0.9977	-16184.28
0.0025,0.9975	-16184.24
0.0029,0.9971	-16178.63
0.0027,0.9973	-16184.33
0.0037,0.9963	-16185.81
0.0047,0.9953	-16194.19
0.0027,0.9973	-16190.21
0.0023,0.9977	-16184.29
0.0038,0.9962	-16191.66
0.0032,0.9968	-16190.65
0.0028,0.9972	-16190.25
0.0043,0.9957	-16214.80
0.0025,0.9975	-16190.23
0.0026,0.9974	-16184.26
0.0026,0.9974	-16190.21
0.0038,0.9962	-16191.72
0.0038,0.9962	-16197.24
0.0047,0.9953	-16204.93
0.0027,0.9973	-16190.23
0.0027,0.9973	-16196.14
0.0021,0.9979	-16190.70
0.0034,0.9966	-16190.94
0.0033,0.9967	-16179.38
0.0047,0.9953	-16199.41
0.0029,0.9971	-16190.32
0.0027,0.9973	-16196.13
0.0025,0.9975	-16190.23
0.0036,0.9964	-16185.57
0.0038,0.9962	-16186.05
0.0043,0.9957	-16187.59
0.0027,0.9973	-16184.34
0.0025,0.9975	-16178.26
0.0020,0.9980	-16178.48
0.0036,0.9964	-16191.37
0.0033,0.9967	-16184.96
0.0045,0.9955	-16193.69
0.0026,0.9974	-16184.26
0.0027,0.9973	-16196.12
0.0020,0.9980	-16178.38
0.0036,0.9964	-16191.36
0.0032,0.9968	-16190.63
0.0034,0.9966	-16185.20
0.0035,0.9965	-16196.67
0.0030,0.9970	-16178.84
0.0020,0.9980	-16178.42
0.0031,0.9969	-16184.76
0.0030,0.9970	-16190.42
0.0040,0.9960	-16197.60
0.0028,0.9972	-16196.12
0.0028,0.9972	-16178.51
0.0020,0.9980	-16178.46
0.0033,0.9967	-16207.87
0.0031,0.9969	-16196.29
0.0038,0.9962	-16197.29
0.0033,0.9967	-16207.90
0.0029,0.9971	-16190.29
0.0022,0.9978	-16184.38
0.0037,0.9963	-16197.00
0.0039,0.9961	-16203.02
0.0041,0.9959	-16197.94
0.0035,0.9965	-16196.70
0.0028,0.9972	-16184.35
0.0020,0.9980	-16190.84
0.0040,0.9960	-16203.25
0.0036,0.9964	-16196.81
0.0039,0.9961	-16197.40
0.0030,0.9970	-16178.81
0.0027,0.9973	-16190.22
0.0015,0.9985	-16199.18
0.0034,0.9966	-16196.58
0.0034,0.9966	-16185.18
0.0031,0.9969	-16202.05
0.0027,0.9973	-16196.12
0.0031,0.9969	-16196.23
0.0017,0.9983	-16185.37
0.0031,0.9969	-16190.47
0.0032,0.9968	-16202.08
0.0025,0.9975	-16190.22
0.0029,0.9971	-16201.99
0.0034,0.9966	-16190.88
0.0020,0.9980	-16197.07
0.0027,0.9973	-16190.22
0.0036,0.9964	-16185.55
0.0025,0.9975	-16190.25
0.0031,0.9969	-16196.24
0.0031,0.9969	-16213.58
0.0022,0.9978	-16190.44
0.0031,0.9969	-16190.46
0.0031,0.9969	-16190.51
0.0025,0.9975	-16196.20
0.0025,0.9975	-16184.24
0.0025,0.9975	-16178.28
0.0022,0.9978	-16196.58
0.0026,0.9974	-16178.31
0.0038,0.9962	-16186.24
0.0022,0.9978	-16184.38
0.0027,0.9973	-16178.41
0.0024,0.9976	-16190.27
0.0018,0.9982	-16185.06
0.0031,0.9969	-16184.68
0.0038,0.9962	-16197.29
0.0020,0.9980	-16178.48
0.0028,0.9972	-16184.34
0.0026,0.9974	-16196.15
0.0017,0.9983	-16185.37
0.0026,0.9974	-16184.25
0.0031,0.9969	-16184.69
0.0020,0.9980	-16197.15
0.0031,0.9969	-16190.44
0.0025,0.9975	-16178.27
0.0019,0.9981	-16178.63
0.0033,0.9967	-16185.02
0.0023,0.9977	-16190.33
0.0028,0.9972	-16184.35
0.0028,0.9972	-16196.12
0.0022,0.9978	-16178.28
0.0021,0.9979	-16178.34
0.0031,0.9969	-16196.25
0.0026,0.9974	-16184.25
0.0028,0.9972	-16196.13
0.0028,0.9972	-16184.35
0.0022,0.9978	-16184.33
0.0021,0.9979	-16184.52
0.0035,0.9965	-16185.33
0.0028,0.9972	-16196.13
0.0024,0.9976	-16178.23
0.0029,0.9971	-16178.64
0.0026,0.9974	-16190.21
0.0026,0.9974	-16190.21
0.0036,0.9964	-16179.96
0.0029,0.9971	-16184.49
0.0034,0.9966	-16202.24
0.0029,0.9971	-16184.46
0.0034,0.9966	-16196.63
0.0023,0.9977	-16178.22
0.0041,0.9959	-16187.00
0.0031,0.9969	-16178.92
0.0039,0.9961	-16186.50
0.0031,0.9969	-16196.25
0.0034,0.9966	-16185.31
0.0017,0.9983	-16185.53
0.0047,0.9953	-16194.24
0.0038,0.9962	-16191.62
0.0043,0.9957	-16192.82
0.0030,0.9970	-16190.35
0.0036,0.9964	-16185.62
0.0019,0.9981	-16178.57
0.0031,0.9969	-16178.91
0.0031,0.9969	-16190.52
0.0043,0.9957	-16203.84
0.0026,0.9974	-16202.08
0.0039,0.9961	-16191.91
0.0026,0.9974	-16184.25
0.0031,0.9969	-16196.27
0.0025,0.9975	-16190.23
0.0040,0.9960	-16186.63
0.0027,0.9973	-16178.35
0.0041,0.9959	-16203.44
0.0023,0.9977	-16184.28
0.0032,0.9968	-16202.12
0.0026,0.9974	-16196.18
0.0027,0.9973	-16190.22
0.0028,0.9972	-16196.12
0.0036,0.9964	-16191.29
0.0027,0.9973	-16190.21
0.0046,0.9954	-16199.23
0.0026,0.9974	-16178.30
0.0028,0.9972	-16178.53
0.0026,0.9974	-16196.14
0.0030,0.9970	-16196.20
0.0022,0.9978	-16184.34
0.0038,0.9962	-16202.88
0.0027,0.9973	-16190.21
0.0027,0.9973	-16178.44
0.0022,0.9978	-16190.43
0.0024,0.9976	-16184.27
0.0023,0.9977	-16190.37
0.0033,0.9967	-16190.72
0.0025,0.9975	-16196.22
0.0033,0.9967	-16213.59
0.0023,0.9977	-16178.22
0.0023,0.9977	-16196.50
0.0021,0.9979	-16190.73
0.0035,0.9965	-16185.46
0.0027,0.9973	-16196.13
0.0024,0.9976	-16208.32
0.0023,0.9977	-16184.28
0.0025,0.9975	-16184.24
0.0021,0.9979	-16196.76
0.0034,0.9966	-16202.31
0.0030,0.9970	-16190.42
0.0021,0.9979	-16184.48
0.0023,0.9977	-16190.39
0.0023,0.9977	-16190.41
0.0024,0.9976	-16202.40
0.0031,0.9969	-16179.02
0.0028,0.9972	-16178.47
0.0020,0.9980	-16190.90
0.0025,0.9975	-16190.24
0.0029,0.9971	-16196.15
0.0025,0.9975	-16196.21
0.0032,0.9968	-16196.36
0.0034,0.9966	-16196.65
0.0020,0.9980	-16178.43
0.0023,0.9977	-16184.30
0.0027,0.9973	-16196.12
0.0027,0.9973	-16184.28
0.0024,0.9976	-16190.28
0.0036,0.9964	-16196.84
0.0021,0.9979	-16178.30
0.0023,0.9977	-16190.34
0.0032,0.9968	-16179.06
0.0030,0.9970	-16201.99
0.0022,0.9978	-16184.33
0.0031,0.9969	-16184.76
0.0027,0.9973	-16184.29
0.0023,0.9977	-16184.28
0.0023,0.9977	-16190.40
0.0027,0.9973	-16213.83
0.0020,0.9980	-16190.83
0.0028,0.9972	-16178.50
0.0026,0.9974	-16190.21
0.0030,0.9970	-16196.21
0.0021,0.9979	-16178.35
0.0025,0.9975	-16190.24
0.0018,0.9982	-16191.29
0.0021,0.9979	-16203.02
0.0028,0.9972	-16202.01
0.0033,0.9967	-16190.78
0.0022,0.9978	-16202.71
0.0022,0.9978	-16184.33
0.0016,0.9984	-16185.65
0.0025,0.9975	-16184.24
0.0030,0.9970	-16201.99
0.0030,0.9970	-16178.83
0.0025,0.9975	-16190.24
0.0023,0.9977	-16190.40
0.0017,0.9983	-16178.90
0.0032,0.9968	-16184.82
0.0036,0.9964	-16179.92
0.0030,0.9970	-16184.57
0.0031,0.9969	-16178.90
0.0025,0.9975	-16196.20
0.0021,0.9979	-16203.02
0.0033,0.9967	-16184.99
0.0028,0.9972	-16190.24
0.0023,0.9977	-16184.28
0.0033,0.9967	-16190.74
0.0026,0.9974	-16184.27
0.0021,0.9979	-16184.55
0.0030,0.9970	-16184.57
0.0033,0.9967	-16190.80
0.0025,0.9975	-16184.24
0.0031,0.9969	-16178.96
0.0030,0.9970	-16184.56
0.0019,0.9981	-16184.74
0.0032,0.9968	-16184.89
0.0029,0.9971	-16196.14
0.0026,0.9974	-16184.26
0.0026,0.9974	-16184.26
0.0034,0.9966	-16190.95
0.0018,0.9982	-16178.69
0.0033,0.9967	-16179.33
0.0024,0.9976	-16184.25
0.0030,0.9970	-16178.71
0.0028,0.9972	-16196.13
0.0030,0.9970	-16190.41
0.0022,0.9978	-16190.53
0.0026,0.9974	-16184.26
0.0025,0.9975	-16184.25
0.0026,0.9974	-16184.27
0.0023,0.9977	-16208.52
0.0037,0.9963	-16185.94
0.0027,0.9973	-16184.33
0.0030,0.9970	-16196.20
0.0035,0.9965	-16191.11
0.0028,0.9972	-16202.00
0.0023,0.9977	-16190.42
0.0028,0.9972	-16202.00
0.0021,0.9979	-16190.56
0.0021,0.9979	-16190.62
0.0036,0.9964	-16196.95
0.0029,0.9971	-16190.32
0.0021,0.9979	-16178.35
0.0032,0.9968	-16202.13
0.0019,0.9981	-16178.56
0.0020,0.9980	-16197.07
0.0031,0.9969	-16213.58
0.0029,0.9971	-16178.61
0.0025,0.9975	-16184.24
0.0027,0.9973	-16190.22
0.0018,0.9982	-16184.98
0.0025,0.9975	-16196.22
0.0027,0.9973	-16190.22
0.0030,0.9970	-16184.53
0.0024,0.9976	-16184.25
0.0033,0.9967	-16179.39
0.0019,0.9981	-16184.75
0.0024,0.9976	-16190.30
0.0027,0.9973	-16184.29
0.0023,0.9977	-16178.22
0.0028,0.9972	-16184.39
0.0030,0.9970	-16184.55
0.0027,0.9973	-16184.28
0.0028,0.9972	-16201.99
0.0025,0.9975	-16184.25
0.0023,0.9977	-16196.40
0.0030,0.9970	-16190.39
0.0025,0.9975	-16190.23
0.0024,0.9976	-16184.26
0.0027,0.9973	-16184.29
0.0028,0.9972	-16190.23
0.0024,0.9976	-16178.22
0.0025,0.9975	-16196.25
0.0027,0.9973	-16178.38
0.0026,0.9974	-16184.26
0.0023,0.9977	-16178.22
0.0029,0.9971	-16184.44
0.0027,0.9973	-16178.42
0.0023,0.9977	-16184.30
0.0028,0.9972	-16190.26
0.0023,0.9977	-16190.40
0.0025,0.9975	-16184.24
0.0034,0.9966	-16185.28
0.0023,0.9977	-16196.47
0.0025,0.9975	-16184.24
0.0030,0.9970	-16178.79
0.0023,0.9977	-16202.43
0.0024,0.9976	-16184.24
0.0028,0.9972	-16196.13
0.0023,0.9977	-16196.50
0.0017,0.9983	-16191.60
0.0020,0.9980	-16190.77
0.0020,0.9980	-16184.58
0.0022,0.9978	-16190.54
0.0031,0.9969	-16190.54
0.0026,0.9974	-16190.21
0.0020,0.9980	-16178.48
0.0029,0.9971	-16178.62
0.0022,0.9978	-16184.40
0.0019,0.9981	-16197.37
0.0031,0.9969	-16184.78
0.0032,0.9968	-16190.65
0.0018,0.9982	-16178.74
0.0028,0.9972	-16184.40
0.0024,0.9976	-16190.31
0.0021,0.9979	-16184.44
0.0028,0.9972	-16184.34
0.0033,0.9967	-16185.07
0.0023,0.9977	-16184.29
0.0036,0.9964	-16208.16
0.0022,0.9978	-16184.33
0.0019,0.9981	-16178.63
0.0023,0.9977	-16178.22
0.0029,0.9971	-16196.14
0.0021,0.9979	-16184.52
0.0036,0.9964	-16196.93
0.0022,0.9978	-16184.39
0.0020,0.9980	-16190.76
0.0027,0.9973	-16196.14
0.0028,0.9972	-16190.24
0.0020,0.9980	-16178.39
0.0035,0.9965	-16191.04
0.0019,0.9981	-16178.57
0.0023,0.9977	-16184.28
0.0030,0.9970	-16196.20
0.0027,0.9973	-16184.31
0.0020,0.9980	-16178.41
0.0034,0.9966	-16179.53
0.0023,0.9977	-16184.27
0.0022,0.9978	-16190.50
0.0030,0.9970	-16178.79
0.0029,0.9971	-16184.49
0.0022,0.9978	-16178.23
0.0033,0.9967	-16190.78
0.0026,0.9974	-16190.21
0.0021,0.9979	-16202.97
0.0039,0.9961	-16191.97
0.0029,0.9971	-16184.49
0.0025,0.9975	-16196.24
0.0038,0.9962	-16186.08
0.0025,0.9975	-16178.26
0.0021,0.9979	-16184.47
0.0035,0.9965	-16196.68
0.0030,0.9970	-16196.18
0.0023,0.9977	-16178.22
0.0031,0.9969	-16184.74
0.0030,0.9970	-16178.82
0.0019,0.9981	-16184.84
0.0031,0.9969	-16178.94
0.0034,0.9966	-16196.55
0.0026,0.9974	-16202.09
0.0030,0.9970	-16190.35
0.0035,0.9965	-16185.41
0.0020,0.9980	-16184.62
0.0033,0.9967	-16179.29
0.0032,0.9968	-16190.64
0.0029,0.9971	-16184.50
0.0034,0.9966	-16190.91
0.0042,0.9958	-16209.15
0.0023,0.9977	-16190.42
0.0026,0.9974	-16178.33
0.0029,0.9971	-16196.14
0.0032,0.9968	-16196.34
0.0030,0.9970	-16190.40
0.0042,0.9958	-16187.33
0.0025,0.9975	-16196.19
0.0032,0.9968	-16190.67
0.0031,0.9969	-16184.67
0.0027,0.9973	-16184.33
0.0031,0.9969	-16184.69
0.0033,0.9967	-16185.10
0.0029,0.9971	-16184.48
0.0029,0.9971	-16184.46
0.0028,0.9972	-16184.37
0.0028,0.9972	-16184.34
0.0026,0.9974	-16178.33
0.0032,0.9968	-16190.55
0.0021,0.9979	-16184.43
0.0024,0.9976	-16184.26
0.0024,0.9976	-16178.22
0.0024,0.9976	-16190.30
0.0022,0.9978	-16190.49
0.0033,0.9967	-16179.42
0.0019,0.9981	-16191.16
0.0026,0.9974	-16196.17
0.0027,0.9973	-16178.42
0.0026,0.9974	-16178.29
0.0020,0.9980	-16184.67
0.0024,0.9976	-16190.30
0.0025,0.9975	-16190.24
0.0031,0.9969	-16184.67
0.0026,0.9974	-16184.26
0.0023,0.9977	-16208.52
0.0020,0.9980	-16184.59
0.0023,0.9977	-16190.38
0.0031,0.9969	-16202.03
0.0027,0.9973	-16190.23
0.0023,0.9977	-16178.22
0.0031,0.9969	-16190.48
0.0022,0.9978	-16178.24
0.0020,0.9980	-16190.80
0.0031,0.9969	-16184.75
0.0026,0.9974	-16178.30
0.0028,0.9972	-16196.13
0.0031,0.9969	-16178.89
0.0031,0.9969	-16190.44
0.0019,0.9981	-16197.26
0.0038,0.9962	-16186.10
0.0020,0.9980	-16197.03
0.0030,0.9970	-16196.19
0.0026,0.9974	-16196.17
0.0026,0.9974	-16184.28
0.0018,0.9982	-16185.07
0.0040,0.9960	-16192.17
0.0015,0.9985	-16185.97
0.0031,0.9969	-16184.73
0.0026,0.9974	-16196.18
0.0028,0.9972	-16190.24
0.0018,0.9982	-16178.72
0.0031,0.9969	-16207.81
0.0015,0.9985	-16186.16
0.0032,0.9968	-16202.12
0.0025,0.9975	-16184.24
0.0039,0.9961	-16197.49
0.0017,0.9983	-16178.92
0.0034,0.9966	-16196.53
0.0016,0.9984	-16179.41
0.0033,0.9967	-16190.81
0.0025,0.9975	-16184.24
0.0038,0.9962	-16197.30
0.0018,0.9982	-16185.09
0.0028,0.9972	-16184.42
0.0016,0.9984	-16198.84
0.0029,0.9971	-16190.29
0.0021,0.9979	-16178.36
0.0033,0.9967	-16202.14
0.0019,0.9981	-16178.59
0.0024,0.9976	-16178.22
0.0015,0.9985	-16199.37
0.0037,0.9963	-16191.57
0.0017,0.9983	-16191.58
0.0030,0.9970	-16184.55
0.0020,0.9980	-16190.81
0.0030,0.9970	-16196.21
0.0015,0.9985	-16192.79
0.0039,0.9961	-16186.43
0.0022,0.9978	-16178.27
0.0027,0.9973	-16178.44
0.0019,0.9981	-16191.11
0.0024,0.9976	-16178.23
0.0018,0.9982	-16185.19
0.0040,0.9960	-16214.19
0.0020,0.9980	-16184.61
0.0027,0.9973	-16178.41
0.0022,0.9978	-16184.39
0.0030,0.9970	-16190.40
0.0018,0.9982	-16178.84
0.0031,0.9969	-16190.50
0.0024,0.9976	-16178.23
0.0023,0.9977	-16178.22
0.0024,0.9976	-16196.29
0.0029,0.9971	-16190.31
0.0019,0.9981	-16184.83
0.0028,0.9972	-16190.27
0.0027,0.9973	-16184.32
0.0025,0.9975	-16208.19
0.0029,0.9971	-16196.14
0.0026,0.9974	-16202.10
0.0013,0.9987	-16187.12
0.0031,0.9969	-16178.94
0.0029,0.9971	-16184.46
0.0028,0.9972	-16196.13
0.0034,0.9966	-16185.14
0.0032,0.9968	-16196.34
0.0014,0.9986	-16193.38
0.0030,0.9970	-16190.39
0.0030,0.9970	-16178.77
0.0026,0.9974	-16196.15
0.0030,0.9970	-16178.73
0.0030,0.9970	-16184.62
0.0015,0.9985	-16186.02
0.0028,0.9972	-16184.39
0.0036,0.9964	-16191.31
0.0028,0.9972	-16184.39
0.0032,0.9968	-16190.57
0.0032,0.9968	-16190.56
0.0017,0.9983	-16198.24
0.0028,0.9972	-16178.51
0.0033,0.9967	-16196.51
0.0029,0.9971	-16201.99
0.0033,0.9967	-16190.72
0.0028,0.9972	-16196.12
0.0016,0.9984	-16205.36
0.0029,0.9971	-16190.30
0.0027,0.9973	-16202.02
0.0033,0.9967	-16179.27
0.0038,0.9962	-16197.24
0.0028,0.9972	-16184.35
0.0014,0.9986	-16180.03
0.0026,0.9974	-16190.21
0.0024,0.9976	-16184.26
0.0030,0.9970	-16190.35
0.0035,0.9965	-16196.73
0.0028,0.9972	-16190.26
0.0015,0.9985	-16192.79
0.0021,0.9979	-16178.30
0.0026,0.9974	-16196.15
0.0026,0.9974	-16184.28
0.0029,0.9971	-16190.29
0.0031,0.9969	-16196.29
0.0018,0.9982	-16184.96
0.0023,0.9977	-16184.30
0.0031,0.9969	-16184.70
0.0028,0.9972	-16190.27
0.0040,0.9960	-16197.77
0.0032,0.9968	-16190.58
0.0024,0.9976	-16190.31
0.0020,0.9980	-16184.57
0.0028,0.9972	-16196.12
0.0022,0.9978	-16184.34
0.0037,0.9963	-16208.29
0.0029,0.9971	-16196.14
0.0019,0.9981	-16184.84
0.0024,0.9976	-16178.22
0.0026,0.9974	-16190.21
0.0021,0.9979	-16178.31
0.0038,0.9962	-16180.67
0.0035,0.9965	-16202.42
0.0026,0.9974	-16184.25
0.0022,0.9978	-16190.52
0.0027,0.9973	-16184.33
0.0023,0.9977	-16184.31
0.0037,0.9963	-16196.99
0.0030,0.9970	-16196.18
0.0025,0.9975	-16208.16
0.0017,0.9983	-16185.48
0.0032,0.9968	-16190.57
0.0022,0.9978	-16190.46
0.0037,0.9963	-16185.86
0.0034,0.9966	-16190.93
0.0022,0.9978	-16184.40
0.0015,0.9985	-16186.21
0.0030,0.9970	-16196.19
0.0023,0.9977	-16184.28
0.0036,0.9964	-16180.07
0.0031,0.9969	-16184.76
0.0027,0.9973	-16190.22
0.0016,0.9984	-16179.27
0.0025,0.9975	-16190.25
0.0022,0.9978	-16190.43
0.0028,0.9972	-16178.47
0.0030,0.9970	-16184.55
0.0033,0.9967	-16196.40
0.0017,0.9983	-16178.92
0.0020,0.9980	-16178.41
0.0023,0.9977	-16184.32
0.0025,0.9975	-16178.25
0.0034,0.9966	-16190.93
0.0036,0.9964	-16185.61
0.0019,0.9981	-16178.50
0.0024,0.9976	-16190.29
0.0024,0.9976	-16196.30
0.0024,0.9976	-16178.23
0.0030,0.9970	-16184.57
0.0033,0.9967	-16196.42
0.0019,0.9981	-16184.74
0.0026,0.9974	-16178.33
0.0025,0.9975	-16178.25
0.0023,0.9977	-16202.47
0.0032,0.9968	-16190.56
0.0026,0.9974	-16190.21
0.0015,0.9985	-16192.54
0.0027,0.9973	-16196.13
0.0021,0.9979	-16178.29
0.0025,0.9975	-16178.26
0.0038,0.9962	-16180.48
0.0026,0.9974	-16196.16
0.0017,0.9983	-16185.23
0.0021,0.9979	-16196.75
0.0020,0.9980	-16190.76
0.0026,0.9974	-16184.27
0.0035,0.9965	-16196.72
0.0027,0.9973	-16196.13
0.0018,0.9982	-16178.79
0.0024,0.9976	-16190.32
0.0020,0.9980	-16197.04
0.0027,0.9973	-16196.12
0.0034,0.9966	-16190.88
0.0024,0.9976	-16196.34
0.0019,0.9981	-16197.37
0.0021,0.9979	-16178.35
0.0028,0.9972	-16184.35
0.0027,0.9973	-16184.29
0.0033,0.9967	-16185.12
0.0026,0.9974	-16202.07
0.0019,0.9981	-16184.77
0.0016,0.9984	-16185.62
0.0023,0.9977	-16190.32
0.0028,0.9972	-16184.41
0.0034,0.9966	-16179.51
0.0030,0.9970	-16178.86
0.0016,0.9984	-16179.41
0.0018,0.9982	-16185.16
0.0021,0.9979	-16178.36
0.0028,0.9972	-16196.12
0.0032,0.9968	-16184.80
0.0031,0.9969	-16202.05
0.0019,0.9981	-16178.59
0.0022,0.9978	-16178.26
0.0022,0.9978	-16184.37
0.0027,0.9973	-16178.38
0.0034,0.9966	-16185.16
0.0026,0.9974	-16190.21
0.0022,0.9978	-16184.35
0.0022,0.9978	-16178.24
0.0020,0.9980	-16190.77
0.0024,0.9976	-16196.32
0.0022,0.9978	-16196.63
0.0027,0.9973	-16190.22
0.0022,0.9978	-16190.44
0.0024,0.9976	-16178.23
0.0023,0.9977	-16190.37
0.0025,0.9975	-16190.22
0.0025,0.9975	-16184.24
0.0028,0.9972	-16184.38
0.0022,0.9978	-16190.43
0.0034,0.9966	-16202.25
0.0021,0.9979	-16184.42
0.0022,0.9978	-16208.82
0.0026,0.9974	-16184.26
0.0028,0.9972	-16202.00
0.0021,0.9979	-16184.46
0.0032,0.9968	-16179.22
0.0021,0.9979	-16184.55
0.0024,0.9976	-16178.22
0.0030,0.9970	-16184.54
0.0022,0.9978	-16208.80
0.0022,0.9978	-16184.41
0.0036,0.9964	-16185.55
0.0021,0.9979	-16178.30
0.0028,0.9972	-16196.13
0.0022,0.9978	-16190.43
0.0026,0.9974	-16196.16
0.0016,0.9984	-16192.09
0.0033,0.9967	-16179.35
0.0024,0.9976	-16184.27
0.0023,0.9977	-16190.42
0.0023,0.9977	-16178.23
0.0029,0.9971	-16178.69
0.0018,0.9982	-16184.99
0.0031,0.9969	-16184.74
0.0026,0.9974	-16196.16
0.0017,0.9983	-16185.31
0.0029,0.9971	-16201.99
0.0026,0.9974	-16184.27
0.0022,0.9978	-16190.50
0.0036,0.9964	-16196.85
0.0021,0.9979	-16184.43
0.0016,0.9984	-16192.26
0.0028,0.9972	-16207.85
0.0027,0.9973	-16202.05
0.0026,0.9974	-16178.31
0.0034,0.9966	-16196.62
0.0023,0.9977	-16178.22
0.0017,0.9983	-16178.88
0.0027,0.9973	-16184.30
0.0023,0.9977	-16184.29
0.0027,0.9973	-16190.21
0.0030,0.9970	-16196.21
0.0021,0.9979	-16196.93
0.0022,0.9978	-16184.40
0.0031,0.9969	-16178.98
0.0020,0.9980	-16184.58
0.0028,0.9972	-16178.55
0.0021,0.9979	-16196.90
0.0024,0.9976	-16184.26
0.0025,0.9975	-16184.24
0.0031,0.9969	-16190.48
0.0020,0.9980	-16184.62
0.0029,0.9971	-16184.42
0.0019,0.9981	-16178.54
0.0023,0.9977	-16178.22
0.0025,0.9975	-16178.25
0.0035,0.9965	-16185.47
0.0016,0.9984	-16185.66
0.0040,0.9960	-16197.72
0.0016,0.9984	-16185.78
0.0024,0.9976	-16178.22
0.0031,0.9969	-16190.50
0.0036,0.9964	-16202.48
0.0014,0.9986	-16179.93
0.0030,0.9970	-16190.37
0.0024,0.9976	-16178.22
0.0024,0.9976	-16202.33
0.0033,0.9967	-16190.82
0.0033,0.9967	-16185.10
0.0013,0.9987	-16187.08
0.0032,0.9968	-16190.57
0.0021,0.9979	-16184.55
0.0027,0.9973	-16184.32
0.0030,0.9970	-16184.57
0.0033,0.9967	-16190.71
0.0014,0.9986	-16186.86
0.0027,0.9973	-16190.21
0.0023,0.9977	-16190.33
0.0026,0.9974	-16190.21
0.0026,0.9974	-16178.34
0.0035,0.9965	-16185.51
0.0016,0.9984	-16192.29
0.0026,0.9974	-16190.21
0.0021,0.9979	-16178.35
0.0024,0.9976	-16190.31
0.0036,0.9964	-16196.82
0.0034,0.9966	-16179.62
0.0018,0.9982	-16178.68
0.0024,0.9976	-16184.25
0.0023,0.9977	-16184.32
0.0022,0.9978	-16178.26
0.0036,0.9964	-16191.26
0.0031,0.9969	-16190.54
0.0023,0.9977	-16202.51
0.0022,0.9978	-16178.27
0.0022,0.9978	-16178.24
0.0023,0.9977	-16178.23
0.0033,0.9967	-16196.41
0.0033,0.9967	-16190.72
0.0025,0.9975	-16178.24
0.0025,0.9975	-16190.23
0.0026,0.9974	-16184.26
0.0024,0.9976	-16196.31
0.0033,0.9967	-16179.24
0.0035,0.9965	-16179.69
0.0027,0.9973	-16184.28
0.0025,0.9975	-16190.23
0.0026,0.9974	-16196.15
0.0024,0.9976	-16196.27
0.0032,0.9968	-16184.83
0.0030,0.9970	-16184.63
0.0025,0.9975	-16196.26
0.0024,0.9976	-16184.24
0.0027,0.9973	-16196.14
0.0020,0.9980	-16178.47
0.0027,0.9973	-16196.13
0.0032,0.9968	-16202.07
0.0021,0.9979	-16184.55
0.0021,0.9979	-16190.72
0.0027,0.9973	-16178.44
0.0022,0.9978	-16190.46
0.0024,0.9976	-16184.25
0.0032,0.9968	-16196.40
0.0027,0.9973	-16184.29
0.0020,0.9980	-16184.62
0.0031,0.9969	-16190.51
0.0022,0.9978	-16184.40
0.0022,0.9978	-16190.48
0.0032,0.9968	-16184.85
0.0029,0.9971	-16196.14
0.0019,0.9981	-16184.73
0.0028,0.9972	-16184.38
0.0026,0.9974	-16178.33
0.0025,0.9975	-16184.24
0.0033,0.9967	-16185.07
0.0026,0.9974	-16196.16
0.0019,0.9981	-16184.73
0.0024,0.9976	-16196.27
0.0022,0.9978	-16184.33
0.0025,0.9975	-16202.21
0.0041,0.9959	-16181.29
0.0031,0.9969	-16196.29
0.0016,0.9984	-16185.84
0.0027,0.9973	-16190.22
0.0024,0.9976	-16184.26
0.0023,0.9977	-16190.34
0.0036,0.9964	-16196.87
0.0029,0.9971	-16184.42
0.0018,0.9982	-16185.09
0.0028,0.9972	-16190.28
0.0022,0.9978	-16184.33
0.0027,0.9973	-16190.23
0.0032,0.9968	-16196.39
0.0027,0.9973	-16178.37
0.0023,0.9977	-16190.34
0.0023,0.9977	-16184.31
0.0022,0.9978	-16178.25
0.0036,0.9964	-16180.01
0.0027,0.9973	-16184.34
0.0022,0.9978	-16184.38
0.0019,0.9981	-16178.52
0.0022,0.9978	-16184.41
0.0023,0.9977	-16196.43
0.0038,0.9962	-16186.00
0.0022,0.9978	-16190.48
0.0022,0.9978	-16184.35
0.0024,0.9976	-16184.26
0.0020,0.9980	-16190.85
0.0023,0.9977	-16184.32
0.0032,0.9968	-16202.08
0.0024,0.9976	-16196.28
0.0019,0.9981	-16203.64
0.0024,0.9976	-16190.31
0.0023,0.9977	-16178.22
0.0020,0.9980	-16184.62
0.0029,0.9971	-16196.15
0.0027,0.9973	-16196.13
0.0019,0.9981	-16197.49
0.0030,0.9970	-16184.61
0.0024,0.9976	-16184.26
0.0024,0.9976	-16184.25
0.0037,0.9963	-16197.13
0.0025,0.9975	-16178.24
0.0018,0.9982	-16191.26
0.0028,0.9972	-16202.00
0.0020,0.9980	-16190.79
0.0022,0.9978	-16178.27
0.0031,0.9969	-16190.48
0.0025,0.9975	-16184.24
0.0018,0.9982	-16185.16
0.0025,0.9975	-16184.24
0.0018,0.9982	-16197.68
0.0030,0.9970	-16178.78
0.0030,0.9970	-16184.63
0.0026,0.9974	-16196.17
0.0022,0.9978	-16178.28
0.0028,0.9972	-16178.56
0.0015,0.9985	-16186.18
0.0033,0.9967	-16185.10
0.0031,0.9969	-16178.95
0.0021,0.9979	-16178.30
0.0030,0.9970	-16196.19
0.0026,0.9974	-16178.34
0.0019,0.9981	-16184.79
0.0030,0.9970	-16184.65
0.0033,0.9967	-16190.69
0.0022,0.9978	-16184.35
0.0024,0.9976	-16184.27
0.0027,0.9973	-16190.21
0.0015,0.9985	-16179.89
0.0035,0.9965	-16185.41
0.0034,0.9966	-16185.14
0.0031,0.9969	-16184.66
0.0023,0.9977	-16196.43
0.0025,0.9975	-16196.20
0.0016,0.9984	-16198.73
0.0032,0.9968	-16184.89
0.0038,0.9962	-16191.75
0.0031,0.9969	-16207.81
0.0023,0.9977	-16196.48
0.0026,0.9974	-16178.28
0.0016,0.9984	-16192.28
0.0038,0.9962	-16197.32
0.0041,0.9959	-16197.85
0.0026,0.9974	-16190.21
0.0022,0.9978	-16184.40
0.0027,0.9973	-16202.05
0.0015,0.9985	-16179.67
0.0044,0.9956	-16198.57
0.0037,0.9963	-16213.90
0.0023,0.9977	-16196.43
0.0023,0.9977	-16178.23
0.0028,0.9972	-16196.13
0.0017,0.9983	-16191.83
0.0044,0.9956	-16198.54
0.0035,0.9965	-16191.01
0.0024,0.9976	-16178.22
0.0022,0.9978	-16178.26
0.0030,0.9970	-16190.43
0.0017,0.9983	-16185.29
0.0048,0.9952	-16189.12
0.0034,0.9966	-16196.65
0.0027,0.9973	-16184.30
0.0024,0.9976	-16196.31
0.0044,0.9956	-16204.05
0.0016,0.9984	-16205.06
0.0039,0.9961	-16191.93
0.0037,0.9963	-16180.36
0.0023,0.9977	-16184.28
0.0021,0.9979	-16196.76
0.0037,0.9963	-16191.41
0.0014,0.9986	-16186.75
0.0033,0.9967	-16179.32
0.0036,0.9964	-16180.12
0.0026,0.9974	-16184.25
0.0024,0.9976	-16196.27
0.0044,0.9956	-16198.71
0.0018,0.9982	-16185.21
0.0029,0.9971	-16184.47
0.0035,0.9965	-16196.67
0.0021,0.9979	-16190.61
0.0022,0.9978	-16190.47
0.0047,0.9953	-16188.67
0.0025,0.9975	-16202.23
0.0029,0.9971	-16178.63
0.0028,0.9972	-16184.36
0.0015,0.9985	-16186.34
0.0022,0.9978	-16190.50
0.0047,0.9953	-16188.83
0.0020,0.9980	-16196.97
0.0024,0.9976	-16202.32
0.0030,0.9970	-16178.73
0.0016,0.9984	-16179.16
0.0026,0.9974	-16178.34
0.0048,0.9952	-16199.70
0.0022,0.9978	-16178.24
0.0026,0.9974	-16184.28
0.0029,0.9971	-16190.31
0.0018,0.9982	-16185.12
0.0032,0.9968	-16184.86
0.0038,0.9962	-16186.05
0.0025,0.9975	-16178.24
0.0030,0.9970	-16196.21
0.0034,0.9966	-16185.31
0.0017,0.9983	-16191.69
0.0035,0.9965	-16185.42
0.0037,0.9963	-16191.57
0.0025,0.9975	-16184.24
0.0022,0.9978	-16184.42
0.0034,0.9966	-16185.16
0.0019,0.9981	-16197.31
0.0030,0.9970	-16184.60
0.0037,0.9963	-16197.06
0.0026,0.9974	-16184.27
0.0020,0.9980	-16178.43
0.0033,0.9967	-16196.52
0.0019,0.9981	-16203.70
0.0024,0.9976	-16184.26
0.0042,0.9958	-16209.02
0.0024,0.9976	-16178.22
0.0020,0.9980	-16184.58
0.0036,0.9964	-16185.60
0.0019,0.9981	-16184.73
0.0024,0.9976	-16184.26
0.0042,0.9958	-16192.68
0.0024,0.9976	-16190.26
0.0023,0.9977	-16196.49
0.0034,0.9966	-16185.24
0.0021,0.9979	-16178.34
0.0025,0.9975	-16190.24
0.0038,0.9962	-16202.74
0.0022,0.9978	-16184.39
0.0022,0.9978	-16208.75
0.0040,0.9960	-16181.09
0.0017,0.9983	-16191.58
0.0026,0.9974	-16196.14
0.0048,0.9952	-16194.53
0.0020,0.9980	-16190.80
0.0019,0.9981	-16191.06
0.0045,0.9955	-16188.03
0.0019,0.9981	-16197.21
0.0031,0.9969	-16184.75
0.0038,0.9962	-16219.56
0.0018,0.9982	-16184.96
0.0028,0.9972	-16190.23
0.0036,0.9964	-16191.22
0.0018,0.9982	-16204.03
0.0034,0.9966	-16185.18
0.0034,0.9966	-16190.94
0.0019,0.9981	-16178.57
0.0026,0.9974	-16184.25
0.0034,0.9966	-16213.65
0.0019,0.9981	-16216.26
0.0026,0.9974	-16196.16
0.0029,0.9971	-16190.34
0.0019,0.9981	-16184.95
0.0021,0.9979	-16184.47
0.0040,0.9960	-16197.59
0.0019,0.9981	-16184.94
0.0027,0.9973	-16190.22
0.0028,0.9972	-16178.50
0.0023,0.9977	-16178.23
0.0023,0.9977	-16178.22
0.0033,0.9967	-16196.50
0.0022,0.9978	-16202.81
0.0033,0.9967	-16190.81
0.0029,0.9971	-16196.14
0.0023,0.9977	-16190.32
0.0029,0.9971	-16184.42
0.0040,0.9960	-16186.55
0.0023,0.9977	-16190.40
0.0028,0.9972	-16184.37
0.0026,0.9974	-16178.33
0.0025,0.9975	-16184.24
0.0023,0.9977	-16190.41
0.0045,0.9955	-16193.59
0.0021,0.9979	-16184.55
0.0019,0.9981	-16178.60
0.0024,0.9976	-16184.25
0.0026,0.9974	-16196.16
0.0024,0.9976	-16178.22
0.0037,0.9963	-16191.53
0.0028,0.9972	-16184.41
0.0023,0.9977	-16184.31
0.0026,0.9974	-16196.18
0.0026,0.9974	-16184.25
0.0019,0.9981	-16178.58
0.0039,0.9961	-16186.32
0.0032,0.9968	-16196.35
0.0022,0.9978	-16202.71
0.0026,0.9974	-16190.21
0.0018,0.9982	-16191.34
0.0019,0.9981	-16178.59
0.0039,0.9961	-16186.37
0.0027,0.9973	-16190.22
0.0024,0.9976	-16178.22
0.0027,0.9973	-16190.22
0.0021,0.9979	-16184.44
0.0025,0.9975	-16184.24
0.0041,0.9959	-16197.98
0.0028,0.9972	-16184.42
0.0024,0.9976	-16184.24
0.0022,0.9978	-16178.24
0.0019,0.9981	-16184.92
0.0024,0.9976	-16178.22
0.0047,0.9953	-16199.53
0.0031,0.9969	-16184.66
0.0035,0.9965	-16179.70
0.0020,0.9980	-16190.93
0.0018,0.9982	-16178.70
0.0027,0.9973	-16190.23
0.0041,0.9959	-16203.31
0.0034,0.9966	-16190.89
0.0040,0.9960	-16186.73
0.0019,0.9981	-16191.22
0.0019,0.9981	-16184.73
0.0029,0.9971	-16184.45
0.0039,0.9961	-16197.41
0.0030,0.9970	-16178.73
0.0040,0.9960	-16197.70
0.0021,0.9979	-16184.54
0.0021,0.9979	-16178.31
0.0028,0.9972	-16196.13
0.0051,0.9949	-16206.13
0.0030,0.9970	-16196.21
0.0033,0.9967	-16202.19
0.0022,0.9978	-16184.40
0.0023,0.9977	-16184.30
0.0027,0.9973	-16190.23
0.0053,0.9947	-16206.68
0.0025,0.9975	-16178.25
0.0035,0.9965	-16185.34
0.0021,0.9979	-16196.83
0.0022,0.9978	-16208.92
0.0024,0.9976	-16184.24
0.0045,0.9955	-16204.29
0.0030,0.9970	-16201.99
0.0038,0.9962	-16186.25
0.0019,0.9981	-16178.52
0.0021,0.9979	-16184.53
0.0025,0.9975	-16178.23
0.0037,0.9963	-16191.54
0.0027,0.9973	-16184.30
0.0040,0.9960	-16197.78
0.0019,0.9981	-16191.03
0.0019,0.9981	-16191.04
0.0029,0.9971	-16184.45
0.0032,0.9968	-16190.64
0.0024,0.9976	-16190.31
0.0041,0.9959	-16203.35
0.0024,0.9976	-16184.26
0.0022,0.9978	-16184.37
0.0033,0.9967	-16190.74
0.0031,0.9969	-16184.77
0.0020,0.9980	-16178.48
0.0033,0.9967	-16179.24
0.0024,0.9976	-16196.34
0.0022,0.9978	-16184.33
0.0023,0.9977	-16190.37
0.0035,0.9965	-16196.69
0.0023,0.9977	-16196.49
0.0028,0.9972	-16178.47
0.0019,0.9981	-16184.84
0.0023,0.9977	-16190.39
0.0018,0.9982	-16178.70
0.0034,0.9966	-16202.30
0.0024,0.9976	-16190.30
0.0034,0.9966	-16190.91
0.0018,0.9982	-16178.74
0.0028,0.9972	-16184.36
0.0021,0.9979	-16178.36
0.0024,0.9976	-16190.26
0.0020,0.9980	-16190.77
0.0034,0.9966	-16185.32
0.0021,0.9979	-16178.30
0.0027,0.9973	-16202.04
0.0026,0.9974	-16178.29
0.0025,0.9975	-16190.22
0.0017,0.9983	-16179.04
0.0027,0.9973	-16178.35
0.0020,0.9980	-16184.58
0.0029,0.9971	-16190.31
0.0023,0.9977	-16178.22
0.0027,0.9973	-16184.30
0.0016,0.9984	-16198.47
0.0026,0.9974	-16178.34
0.0019,0.9981	-16178.53
0.0025,0.9975	-16184.25
0.0034,0.9966	-16190.91
0.0027,0.9973	-16202.03
0.0023,0.9977	-16178.22
0.0028,0.9972	-16178.44
0.0023,0.9977	-16178.23
0.0031,0.9969	-16190.48
0.0034,0.9966	-16185.13
0.0028,0.9972	-16231.37
0.0023,0.9977	-16184.31
0.0021,0.9979	-16202.89
0.0024,0.9976	-16178.23
0.0030,0.9970	-16196.18
0.0029,0.9971	-16184.42
0.0025,0.9975	-16178.26
0.0024,0.9976	-16184.26
0.0021,0.9979	-16190.65
0.0021,0.9979	-16178.35
0.0028,0.9972	-16178.50
0.0023,0.9977	-16178.23
0.0020,0.9980	-16184.62
0.0028,0.9972	-16196.12
0.0026,0.9974	-16190.21
0.0023,0.9977	-16184.28
0.0022,0.9978	-16184.41
0.0023,0.9977	-16190.33
0.0018,0.9982	-16185.03
0.0035,0.9965	-16185.52
0.0028,0.9972	-16190.26
0.0019,0.9981	-16184.82
0.0024,0.9976	-16184.25
0.0029,0.9971	-16196.14
0.0022,0.9978	-16184.34
0.0037,0.9963	-16191.56
0.0022,0.9978	-16178.24
0.0018,0.9982	-16191.52
0.0022,0.9978	-16202.71
0.0031,0.9969	-16196.23
0.0022,0.9978	-16178.24
0.0028,0.9972	-16184.36
0.0023,0.9977	-16184.27
0.0021,0.9979	-16190.65
0.0023,0.9977	-16190.41
0.0029,0.9971	-16190.32
0.0024,0.9976	-16196.29
0.0031,0.9969	-16178.92
0.0026,0.9974	-16184.25
0.0026,0.9974	-16190.21
0.0019,0.9981	-16184.94
0.0024,0.9976	-16190.27
0.0026,0.9974	-16202.11
0.0034,0.9966	-16196.65
0.0031,0.9969	-16190.48
0.0030,0.9970	-16196.20
0.0020,0.9980	-16178.48
0.0025,0.9975	-16196.22
0.0033,0.9967	-16196.48
0.0027,0.9973	-16196.13
0.0030,0.9970	-16196.22
0.0029,0.9971	-16184.48
0.0021,0.9979	-16184.54
0.0024,0.9976	-16178.22
0.0027,0.9973	-16190.21
0.0027,0.9973	-16207.96
0.0036,0.9964	-16185.57
0.0030,0.9970	-16190.37
0.0017,0.9983	-16178.93
0.0024,0.9976	-16178.23
0.0026,0.9974	-16202.13
0.0026,0.9974	-16190.21
0.0035,0.9965	-16191.16
0.0022,0.9978	-16196.52
0.0018,0.9982	-16178.73
0.0025,0.9975	-16178.25
0.0026,0.9974	-16178.32
0.0021,0.9979	-16196.86
0.0028,0.9972	-16207.85
0.0021,0.9979	-16184.55
0.0019,0.9981	-16197.33
0.0020,0.9980	-16190.84
0.0024,0.9976	-16196.33
0.0022,0.9978	-16184.40
0.0027,0.9973	-16178.43
0.0023,0.9977	-16178.23
0.0025,0.9975	-16202.24
0.0022,0.9978	-16178.28
0.0018,0.9982	-16184.98
0.0020,0.9980	-16184.65
0.0029,0.9971	-16178.61
0.0030,0.9970	-16202.00
0.0024,0.9976	-16196.33
0.0027,0.9973	-16190.21
0.0021,0.9979	-16196.71
0.0022,0.9978	-16178.26
0.0026,0.9974	-16190.22
0.0024,0.9976	-16184.24
0.0028,0.9972	-16196.13
0.0027,0.9973	-16184.29
0.0022,0.9978	-16202.72
0.0023,0.9977	-16190.34
0.0025,0.9975	-16190.23
0.0027,0.9973	-16178.37
0.0027,0.9973	-16190.21
0.0023,0.9977	-16184.29
0.0018,0.9982	-16185.04
0.0021,0.9979	-16184.49
0.0025,0.9975	-16184.25
0.0024,0.9976	-16190.26
0.0034,0.9966	-16202.25
0.0021,0.9979	-16184.49
0.0017,0.9983	-16204.43
0.0023,0.9977	-16190.41
0.0031,0.9969	-16184.69
0.0025,0.9975	-16184.24
0.0034,0.9966	-16202.24
0.0024,0.9976	-16196.33
0.0021,0.9979	-16190.73
0.0022,0.9978	-16184.34
0.0031,0.9969	-16196.30
0.0032,0.9968	-16196.40
0.0035,0.9965	-16191.06
0.0018,0.9982	-16178.71
0.0023,0.9977	-16184.32
0.0025,0.9975	-16184.24
0.0037,0.9963	-16191.56
0.0029,0.9971	-16184.43
0.0036,0.9964	-16185.62
0.0018,0.9982	-16191.45
0.0023,0.9977	-16196.43
0.0027,0.9973	-16196.13
0.0036,0.9964	-16196.86
0.0030,0.9970	-16201.99
0.0033,0.9967	-16196.47
0.0015,0.9985	-16186.09
0.0022,0.9978	-16196.65
0.0022,0.9978	-16196.58
0.0029,0.9971	-16190.32
0.0024,0.9976	-16190.25
0.0029,0.9971	-16178.66
0.0019,0.9981	-16178.54
0.0029,0.9971	-16184.44
0.0020,0.9980	-16178.44
0.0033,0.9967	-16190.76
0.0023,0.9977	-16190.32
0.0028,0.9972	-16184.40
0.0017,0.9983	-16191.77
0.0031,0.9969	-16179.03
0.0022,0.9978	-16184.34
0.0029,0.9971	-16184.42
0.0026,0.9974	-16184.27
0.0029,0.9971	-16184.43
0.0020,0.9980	-16184.71
0.0032,0.9968	-16190.67
0.0022,0.9978	-16184.33
0.0026,0.9974	-16184.26
0.0025,0.9975	-16178.27
0.0033,0.9967	-16184.99
0.0015,0.9985	-16186.22
0.0036,0.9964	-16185.62
0.0026,0.9974	-16190.21
0.0027,0.9973	-16178.41
0.0025,0.9975	-16190.22
0.0031,0.9969	-16190.51
0.0013,0.9987	-16187.00
0.0037,0.9963	-16197.10
0.0025,0.9975	-16184.24
0.0026,0.9974	-16184.27
0.0031,0.9969	-16190.47
0.0031,0.9969	-16207.81
0.0017,0.9983	-16191.89
0.0033,0.9967	-16196.52
0.0025,0.9975	-16178.24
0.0038,0.9962	-16191.77
0.0034,0.9966	-16179.65
0.0027,0.9973	-16184.34
0.0014,0.9986	-16179.98
0.0033,0.9967	-16196.43
0.0020,0.9980	-16184.67
0.0035,0.9965	-16191.09
0.0031,0.9969	-16184.75
0.0026,0.9974	-16196.14
0.0013,0.9987	-16187.47
0.0034,0.9966	-16185.29
0.0021,0.9979	-16178.34
0.0038,0.9962	-16186.01
0.0042,0.9958	-16209.17
0.0030,0.9970	-16190.42
0.0012,0.9988	-16181.00
0.0040,0.9960	-16186.61
0.0024,0.9976	-16202.33
0.0027,0.9973	-16184.33
0.0035,0.9965	-16191.17
0.0028,0.9972	-16184.34
0.0015,0.9985	-16192.63
0.0038,0.9962	-16219.54
0.0022,0.9978	-16202.68
0.0027,0.9973	-16190.23
0.0036,0.9964	-16196.95
0.0026,0.9974	-16184.28
0.0019,0.9981	-16191.10
0.0035,0.9965	-16191.17
0.0024,0.9976	-16178.22
0.0021,0.9979	-16196.83
0.0024,0.9976	-16184.26
0.0027,0.9973	-16184.28
0.0025,0.9975	-16184.24
0.0028,0.9972	-16190.26
0.0026,0.9974	-16184.26
0.0030,0.9970	-16190.40
0.0018,0.9982	-16178.68
0.0024,0.9976	-16196.29
0.0030,0.9970	-16178.76
0.0034,0.9966	-16185.15
0.0026,0.9974	-16184.27
0.0029,0.9971	-16184.47
0.0022,0.9978	-16190.45
0.0030,0.9970	-16190.37
0.0030,0.9970	-16184.62
0.0038,0.9962	-16186.14
0.0030,0.9970	-16184.57
0.0038,0.9962	-16197.19
0.0024,0.9976	-16196.29
0.0029,0.9971	-16196.15
0.0027,0.9973	-16190.21
0.0036,0.9964	-16202.48
0.0029,0.9971	-16184.44
0.0035,0.9965	-16202.43
0.0028,0.9972	-16184.36
0.0024,0.9976	-16178.23
0.0028,0.9972	-16190.26
0.0035,0.9965	-16196.71
0.0029,0.9971	-16184.52
0.0037,0.9963	-16185.80
0.0028,0.9972	-16184.37
0.0021,0.9979	-16184.43
0.0026,0.9974	-16190.21
0.0040,0.9960	-16192.10
0.0032,0.9968	-16202.07
0.0023,0.9977	-16184.28
0.0029,0.9971	-16184.44
0.0026,0.9974	-16184.26
