#isoforms=['ENSG00000101294.SE.1.A.up_ENSG00000101294.SE.1.A.SE1_ENSG00000101294.SE.1.A.dn','ENSG00000101294.SE.1.B.up_ENSG00000101294.SE.1.B.dn']	exon_lens=('ENSG00000101294.SE.1.A.up',99),('ENSG00000101294.SE.1.A.SE1',376),('ENSG00000101294.SE.1.A.dn',89),('ENSG00000101294.SE.1.B.up',99),('ENSG00000101294.SE.1.B.dn',89)	iters=5000	burn_in=500	lag=10	percent_accept=90.27	proposal_type=drift	counts=(0,0):6572,(1,0):1195,(1,1):391	assigned_counts=0:1547,1:39	chrom=chr20	strand=+	mRNA_starts=31527484,31527484	mRNA_ends=31545035,31545035
sampled_psi	log_score
0.9129,0.0871	-9942.61
0.8859,0.1141	-9984.42
0.8633,0.1367	-9977.60
0.9209,0.0791	-9957.81
0.9347,0.0653	-9918.34
0.9061,0.0939	-9937.96
0.9202,0.0798	-9923.46
0.8998,0.1002	-9953.57
0.8699,0.1301	-9952.88
0.9168,0.0832	-9911.59
0.9203,0.0797	-9908.78
0.9108,0.0892	-9930.93
0.9214,0.0786	-9955.43
0.8960,0.1040	-9959.98
0.8585,0.1415	-9983.14
0.9338,0.0662	-9905.08
0.9201,0.0799	-9913.69
0.8987,0.1013	-9947.00
0.9184,0.0816	-9935.63
0.8848,0.1152	-9978.19
0.8762,0.1238	-9946.40
0.9412,0.0588	-9935.33
0.9273,0.0727	-9951.40
0.9283,0.0717	-9928.53
0.9087,0.0913	-9944.81
0.8877,0.1123	-9951.55
0.8922,0.1078	-9964.09
0.9429,0.0571	-9890.80
0.9235,0.0765	-9930.87
0.9345,0.0655	-9897.07
0.9118,0.0882	-9954.25
0.8754,0.1246	-9991.34
0.8761,0.1239	-9962.06
0.9339,0.0661	-9931.56
0.9339,0.0661	-9918.32
0.9475,0.0525	-9884.67
0.9111,0.0889	-9930.92
0.8755,0.1245	-9965.99
0.9002,0.0998	-9924.99
0.9288,0.0712	-9913.15
0.9402,0.0598	-9907.59
0.9356,0.0644	-9918.37
0.8997,0.1003	-9971.12
0.8811,0.1189	-9955.91
0.9083,0.0917	-9949.39
0.9382,0.0618	-9915.77
0.9531,0.0469	-9890.22
0.9321,0.0679	-9934.00
0.9020,0.0980	-9940.32
0.8831,0.1169	-9969.98
0.9056,0.0944	-9965.11
0.9464,0.0536	-9904.87
0.9526,0.0474	-9899.23
0.9321,0.0679	-9920.91
0.8972,0.1028	-9942.70
0.8758,0.1242	-9965.98
0.9057,0.0943	-9944.76
0.9345,0.0655	-9920.99
0.9527,0.0473	-9893.23
0.9271,0.0729	-9915.76
0.8997,0.1003	-9931.63
0.8857,0.1143	-9955.74
0.9079,0.0921	-9940.21
0.9204,0.0796	-9928.35
0.9541,0.0459	-9899.31
0.9421,0.0579	-9888.09
0.9076,0.0924	-9928.79
0.8969,0.1031	-9955.69
0.8977,0.1023	-9942.67
0.9163,0.0837	-9935.58
0.9490,0.0510	-9902.06
0.9361,0.0639	-9913.02
0.9200,0.0800	-9906.37
0.8943,0.1057	-9947.10
0.9065,0.0935	-9956.13
0.9388,0.0612	-9915.79
0.9412,0.0588	-9913.14
0.9284,0.0716	-9905.48
0.9309,0.0691	-9920.88
0.8745,0.1255	-9962.13
0.9016,0.0984	-9966.92
0.9298,0.0702	-9900.19
0.9215,0.0785	-9930.82
0.9238,0.0762	-9920.90
0.9231,0.0769	-9910.97
0.8650,0.1350	-9970.15
0.8985,0.1015	-9949.18
0.9233,0.0767	-9905.98
0.9109,0.0891	-9923.95
0.9110,0.0890	-9942.55
0.9225,0.0775	-9920.93
0.8800,0.1200	-9959.95
0.8954,0.1046	-9936.34
0.9146,0.0854	-9954.53
0.8874,0.1126	-9972.21
0.9266,0.0734	-9918.32
0.9252,0.0748	-9893.20
0.8746,0.1254	-9981.55
0.8985,0.1015	-9949.18
0.9033,0.0967	-9935.81
0.8873,0.1127	-9945.38
0.9284,0.0716	-9918.29
0.9139,0.0861	-9919.02
0.8780,0.1220	-9967.92
0.9011,0.0989	-9949.19
0.9157,0.0843	-9923.65
0.8888,0.1112	-9966.06
0.9253,0.0747	-9938.49
0.9247,0.0753	-9940.94
0.8955,0.1045	-9940.62
0.9041,0.0959	-9944.75
0.9027,0.0973	-9933.62
0.9007,0.0993	-9938.16
0.9245,0.0755	-9915.87
0.9448,0.0552	-9882.12
0.8769,0.1231	-9981.67
0.8960,0.1040	-9981.52
0.8909,0.1091	-9957.74
0.9052,0.0948	-9967.32
0.9220,0.0780	-9913.54
0.9527,0.0473	-9908.24
0.8797,0.1203	-9977.87
0.8896,0.1104	-9938.96
0.8883,0.1117	-9945.31
0.9097,0.0903	-9940.22
0.9269,0.0731	-9905.61
0.9551,0.0449	-9871.86
0.8978,0.1022	-9951.36
0.8823,0.1177	-9957.87
0.8760,0.1240	-9967.93
0.9184,0.0816	-9923.53
0.9194,0.0806	-9940.53
0.9577,0.0423	-9899.59
0.9020,0.0980	-9935.88
0.8933,0.1067	-9970.52
0.8832,0.1168	-9967.96
0.9007,0.0993	-9958.01
0.9225,0.0775	-9938.27
0.9572,0.0428	-9899.54
0.9183,0.0817	-9923.53
0.8783,0.1217	-9965.94
0.8651,0.1349	-9988.73
0.9048,0.0952	-9960.52
0.9060,0.0940	-9935.70
0.9616,0.0384	-9883.96
0.9082,0.0918	-9915.00
0.8664,0.1336	-9958.87
0.8922,0.1078	-9945.07
0.9232,0.0768	-9920.91
0.9198,0.0802	-9923.47
0.9573,0.0427	-9933.75
0.8894,0.1106	-9964.00
0.8721,0.1279	-9954.57
0.8986,0.1014	-9953.55
0.9168,0.0832	-9949.99
0.9303,0.0697	-9920.87
0.9566,0.0434	-9896.39
0.9108,0.0892	-9937.90
0.8836,0.1164	-9947.70
0.8888,0.1112	-9955.67
0.9009,0.0991	-9935.95
0.9438,0.0562	-9899.18
0.9541,0.0459	-9923.59
0.8943,0.1057	-9936.43
0.8805,0.1195	-9967.93
0.9089,0.0911	-9951.71
0.9103,0.0897	-9924.00
0.9393,0.0607	-9885.68
0.9573,0.0427	-9890.22
0.8930,0.1070	-9934.42
0.8638,0.1362	-9968.36
0.8897,0.1103	-9959.83
0.9014,0.0986	-9951.41
0.9366,0.0634	-9921.10
0.9617,0.0383	-9880.74
0.8818,0.1182	-9953.87
0.8490,0.1510	-9971.30
0.9125,0.0875	-9954.32
0.8904,0.1096	-9947.27
0.9416,0.0584	-9913.16
0.9684,0.0316	-9860.38
0.8619,0.1381	-9973.97
0.8344,0.1656	-9987.62
0.9249,0.0751	-9928.41
0.8776,0.1224	-9963.98
0.9460,0.0540	-9873.37
0.9718,0.0282	-9870.63
0.8473,0.1527	-9992.04
0.8207,0.1793	-9998.08
0.9265,0.0735	-9930.99
0.8879,0.1121	-9959.82
0.9280,0.0720	-9910.63
0.9723,0.0277	-9895.53
0.8955,0.1045	-9953.51
0.8309,0.1691	-9981.53
0.9165,0.0835	-9949.96
0.8800,0.1200	-9975.89
0.9263,0.0737	-9943.64
0.9705,0.0295	-9863.63
0.9121,0.0879	-9926.21
0.8520,0.1480	-9995.53
0.9144,0.0856	-9914.24
0.8947,0.1053	-9940.67
0.9327,0.0673	-9910.41
0.9749,0.0251	-9852.46
0.9074,0.0926	-9937.93
0.8668,0.1332	-9971.95
0.8771,0.1229	-9971.86
0.8827,0.1173	-9949.79
0.9415,0.0585	-9913.16
0.9770,0.0230	-9840.94
0.8994,0.1006	-9955.76
0.9019,0.0981	-9938.11
0.8684,0.1316	-9973.79
0.8820,0.1180	-9978.00
0.9408,0.0592	-9902.07
0.9719,0.0281	-9870.63
0.9026,0.0974	-9949.21
0.8981,0.1019	-9957.89
0.8584,0.1416	-9977.73
0.8797,0.1203	-9942.05
0.9457,0.0543	-9884.85
0.9734,0.0266	-9863.47
0.8780,0.1220	-9950.16
0.8975,0.1025	-9953.53
0.8714,0.1286	-9968.03
0.8709,0.1291	-9983.31
0.9420,0.0580	-9918.76
0.9695,0.0305	-9860.25
0.8638,0.1362	-9962.82
0.8867,0.1133	-9982.46
0.8709,0.1291	-9954.68
0.8630,0.1370	-9979.45
0.9386,0.0614	-9932.15
0.9724,0.0276	-9863.51
0.8674,0.1326	-9966.30
0.8587,0.1413	-9966.89
0.8906,0.1094	-9989.19
0.8554,0.1446	-9993.85
0.9248,0.0752	-9893.28
0.9673,0.0327	-9891.01
0.8388,0.1612	-9993.91
0.8598,0.1402	-9974.06
0.9066,0.0934	-9953.86
0.8492,0.1508	-9985.11
0.9386,0.0614	-9904.88
0.9616,0.0384	-9858.20
0.8319,0.1681	-9984.62
0.8386,0.1614	-10007.10
0.8993,0.1007	-9968.89
0.8642,0.1358	-9983.14
0.9471,0.0529	-9916.44
0.9548,0.0452	-9884.10
0.8616,0.1384	-9973.98
0.8394,0.1606	-9992.23
0.9012,0.0988	-9935.93
0.8612,0.1388	-9963.04
0.9371,0.0629	-9915.73
0.9542,0.0458	-9908.42
0.8677,0.1323	-9956.88
0.8576,0.1424	-9956.21
0.9000,0.1000	-9949.18
0.8676,0.1324	-9970.05
0.9400,0.0600	-9910.35
0.9487,0.0513	-9902.05
0.8765,0.1235	-9964.01
0.8834,0.1166	-9951.77
0.8916,0.1084	-9961.96
0.8675,0.1325	-9983.20
0.9287,0.0713	-9954.22
0.9467,0.0533	-9890.50
0.8974,0.1026	-9968.71
0.9040,0.0960	-9926.81
0.8703,0.1297	-9983.29
0.8794,0.1206	-9956.00
0.9268,0.0732	-9925.93
0.9494,0.0506	-9913.79
0.8961,0.1039	-9949.21
0.8987,0.1013	-9975.38
0.8585,0.1415	-9972.32
0.8946,0.1054	-9955.65
0.9284,0.0716	-9931.10
0.9550,0.0450	-9890.20
0.8942,0.1058	-9940.71
0.8977,0.1023	-9960.05
0.8584,0.1416	-9979.53
0.8704,0.1296	-9962.35
0.9243,0.0757	-9915.88
0.9663,0.0337	-9880.80
0.8891,0.1109	-9959.83
0.8886,0.1114	-9978.51
0.8640,0.1360	-9951.71
0.8854,0.1146	-9959.83
0.9345,0.0655	-9918.34
0.9653,0.0347	-9870.79
0.9131,0.0869	-9923.80
0.8748,0.1252	-9952.40
0.8714,0.1286	-9966.12
0.9046,0.0954	-9931.25
0.9301,0.0699	-9920.86
0.9683,0.0317	-9884.33
0.9083,0.0917	-9947.09
0.9057,0.0943	-9944.76
0.8720,0.1280	-9956.50
0.9012,0.0988	-9958.03
0.9243,0.0757	-9935.90
0.9749,0.0251	-9874.41
0.9177,0.0823	-9921.14
0.9022,0.0978	-9926.99
0.8747,0.1253	-9958.24
0.8960,0.1040	-9934.13
0.9318,0.0682	-9920.90
0.9766,0.0234	-9867.16
0.9112,0.0888	-9949.54
0.8810,0.1190	-9983.94
0.8740,0.1260	-9962.16
0.9045,0.0955	-9944.75
0.9559,0.0441	-9887.13
0.9798,0.0202	-9848.03
0.9007,0.0993	-9960.21
0.8786,0.1214	-9977.82
0.8758,0.1242	-9960.12
0.9023,0.0977	-9940.31
0.9496,0.0504	-9902.08
0.9816,0.0184	-9879.63
0.8855,0.1145	-9953.70
0.8849,0.1151	-9980.24
0.8742,0.1258	-9969.90
0.9028,0.0972	-9955.90
0.9553,0.0447	-9890.20
0.9838,0.0162	-9884.58
0.8910,0.1090	-9961.95
0.8910,0.1090	-9953.54
0.8488,0.1512	-9993.75
0.9073,0.0927	-9949.34
0.9562,0.0438	-9911.78
0.9840,0.0160	-9864.11
0.8992,0.1008	-9968.88
0.8740,0.1260	-9935.04
0.8349,0.1651	-10003.79
0.8847,0.1153	-9961.88
0.9492,0.0508	-9875.71
0.9814,0.0186	-9855.78
0.9063,0.0937	-9949.30
0.8790,0.1210	-9961.97
0.8551,0.1449	-9988.52
0.8724,0.1276	-9948.78
0.9532,0.0468	-9893.23
0.9816,0.0184	-9851.80
0.9161,0.0839	-9916.46
0.8783,0.1217	-9940.26
0.8676,0.1324	-9979.45
0.8897,0.1103	-9949.39
0.9536,0.0464	-9902.30
0.9806,0.0194	-9863.63
0.9129,0.0871	-9949.66
0.8937,0.1063	-9953.51
0.8643,0.1357	-9975.74
0.8899,0.1101	-9938.93
0.9493,0.0507	-9919.65
0.9835,0.0165	-9868.11
0.9127,0.0873	-9909.74
0.8941,0.1059	-9976.98
0.8699,0.1301	-9979.48
0.8939,0.1061	-9949.25
0.9410,0.0590	-9907.60
0.9776,0.0224	-9855.89
0.8910,0.1090	-9945.14
0.9006,0.0994	-9924.95
0.8534,0.1466	-9972.66
0.9007,0.0993	-9920.52
0.9308,0.0692	-9931.28
0.9746,0.0254	-9848.85
0.9082,0.0918	-9947.09
0.8834,0.1166	-9957.84
0.8179,0.1821	-9996.80
0.9129,0.0871	-9928.51
0.9248,0.0752	-9930.91
0.9760,0.0240	-9859.72
0.8934,0.1066	-9955.64
0.8901,0.1099	-9913.82
0.8425,0.1575	-10007.23
0.8986,0.1014	-9973.18
0.9324,0.0676	-9915.67
0.9759,0.0241	-9856.02
0.8860,0.1140	-9945.48
0.8780,0.1220	-9958.05
0.8605,0.1395	-9966.75
0.9004,0.0996	-9944.78
0.9148,0.0852	-9947.44
0.9742,0.0258	-9859.81
0.8766,0.1234	-9971.85
0.8772,0.1228	-9973.82
0.8698,0.1302	-9988.97
0.9131,0.0869	-9937.91
0.9023,0.0977	-9944.76
0.9720,0.0280	-9863.53
0.8812,0.1188	-9955.91
0.8452,0.1548	-9981.88
0.8670,0.1330	-9970.07
0.9307,0.0693	-9900.09
0.8941,0.1059	-9955.65
0.9711,0.0289	-9874.13
0.8620,0.1380	-9966.64
0.8599,0.1401	-9983.13
0.8635,0.1365	-9981.29
0.9448,0.0552	-9907.68
0.8854,0.1146	-9970.06
0.9781,0.0219	-9855.87
0.8849,0.1151	-9968.00
0.8735,0.1265	-9967.98
0.8897,0.1103	-9932.69
0.9443,0.0557	-9913.32
0.9038,0.0962	-9924.59
0.9757,0.0243	-9852.35
0.8803,0.1197	-9973.91
0.8820,0.1180	-9943.80
0.8915,0.1085	-9940.90
0.9345,0.0655	-9889.09
0.8800,0.1200	-9967.92
0.9709,0.0291	-9860.10
0.8971,0.1029	-9973.01
0.8581,0.1419	-9992.14
0.8741,0.1259	-9971.84
0.9311,0.0689	-9936.51
0.8941,0.1059	-9962.04
0.9664,0.0336	-9877.45
0.9075,0.0925	-9956.20
0.8534,0.1466	-9992.04
0.8878,0.1122	-9943.27
0.9390,0.0610	-9940.40
0.8799,0.1201	-9950.00
0.9730,0.0270	-9881.41
0.9047,0.0953	-9935.75
0.8604,0.1396	-9966.76
0.8906,0.1094	-9961.94
0.9385,0.0615	-9932.13
0.8677,0.1323	-9977.57
0.9705,0.0295	-9870.62
0.9153,0.0847	-9940.33
0.8238,0.1762	-9987.05
0.8971,0.1029	-9955.69
0.9402,0.0598	-9913.10
0.8665,0.1335	-9985.05
0.9581,0.0419	-9893.37
0.9085,0.0915	-9942.51
0.8356,0.1644	-10002.16
0.8691,0.1309	-9979.46
0.9518,0.0482	-9932.00
0.8634,0.1366	-9988.66
0.9457,0.0543	-9907.71
0.9177,0.0823	-9930.79
0.8637,0.1363	-9992.37
0.8675,0.1325	-9977.57
0.9490,0.0510	-9890.36
0.8481,0.1519	-9990.31
0.9468,0.0532	-9896.25
0.8938,0.1062	-9936.48
0.8753,0.1247	-9964.05
0.8674,0.1326	-9949.40
0.9453,0.0547	-9893.45
0.8446,0.1554	-10014.09
0.9299,0.0701	-9923.45
0.9001,0.0999	-9949.18
0.8688,0.1312	-9975.68
0.8756,0.1244	-9975.74
0.9523,0.0477	-9881.26
0.8205,0.1795	-10005.69
0.9395,0.0605	-9915.82
0.8962,0.1038	-9964.30
0.8538,0.1462	-9986.75
0.8959,0.1041	-9947.06
0.9625,0.0375	-9861.26
0.8266,0.1734	-10008.61
0.9347,0.0653	-9897.05
0.8971,0.1029	-9955.69
0.8310,0.1690	-10002.23
0.8796,0.1204	-9967.92
0.9647,0.0353	-9874.14
0.8560,0.1440	-10001.00
0.9447,0.0553	-9919.03
0.8785,0.1215	-9967.92
0.8276,0.1724	-10013.31
0.8829,0.1171	-9980.08
0.9603,0.0397	-9899.89
0.8566,0.1434	-10006.40
0.9390,0.0610	-9907.60
0.8947,0.1053	-9979.18
0.8305,0.1695	-9994.29
0.8863,0.1137	-9986.52
0.9578,0.0422	-9877.74
0.8785,0.1215	-9963.96
0.9351,0.0649	-9931.69
0.9078,0.0922	-9915.06
0.8430,0.1570	-9993.80
0.8851,0.1149	-9951.67
0.9532,0.0468	-9899.26
0.8933,0.1067	-9955.64
0.9419,0.0581	-9904.82
0.9120,0.0880	-9975.33
0.8747,0.1253	-9973.78
0.8937,0.1063	-9966.29
0.9529,0.0471	-9893.23
0.9161,0.0839	-9940.36
0.9447,0.0553	-9890.64
0.9284,0.0716	-9897.79
0.8678,0.1322	-9966.28
0.8842,0.1158	-9947.66
0.9560,0.0440	-9890.20
0.9110,0.0890	-9942.55
0.9517,0.0483	-9899.19
0.9089,0.0911	-9937.91
0.8502,0.1498	-9983.34
0.8888,0.1112	-9959.82
0.9507,0.0493	-9887.33
0.8895,0.1105	-9941.06
0.9450,0.0550	-9896.31
0.9203,0.0797	-9935.69
0.8728,0.1272	-9952.58
0.9019,0.0981	-9958.07
0.9334,0.0666	-9915.67
0.8922,0.1078	-9923.93
0.9531,0.0469	-9905.28
0.9230,0.0770	-9930.85
0.8953,0.1047	-9959.95
0.9003,0.0997	-9951.39
0.9332,0.0668	-9918.30
0.8874,0.1126	-9955.69
0.9565,0.0435	-9896.39
0.9353,0.0647	-9894.32
0.8855,0.1145	-9955.74
0.9134,0.0866	-9930.85
0.9155,0.0845	-9933.19
0.8840,0.1160	-9967.98
0.9515,0.0485	-9884.31
0.9251,0.0749	-9923.38
0.8903,0.1097	-9932.61
0.9089,0.0911	-9933.31
0.9106,0.0894	-9935.58
0.8675,0.1325	-9983.21
0.9491,0.0509	-9934.24
0.9353,0.0647	-9921.03
0.9040,0.0960	-9938.03
0.9015,0.0985	-9960.26
0.8948,0.1052	-9949.23
0.8726,0.1274	-9977.62
0.9460,0.0540	-9890.54
0.9295,0.0705	-9928.60
0.9114,0.0886	-9919.26
0.8993,0.1007	-9964.51
0.8862,0.1138	-9949.57
0.8732,0.1268	-9987.28
0.9560,0.0440	-9911.76
0.9317,0.0683	-9926.12
0.9380,0.0620	-9910.33
0.9072,0.0928	-9956.17
0.8950,0.1050	-9944.94
0.8874,0.1126	-9959.82
0.9600,0.0400	-9864.89
0.9269,0.0731	-9920.85
0.9304,0.0696	-9928.65
0.8957,0.1043	-9953.51
0.9111,0.0889	-9930.92
0.8848,0.1152	-9945.57
0.9663,0.0337	-9877.45
0.9210,0.0790	-9918.53
0.9204,0.0796	-9928.35
0.8903,0.1097	-9951.46
0.9295,0.0705	-9907.96
0.8914,0.1086	-9997.74
0.9637,0.0363	-9887.30
0.9105,0.0895	-9926.30
0.9152,0.0848	-9933.19
0.8998,0.1002	-9942.60
0.9377,0.0623	-9902.19
0.8875,0.1125	-9978.41
0.9708,0.0292	-9870.62
0.9160,0.0840	-9933.19
0.9051,0.0949	-9931.22
0.8782,0.1218	-9963.97
0.9317,0.0683	-9907.83
0.8940,0.1060	-9940.72
0.9753,0.0247	-9885.48
0.9265,0.0735	-9923.39
0.8906,0.1094	-9951.45
0.8767,0.1233	-9956.16
0.9252,0.0748	-9935.96
0.9061,0.0939	-9937.96
0.9784,0.0216	-9855.85
0.9295,0.0705	-9915.70
0.9051,0.0949	-9928.97
0.8903,0.1097	-9959.84
0.9201,0.0799	-9933.24
0.8998,0.1002	-9955.77
0.9767,0.0233	-9859.69
0.9313,0.0687	-9949.56
0.9228,0.0772	-9915.96
0.8930,0.1070	-9936.54
0.9237,0.0763	-9920.90
0.9083,0.0917	-9949.38
0.9719,0.0281	-9877.71
0.9380,0.0620	-9918.48
0.9325,0.0675	-9886.79
0.9031,0.0969	-9935.82
0.9288,0.0712	-9923.42
0.9294,0.0706	-9938.90
0.9654,0.0346	-9870.79
0.9425,0.0575	-9902.02
0.9347,0.0653	-9913.02
0.9053,0.0947	-9942.50
0.9273,0.0727	-9913.21
0.9387,0.0613	-9907.60
0.9697,0.0303	-9874.09
0.9354,0.0646	-9907.67
0.9224,0.0776	-9930.84
0.8923,0.1077	-9940.84
0.9298,0.0702	-9920.86
0.9276,0.0724	-9918.30
0.9733,0.0267	-9877.86
0.9404,0.0596	-9904.84
0.9251,0.0749	-9920.87
0.8967,0.1033	-9947.04
0.9556,0.0444	-9896.34
0.9299,0.0701	-9907.93
0.9755,0.0245	-9870.80
0.9493,0.0507	-9902.07
0.9235,0.0765	-9925.89
0.8940,0.1060	-9970.57
0.9544,0.0456	-9887.16
0.9257,0.0743	-9918.34
0.9775,0.0225	-9863.44
0.9472,0.0528	-9910.67
0.9285,0.0715	-9920.85
0.8969,0.1031	-9944.87
0.9497,0.0503	-9925.59
0.9034,0.0966	-9935.81
0.9783,0.0217	-9855.85
0.9406,0.0594	-9907.60
0.9429,0.0571	-9916.03
0.8821,0.1179	-9939.77
0.9574,0.0426	-9905.78
0.8916,0.1084	-9932.46
0.9791,0.0209	-9844.27
0.9361,0.0639	-9913.02
0.9547,0.0453	-9881.05
0.8744,0.1256	-9952.44
0.9616,0.0384	-9890.40
0.8838,0.1162	-9957.83
0.9830,0.0170	-9867.98
0.9433,0.0567	-9896.38
0.9566,0.0434	-9905.67
0.8771,0.1229	-9962.03
0.9575,0.0425	-9890.22
0.8824,0.1176	-9949.81
0.9845,0.0155	-9839.30
0.9410,0.0590	-9921.45
0.9580,0.0420	-9896.49
0.8732,0.1268	-9969.91
0.9509,0.0491	-9890.28
0.9018,0.0982	-9944.76
0.9847,0.0153	-9843.43
0.9462,0.0538	-9879.06
0.9551,0.0449	-9914.66
0.8576,0.1424	-9993.92
0.9519,0.0481	-9878.30
0.8924,0.1076	-9959.87
0.9849,0.0151	-9839.24
0.9540,0.0460	-9875.04
0.9582,0.0418	-9883.98
0.8580,0.1420	-9975.95
0.9490,0.0510	-9896.21
0.8962,0.1038	-9940.58
0.9828,0.0172	-9867.94
0.9404,0.0596	-9907.60
0.9612,0.0388	-9858.28
0.8496,0.1504	-9985.10
0.9466,0.0534	-9910.63
0.8859,0.1141	-9945.48
0.9832,0.0168	-9859.89
0.9459,0.0541	-9879.11
0.9596,0.0404	-9880.79
0.8445,0.1555	-9988.70
0.9349,0.0651	-9905.02
0.8885,0.1115	-9937.00
0.9843,0.0157	-9855.89
0.9438,0.0562	-9899.18
0.9622,0.0378	-9896.92
0.8458,0.1542	-10002.27
0.9353,0.0647	-9905.00
0.8875,0.1125	-9941.23
0.9855,0.0145	-9834.90
0.9439,0.0561	-9916.12
0.9499,0.0501	-9916.81
0.8400,0.1600	-10030.36
0.9284,0.0716	-9925.97
0.8822,0.1178	-9965.93
0.9873,0.0127	-9834.49
0.9426,0.0574	-9910.41
0.9570,0.0430	-9871.60
0.8587,0.1413	-9992.16
0.9252,0.0748	-9923.38
0.8872,0.1128	-9943.32
0.9878,0.0122	-9838.79
0.9357,0.0643	-9894.27
0.9543,0.0457	-9878.05
0.8500,0.1500	-9972.94
0.9296,0.0704	-9944.08
0.8475,0.1525	-9992.04
0.9860,0.0140	-9826.29
0.9431,0.0569	-9916.05
0.9611,0.0389	-9890.37
0.8560,0.1440	-9990.30
0.9272,0.0728	-9913.22
0.8882,0.1118	-9949.46
0.9838,0.0162	-9843.53
0.9384,0.0616	-9910.33
0.9553,0.0447	-9893.26
0.8540,0.1460	-9983.22
0.9396,0.0604	-9915.83
0.8919,0.1081	-9955.64
0.9794,0.0206	-9855.81
0.9317,0.0683	-9931.35
0.9548,0.0452	-9868.85
0.8477,0.1523	-10017.79
0.9406,0.0594	-9874.44
0.8981,0.1019	-9942.66
0.9752,0.0248	-9874.44
0.9299,0.0701	-9928.62
0.9501,0.0499	-9896.20
0.8669,0.1331	-9981.32
0.9357,0.0643	-9923.73
0.8768,0.1232	-9948.30
0.9717,0.0283	-9881.23
0.9092,0.0908	-9924.09
0.9525,0.0475	-9893.23
0.8825,0.1175	-9963.92
0.9394,0.0606	-9913.08
0.8947,0.1053	-9959.93
0.9708,0.0292	-9867.11
0.9069,0.0931	-9951.60
0.9537,0.0463	-9896.26
0.8561,0.1439	-9954.64
0.9351,0.0649	-9934.35
0.8898,0.1102	-9945.21
0.9770,0.0230	-9863.43
0.9084,0.0916	-9953.98
0.9518,0.0482	-9884.29
0.8296,0.1704	-10016.51
0.9325,0.0675	-9894.66
0.8943,0.1057	-9977.00
0.9711,0.0289	-9867.10
0.8890,0.1110	-9949.42
0.9471,0.0529	-9890.47
0.8041,0.1959	-10011.04
0.9362,0.0638	-9929.14
0.8939,0.1061	-9970.56
0.9711,0.0289	-9877.65
0.8913,0.1087	-9943.02
0.9342,0.0658	-9910.37
0.8350,0.1650	-9995.68
0.9211,0.0789	-9925.90
0.8892,0.1108	-9955.66
0.9687,0.0313	-9860.35
0.9002,0.0998	-9975.58
0.9457,0.0543	-9922.01
0.8466,0.1534	-10000.59
0.9276,0.0724	-9910.65
0.8583,0.1417	-9952.52
0.9784,0.0216	-9867.29
0.8956,0.1044	-9929.87
0.9443,0.0557	-9896.34
0.8468,0.1532	-9997.18
0.9238,0.0762	-9910.91
0.8428,0.1572	-9987.09
0.9798,0.0202	-9859.68
0.8665,0.1335	-9981.31
0.9493,0.0507	-9890.35
0.8494,0.1506	-10014.52
0.9098,0.0902	-9898.61
0.8638,0.1362	-10018.24
0.9774,0.0226	-9863.44
0.8717,0.1283	-9975.68
0.9501,0.0499	-9890.31
0.8556,0.1444	-9986.74
0.8956,0.1044	-9949.21
0.8533,0.1467	-9972.67
0.9827,0.0173	-9847.72
0.8702,0.1298	-9973.78
0.9388,0.0612	-9910.33
0.8458,0.1542	-9981.85
0.8876,0.1124	-9966.02
0.8489,0.1511	-10002.38
0.9826,0.0174	-9863.87
0.8548,0.1452	-10006.25
0.9354,0.0646	-9945.08
0.8390,0.1610	-10003.81
0.8766,0.1234	-9981.65
0.8717,0.1283	-9966.10
0.9813,0.0187	-9867.67
0.8835,0.1165	-9955.81
0.9393,0.0607	-9915.82
0.8477,0.1523	-9980.02
0.9000,0.1000	-9953.58
0.8515,0.1485	-9988.53
0.9779,0.0221	-9863.46
0.8870,0.1130	-9986.61
0.9361,0.0639	-9904.96
0.8471,0.1529	-9976.63
0.8722,0.1278	-9962.25
0.8642,0.1358	-9970.19
0.9769,0.0231	-9867.18
0.9055,0.0945	-9933.46
0.9255,0.0745	-9923.38
0.8586,0.1414	-9993.96
0.8702,0.1298	-9973.77
0.8845,0.1155	-9951.70
0.9732,0.0268	-9885.03
0.9028,0.0972	-9962.59
0.9256,0.0744	-9941.03
0.8585,0.1415	-9972.32
0.8665,0.1335	-10003.75
0.9030,0.0970	-9933.60
0.9737,0.0263	-9885.14
0.8956,0.1044	-9962.11
0.9231,0.0769	-9933.34
0.8594,0.1406	-9990.37
0.8804,0.1196	-9959.94
0.8833,0.1167	-9959.87
0.9694,0.0306	-9880.99
0.8925,0.1075	-9949.29
0.9300,0.0700	-9894.99
0.8707,0.1293	-9979.49
0.8796,0.1204	-9965.93
0.8721,0.1279	-9962.25
0.9722,0.0278	-9852.85
0.8682,0.1318	-9949.29
0.9281,0.0719	-9915.73
0.8724,0.1276	-9979.54
0.8857,0.1143	-9959.83
0.8754,0.1246	-9948.44
0.9724,0.0276	-9863.51
0.8878,0.1122	-9955.69
0.9119,0.0881	-9937.90
0.9007,0.0993	-9955.80
0.9108,0.0892	-9940.22
0.8585,0.1415	-9983.14
0.9790,0.0210	-9875.03
0.9007,0.0993	-9953.60
0.8953,0.1047	-9970.68
0.8986,0.1014	-9942.64
0.9278,0.0722	-9908.08
0.8824,0.1176	-9941.75
0.9800,0.0200	-9840.22
0.8998,0.1002	-9933.82
0.8914,0.1086	-9947.22
0.9090,0.0910	-9944.82
0.9141,0.0859	-9928.47
0.8600,0.1400	-9966.78
0.9765,0.0235	-9867.15
0.9087,0.0913	-9951.70
0.8816,0.1184	-9990.02
0.9264,0.0736	-9910.73
0.9064,0.0936	-9937.96
0.8667,0.1333	-9983.19
0.9746,0.0254	-9859.79
0.8930,0.1070	-9953.52
0.8787,0.1213	-9969.90
0.9425,0.0575	-9902.02
0.8941,0.1059	-9955.65
0.8492,0.1508	-10012.76
0.9738,0.0262	-9863.46
0.8902,0.1098	-9943.09
0.8483,0.1517	-9998.92
0.9298,0.0702	-9920.86
0.8610,0.1390	-9984.95
0.8161,0.1839	-10020.81
0.9664,0.0336	-9884.17
0.9112,0.0888	-9926.26
0.8840,0.1160	-9939.55
0.9232,0.0768	-9928.37
0.8600,0.1400	-9981.31
0.8293,0.1707	-10003.85
0.9597,0.0403	-9874.45
0.9037,0.0963	-9933.56
0.8955,0.1045	-9957.81
0.9272,0.0728	-9936.11
0.8405,0.1595	-9977.24
0.8515,0.1485	-9993.77
0.9518,0.0482	-9887.27
0.9067,0.0933	-9937.95
0.8834,0.1166	-9965.94
0.9214,0.0786	-9925.89
0.8567,0.1433	-9976.01
0.8646,0.1354	-9970.17
0.9419,0.0581	-9893.68
0.9088,0.0912	-9954.01
0.8868,0.1132	-9968.06
0.9117,0.0883	-9926.23
0.8686,0.1314	-9971.90
0.8829,0.1171	-9963.91
0.9404,0.0596	-9899.32
0.9283,0.0717	-9920.85
0.8935,0.1065	-9955.64
0.8958,0.1042	-9949.21
0.8791,0.1209	-9958.00
0.8841,0.1159	-9935.47
0.9332,0.0668	-9891.93
0.9380,0.0620	-9913.04
0.8825,0.1175	-9971.98
0.9093,0.0907	-9944.82
0.8691,0.1309	-9966.21
0.8913,0.1087	-9974.58
0.9376,0.0624	-9918.46
0.9355,0.0645	-9904.99
0.9070,0.0930	-9972.11
0.9066,0.0934	-9924.31
0.8797,0.1203	-9965.93
0.9040,0.0960	-9940.27
0.9357,0.0643	-9915.70
0.9302,0.0698	-9902.74
0.8987,0.1013	-9949.18
0.8988,0.1012	-9944.81
0.8795,0.1205	-9938.10
0.9074,0.0926	-9935.65
0.9365,0.0635	-9929.17
0.9178,0.0822	-9938.03
0.9049,0.0951	-9942.50
0.8958,0.1042	-9942.76
0.8902,0.1098	-9938.91
0.9047,0.0953	-9942.50
0.9243,0.0757	-9905.88
0.9214,0.0786	-9940.66
0.9132,0.0868	-9928.50
0.9066,0.0934	-9947.04
0.9084,0.0916	-9949.39
0.8998,0.1002	-9968.94
0.9098,0.0902	-9928.66
0.9215,0.0785	-9950.52
0.9186,0.0814	-9935.63
0.8804,0.1196	-9965.93
0.8707,0.1293	-9958.52
0.9061,0.0939	-9931.16
0.9164,0.0836	-9916.43
0.9114,0.0886	-9940.23
0.9017,0.0983	-9924.82
0.8844,0.1156	-9957.81
0.8613,0.1387	-9957.56
0.9103,0.0897	-9930.95
0.9060,0.0940	-9942.50
0.9053,0.0947	-9926.69
0.9105,0.0895	-9926.30
0.8809,0.1191	-9949.92
0.8791,0.1209	-9952.05
0.9222,0.0778	-9935.78
0.9160,0.0840	-9945.13
0.9107,0.0893	-9940.22
0.8905,0.1095	-9943.07
0.8857,0.1143	-9980.31
0.8739,0.1261	-9983.45
0.9160,0.0840	-9933.19
0.9105,0.0895	-9956.46
0.9104,0.0896	-9933.26
0.8955,0.1045	-9919.15
0.8844,0.1156	-9961.88
0.8940,0.1060	-10000.43
0.9159,0.0841	-9945.13
0.9219,0.0781	-9923.42
0.9153,0.0847	-9942.71
0.8935,0.1065	-9953.51
0.9072,0.0928	-9942.50
0.8739,0.1261	-9979.58
0.9112,0.0888	-9954.20
0.9083,0.0917	-9935.63
0.9063,0.0937	-9937.96
0.8736,0.1264	-9996.98
0.8924,0.1076	-9942.95
0.8691,0.1309	-9956.75
0.9133,0.0867	-9930.85
0.9066,0.0934	-9972.05
0.8972,0.1028	-9962.19
0.8988,0.1012	-9936.08
0.8823,0.1177	-9973.99
0.8763,0.1237	-9981.64
0.9172,0.0828	-9901.93
0.9023,0.0977	-9924.75
0.8908,0.1092	-9932.55
0.9148,0.0852	-9937.94
0.8790,0.1210	-9975.85
0.8814,0.1186	-9953.89
0.9155,0.0845	-9940.34
0.8915,0.1085	-9934.57
0.9080,0.0920	-9940.21
0.9124,0.0876	-9947.28
0.8573,0.1427	-9984.94
0.8822,0.1178	-9937.74
0.9011,0.0989	-9986.75
0.9036,0.0964	-9944.75
0.9017,0.0983	-9960.28
0.9186,0.0814	-9918.67
0.8421,0.1579	-9978.75
0.8704,0.1296	-9979.49
0.8834,0.1166	-9961.89
0.8992,0.1008	-9927.30
0.8961,0.1039	-9940.59
0.9152,0.0848	-9947.46
0.8239,0.1761	-9991.67
0.8693,0.1307	-9990.84
0.8462,0.1538	-9986.94
0.9048,0.0952	-9949.26
0.9120,0.0880	-9928.55
0.9113,0.0887	-9923.92
0.8274,0.1726	-10032.11
0.8606,0.1394	-9974.02
0.8491,0.1509	-9962.66
0.9105,0.0895	-9940.22
0.9105,0.0895	-9940.22
0.8966,0.1034	-9931.92
0.8131,0.1869	-10014.91
0.8690,0.1310	-9981.35
0.8700,0.1300	-9964.27
0.9105,0.0895	-9940.22
0.9336,0.0664	-9931.52
0.9009,0.0991	-9953.60
0.8126,0.1874	-10025.19
0.8785,0.1215	-9965.94
0.8917,0.1083	-9949.32
0.9376,0.0624	-9910.33
0.9327,0.0673	-9907.78
0.8848,0.1152	-9976.15
0.8128,0.1872	-10007.58
0.8941,0.1059	-9930.04
0.8944,0.1056	-9934.28
0.9402,0.0598	-9904.84
0.9288,0.0712	-9928.56
0.8811,0.1189	-9965.93
0.8398,0.1602	-9965.72
0.8792,0.1208	-9936.15
0.9123,0.0877	-9937.90
0.9484,0.0516	-9913.68
0.9391,0.0609	-9926.75
0.8929,0.1071	-9955.64
0.8485,0.1515	-10004.09
0.8581,0.1419	-9950.75
0.9171,0.0829	-9933.19
0.9436,0.0564	-9913.28
0.9342,0.0658	-9926.29
0.8785,0.1215	-9967.92
0.8189,0.1811	-10016.32
0.8766,0.1234	-9981.65
0.9160,0.0840	-9933.19
0.9429,0.0571	-9887.99
0.9299,0.0701	-9928.61
0.8760,0.1240	-9979.67
0.8358,0.1642	-9994.02
0.8589,0.1411	-9992.17
0.8789,0.1211	-9956.03
0.9320,0.0680	-9926.14
0.9214,0.0786	-9938.20
0.8689,0.1311	-9994.60
0.8598,0.1402	-9963.18
0.8430,0.1570	-10005.56
0.8932,0.1068	-9970.51
0.9017,0.0983	-9946.98
0.9241,0.0759	-9913.39
0.8898,0.1102	-9964.01
0.8531,0.1469	-9995.56
0.8302,0.1698	-9987.96
0.8846,0.1154	-9943.55
0.9035,0.0965	-9933.57
0.9158,0.0842	-9945.12
0.9015,0.0985	-9958.05
0.8719,0.1281	-9971.85
0.8426,0.1574	-9973.68
0.8752,0.1248	-9975.74
0.9115,0.0885	-9935.57
0.9127,0.0873	-9933.21
0.8935,0.1065	-9947.13
0.8707,0.1293	-9987.12
0.8411,0.1589	-9978.84
0.8648,0.1352	-9957.17
0.9086,0.0914	-9958.58
0.9144,0.0856	-9942.67
0.8676,0.1324	-9979.45
0.8887,0.1113	-9959.82
0.8395,0.1605	-9995.54
0.8760,0.1240	-9989.44
0.9219,0.0781	-9916.01
0.9188,0.0812	-9925.93
0.8834,0.1166	-9961.89
0.8857,0.1143	-9955.74
0.8225,0.1775	-10001.01
0.8626,0.1374	-9984.96
0.9255,0.0745	-9935.98
0.9234,0.0766	-9945.80
0.8913,0.1087	-9921.98
0.8640,0.1360	-9992.38
0.8388,0.1612	-9988.96
0.8563,0.1437	-9984.95
0.9462,0.0538	-9896.27
0.9306,0.0694	-9923.47
0.8811,0.1189	-9963.92
0.8755,0.1245	-9965.99
0.8562,0.1438	-9976.03
0.8743,0.1257	-9975.72
0.9401,0.0599	-9896.58
0.9293,0.0707	-9913.13
0.8564,0.1436	-9945.66
0.8624,0.1376	-9968.44
0.8772,0.1228	-9967.92
0.8535,0.1465	-9984.99
0.9243,0.0757	-9918.38
0.9071,0.0929	-9931.10
0.8917,0.1083	-9915.59
0.8719,0.1281	-9975.69
0.8877,0.1123	-9955.69
0.8768,0.1232	-9954.19
0.9062,0.0938	-9935.69
0.8859,0.1141	-9937.29
0.9075,0.0925	-9951.64
0.8796,0.1204	-9999.75
0.8926,0.1074	-9968.35
0.8974,0.1026	-9960.04
0.9248,0.0752	-9903.31
0.8742,0.1258	-9981.53
0.9192,0.0808	-9952.67
0.8943,0.1057	-9959.92
0.9003,0.0997	-9951.39
0.9075,0.0925	-9947.07
0.9335,0.0665	-9915.67
0.8612,0.1388	-9975.82
0.9237,0.0763	-9925.89
0.8994,0.1006	-9955.76
0.9058,0.0942	-9940.23
0.9090,0.0910	-9960.93
0.9107,0.0893	-9930.93
0.8756,0.1244	-9995.25
0.9192,0.0808	-9930.79
0.9120,0.0880	-9956.61
0.9022,0.0978	-9944.76
0.9145,0.0855	-9947.41
0.9241,0.0759	-9978.39
0.8933,0.1067	-9955.64
0.9157,0.0843	-9914.11
0.9019,0.0981	-9946.98
0.8915,0.1085	-9968.28
0.9123,0.0877	-9933.22
0.9095,0.0905	-9947.14
0.9000,0.1000	-9953.58
0.9163,0.0837	-9914.04
0.8904,0.1096	-9978.69
0.9119,0.0881	-9949.59
0.9189,0.0811	-9901.66
0.9081,0.0919	-9937.92
0.8887,0.1113	-9926.59
0.9112,0.0888	-9937.90
0.9015,0.0985	-9942.55
0.9046,0.0954	-9940.25
0.9123,0.0877	-9921.51
0.9111,0.0889	-9940.23
0.9090,0.0910	-9926.40
0.9047,0.0953	-9933.50
0.9128,0.0872	-9942.61
0.9115,0.0885	-9935.57
0.9207,0.0793	-9916.09
0.8866,0.1134	-9959.83
0.8977,0.1023	-9942.67
0.9160,0.0840	-9930.80
0.9079,0.0921	-9940.21
0.9142,0.0858	-9919.00
0.9286,0.0714	-9900.33
0.8823,0.1177	-9980.03
0.8990,0.1010	-9936.07
0.9181,0.0819	-9930.79
0.9013,0.0987	-9958.04
0.9003,0.0997	-9951.39
0.9046,0.0954	-9951.50
0.9020,0.0980	-9944.76
0.9139,0.0861	-9930.83
0.9301,0.0699	-9910.51
0.8985,0.1015	-9960.09
0.9130,0.0870	-9963.77
0.9082,0.0918	-9944.80
0.9165,0.0835	-9937.98
0.9013,0.0987	-9942.56
0.9408,0.0592	-9913.13
0.9230,0.0770	-9910.98
0.9050,0.0950	-9967.29
0.9128,0.0872	-9930.86
0.8942,0.1058	-9953.51
0.8938,0.1062	-9951.38
0.9299,0.0701	-9902.76
0.9129,0.0871	-9935.56
0.9017,0.0983	-9944.76
0.9137,0.0863	-9940.28
0.8880,0.1120	-9955.68
0.9098,0.0902	-9944.84
0.9262,0.0738	-9948.68
0.8929,0.1071	-9936.55
0.9352,0.0648	-9918.36
0.9116,0.0884	-9958.91
0.8777,0.1223	-9975.80
0.9181,0.0819	-9935.62
0.9232,0.0768	-9910.97
0.8867,0.1133	-9945.42
0.9404,0.0596	-9918.63
0.9088,0.0912	-9928.72
0.8849,0.1151	-9955.76
0.9158,0.0842	-9906.93
0.9228,0.0772	-9920.92
0.8769,0.1231	-9950.26
0.9408,0.0592	-9918.66
0.8985,0.1015	-9938.28
0.8901,0.1099	-9974.48
0.9156,0.0844	-9909.35
0.9214,0.0786	-9925.89
0.8771,0.1229	-9965.96
0.9415,0.0585	-9907.60
0.9254,0.0746	-9930.94
0.8865,0.1135	-9953.66
0.9213,0.0787	-9928.35
0.9078,0.0922	-9935.64
0.8528,0.1472	-10002.58
0.9397,0.0603	-9926.82
0.9228,0.0772	-9938.29
0.9003,0.0997	-9938.18
0.9074,0.0926	-9947.06
0.9088,0.0912	-9931.02
0.8377,0.1623	-9979.18
0.9424,0.0576	-9896.44
0.9081,0.0919	-9942.50
0.8968,0.1032	-9979.46
0.9303,0.0697	-9920.87
0.9237,0.0763	-9925.89
0.8556,0.1444	-9974.29
0.9312,0.0688	-9931.31
0.9086,0.0914	-9935.62
0.9245,0.0755	-9933.41
0.9351,0.0649	-9881.00
0.9374,0.0626	-9921.15
0.8530,0.1470	-9979.73
0.9205,0.0795	-9928.35
0.8966,0.1034	-9966.48
0.9124,0.0876	-9933.22
0.9524,0.0476	-9911.21
0.9151,0.0849	-9935.57
0.8414,0.1586	-9990.50
0.9257,0.0743	-9923.38
0.8919,0.1081	-9936.64
0.9100,0.0900	-9924.02
0.9542,0.0458	-9914.49
0.9207,0.0793	-9908.73
0.8404,0.1596	-9973.92
0.9147,0.0853	-9926.07
0.8939,0.1061	-9951.38
0.9105,0.0895	-9914.70
0.9582,0.0418	-9902.77
0.9139,0.0861	-9937.92
0.8457,0.1543	-9985.26
0.8990,0.1010	-9947.00
0.8826,0.1174	-9959.88
0.9202,0.0798	-9943.03
0.9486,0.0514	-9925.36
0.9172,0.0828	-9964.46
0.8648,0.1352	-9985.01
0.9119,0.0881	-9937.90
0.8819,0.1181	-9980.00
0.9209,0.0791	-9918.53
0.9480,0.0520	-9893.32
0.9215,0.0785	-9935.75
0.8601,0.1399	-9981.31
0.9192,0.0808	-9935.65
0.9047,0.0953	-9942.50
0.9249,0.0751	-9928.41
0.9468,0.0532	-9870.33
0.9258,0.0742	-9913.29
0.8922,0.1078	-9953.53
0.9220,0.0780	-9923.42
0.9086,0.0914	-9912.65
0.9249,0.0751	-9933.43
0.9353,0.0647	-9905.00
0.9350,0.0650	-9923.68
0.8795,0.1205	-9967.92
0.9155,0.0845	-9930.81
0.9083,0.0917	-9942.51
0.9204,0.0796	-9903.88
0.9288,0.0712	-9933.69
0.9384,0.0616	-9926.67
0.8990,0.1010	-9936.07
0.9078,0.0922	-9933.35
0.9026,0.0974	-9958.12
0.9177,0.0823	-9911.49
0.9305,0.0695	-9910.49
0.9179,0.0821	-9952.51
0.8927,0.1073	-9949.28
0.9028,0.0972	-9940.30
0.9024,0.0976	-9944.76
0.8986,0.1014	-9947.00
0.9254,0.0746	-9913.31
0.9131,0.0869	-9909.69
0.9084,0.0916	-9947.10
0.8952,0.1048	-9932.07
0.9050,0.0950	-9915.45
0.9100,0.0900	-9935.59
0.9104,0.0896	-9923.99
0.8982,0.1018	-9929.59
0.9071,0.0929	-9947.06
0.9036,0.0964	-9929.09
0.9112,0.0888	-9933.24
0.9003,0.0997	-9920.57
0.9061,0.0939	-9935.69
0.8840,0.1160	-9978.13
0.9056,0.0944	-9933.45
0.8984,0.1016	-9936.11
0.9151,0.0849	-9942.70
0.8876,0.1124	-9951.56
0.8908,0.1092	-9934.65
0.8774,0.1226	-9963.99
0.9104,0.0896	-9928.63
0.8903,0.1097	-9959.84
0.9252,0.0748	-9935.96
0.8839,0.1161	-9967.97
0.8969,0.1031	-9964.34
0.8668,0.1332	-9994.43
0.9000,0.1000	-9940.39
0.9159,0.0841	-9928.41
0.9278,0.0722	-9925.96
0.8954,0.1046	-9972.84
0.8827,0.1173	-9941.72
0.8373,0.1627	-9989.05
0.9013,0.0987	-9966.88
0.9251,0.0749	-9953.55
0.9347,0.0653	-9923.66
0.8852,0.1148	-9933.29
0.8914,0.1086	-9953.54
0.8407,0.1593	-9993.85
0.9106,0.0894	-9951.83
0.9279,0.0721	-9931.07
0.9252,0.0748	-9908.29
0.9043,0.0957	-9949.24
0.8901,0.1099	-9947.28
0.8243,0.1757	-9997.82
0.8873,0.1127	-9949.51
0.9197,0.0803	-9916.16
0.9227,0.0773	-9923.41
0.9029,0.0971	-9944.75
0.8853,0.1147	-9980.28
0.8400,0.1600	-9978.95
0.8733,0.1267	-9971.84
0.9079,0.0921	-9931.06
0.9262,0.0738	-9923.39
0.8992,0.1008	-9942.62
0.8921,0.1079	-9953.53
0.8704,0.1296	-9968.06
0.8836,0.1164	-9974.05
0.9239,0.0761	-9905.92
0.9202,0.0798	-9906.35
0.8996,0.1004	-9966.73
0.8788,0.1212	-9975.84
0.8448,0.1552	-9983.61
0.8786,0.1214	-9981.77
0.9287,0.0713	-9887.47
0.9211,0.0789	-9920.98
0.9080,0.0920	-9958.53
0.8747,0.1253	-9985.44
0.8423,0.1577	-9993.82
0.8899,0.1101	-9947.29
0.9378,0.0622	-9926.61
0.9012,0.0988	-9940.35
0.9274,0.0726	-9928.49
0.8741,0.1259	-9954.40
0.8363,0.1637	-10008.68
0.8885,0.1115	-9972.28
0.9250,0.0750	-9933.44
0.8868,0.1132	-9926.89
0.9084,0.0916	-9942.51
0.8929,0.1071	-9962.00
0.8547,0.1453	-9997.38
0.9138,0.0862	-9926.12
0.9375,0.0625	-9904.91
0.8928,0.1072	-9949.28
0.8979,0.1021	-9968.75
0.9032,0.0968	-9942.52
0.8466,0.1534	-10007.42
0.9228,0.0772	-9925.89
0.9373,0.0627	-9894.10
0.9098,0.0902	-9933.28
0.8742,0.1258	-9973.78
0.8827,0.1173	-9943.74
0.8411,0.1589	-9977.18
0.9315,0.0685	-9918.28
0.9363,0.0637	-9913.02
0.9237,0.0763	-9943.35
0.8687,0.1313	-9971.90
0.8832,0.1168	-9949.75
0.8636,0.1364	-9975.75
0.9247,0.0753	-9923.39
0.9417,0.0583	-9921.51
0.9230,0.0770	-9925.89
0.8650,0.1350	-9979.44
0.8763,0.1237	-9962.06
0.8189,0.1811	-10026.89
0.9422,0.0578	-9907.61
0.9365,0.0635	-9921.10
0.8950,0.1050	-9951.37
0.8500,0.1500	-9972.94
0.8675,0.1325	-9973.81
0.8108,0.1892	-9994.61
0.9421,0.0579	-9910.40
0.9257,0.0743	-9908.25
0.8820,0.1180	-9947.82
0.8312,0.1688	-9995.85
0.8606,0.1394	-9977.66
0.8026,0.1974	-10015.36
0.9440,0.0560	-9885.05
0.9262,0.0738	-9936.03
0.8867,0.1133	-9951.59
0.8280,0.1720	-10021.17
0.8860,0.1140	-9961.88
0.8007,0.1993	-10014.08
0.9500,0.0500	-9887.37
0.9166,0.0834	-9921.21
0.8952,0.1048	-9964.24
0.8355,0.1645	-9968.03
0.8932,0.1068	-9959.89
0.8093,0.1907	-10000.58
0.9411,0.0589	-9943.63
0.9167,0.0833	-9928.39
0.8878,0.1122	-9951.55
0.8111,0.1889	-10013.51
0.8953,0.1047	-9962.10
0.8129,0.1871	-9994.35
0.9564,0.0436	-9874.76
0.9160,0.0840	-9940.36
0.9070,0.0930	-9935.66
0.8075,0.1925	-10017.98
0.9326,0.0674	-9926.18
0.8269,0.1731	-10008.60
0.9586,0.0414	-9890.25
0.9299,0.0701	-9926.03
0.9074,0.0926	-9953.91
0.8277,0.1723	-10000.75
0.9225,0.0775	-9928.36
0.8322,0.1678	-10008.61
0.9546,0.0454	-9899.34
0.9254,0.0746	-9915.83
0.9180,0.0820	-9925.96
0.8690,0.1310	-9977.57
0.9263,0.0737	-9923.39
0.8525,0.1475	-9969.22
0.9535,0.0465	-9875.11
0.9124,0.0876	-9916.82
0.9134,0.0866	-9926.14
0.8568,0.1432	-9981.37
0.9366,0.0634	-9929.18
0.8099,0.1901	-10000.51
0.9559,0.0441	-9899.43
0.9005,0.0995	-9949.19
0.9094,0.0906	-9940.21
0.8474,0.1526	-9998.90
0.9368,0.0632	-9929.21
0.7971,0.2029	-10019.83
0.9654,0.0346	-9850.82
0.8946,0.1054	-9949.23
0.9146,0.0854	-9933.19
0.8340,0.1660	-10018.32
0.9367,0.0633	-9915.72
0.7985,0.2015	-10010.12
0.9602,0.0398	-9896.69
0.9101,0.0899	-9926.33
0.8923,0.1077	-9949.30
0.8325,0.1675	-9994.18
0.9470,0.0530	-9919.31
0.8145,0.1855	-10013.40
0.9645,0.0355	-9877.45
0.9020,0.0980	-9944.76
0.8978,0.1022	-9949.19
0.8528,0.1472	-10002.58
0.9521,0.0479	-9899.21
0.8060,0.1940	-10013.75
0.9700,0.0300	-9898.42
0.9054,0.0946	-9928.94
0.9063,0.0937	-9949.30
0.8592,0.1408	-10008.45
0.9467,0.0533	-9910.64
0.8194,0.1806	-10029.93
0.9714,0.0286	-9877.67
0.9105,0.0895	-9935.58
0.9233,0.0767	-9955.73
0.8854,0.1146	-9986.41
0.9368,0.0632	-9896.85
0.8061,0.1939	-10005.20
0.9707,0.0293	-9860.12
0.9056,0.0944	-9949.28
0.9239,0.0761	-9898.43
0.8922,0.1078	-9976.77
0.9314,0.0686	-9907.85
0.7802,0.2198	-10042.73
0.9724,0.0276	-9881.32
0.9128,0.0872	-9956.69
0.9211,0.0789	-9925.90
0.9012,0.0988	-9946.98
0.9347,0.0653	-9907.70
0.8091,0.1909	-10010.71
0.9679,0.0321	-9884.29
0.9101,0.0899	-9933.27
0.9073,0.0927	-9956.19
0.9052,0.0948	-9944.76
0.9352,0.0648	-9929.03
0.8279,0.1721	-9980.32
0.9659,0.0341	-9877.44
0.8885,0.1115	-9953.60
0.8815,0.1185	-9969.94
0.9062,0.0938	-9947.03
0.9332,0.0668	-9897.21
0.8240,0.1760	-10010.19
0.9641,0.0359	-9880.74
0.9062,0.0938	-9926.62
0.8787,0.1213	-9973.86
0.9064,0.0936	-9937.96
0.9260,0.0740	-9933.49
0.8047,0.1953	-10022.32
0.9561,0.0439	-9896.36
0.8987,0.1013	-9975.37
0.8929,0.1071	-9959.88
0.9075,0.0925	-9940.22
0.9244,0.0756	-9925.89
0.8205,0.1795	-9987.45
0.9546,0.0454	-9884.11
0.9159,0.0841	-9947.52
0.8827,0.1173	-9965.93
0.9194,0.0806	-9923.49
0.9182,0.0818	-9913.86
0.8156,0.1844	-10010.39
0.9558,0.0442	-9893.27
0.9076,0.0924	-9937.93
0.9021,0.0979	-9938.10
0.9132,0.0868	-9928.50
0.9248,0.0752	-9923.39
0.8184,0.1816	-10007.29
0.9616,0.0384	-9877.52
0.8857,0.1143	-9959.83
0.9150,0.0850	-9947.44
0.9060,0.0940	-9922.11
0.9192,0.0808	-9935.65
0.8149,0.1851	-10017.83
0.9535,0.0465	-9884.17
0.8547,0.1453	-9979.66
0.9287,0.0713	-9941.39
0.8886,0.1114	-9953.59
0.9217,0.0783	-9938.22
0.8198,0.1802	-10010.26
0.9482,0.0518	-9875.87
0.8495,0.1505	-9985.10
0.9223,0.0777	-9925.89
0.8814,0.1186	-9935.84
0.9332,0.0668	-9934.13
0.8376,0.1624	-9984.11
0.9400,0.0600	-9907.59
0.8338,0.1662	-10010.24
0.9410,0.0590	-9893.75
0.8857,0.1143	-9968.02
0.9249,0.0751	-9938.45
0.8369,0.1631	-9980.89
0.9398,0.0602	-9913.09
0.8519,0.1481	-9981.53
0.9455,0.0545	-9890.58
0.8882,0.1118	-9961.89
0.9266,0.0734	-9923.39
0.8432,0.1568	-9988.75
0.9228,0.0772	-9923.40
0.8425,0.1575	-9988.78
0.9357,0.0643	-9904.98
0.8760,0.1240	-9981.62
0.9357,0.0643	-9918.37
0.8394,0.1606	-9992.23
0.9163,0.0837	-9923.62
0.8420,0.1580	-10017.24
0.9487,0.0513	-9887.46
0.8704,0.1296	-9969.96
0.9160,0.0840	-9940.36
0.8439,0.1561	-10002.22
0.9156,0.0844	-9933.19
0.8761,0.1239	-9983.58
0.9430,0.0570	-9893.59
0.8760,0.1240	-9981.62
0.9203,0.0797	-9950.37
0.8581,0.1419	-9993.94
0.9112,0.0888	-9933.24
0.8752,0.1248	-9981.58
0.9514,0.0486	-9899.18
0.8707,0.1293	-9983.31
0.9250,0.0750	-9905.80
0.8788,0.1212	-9961.98
0.8925,0.1075	-9961.99
0.9065,0.0935	-9924.32
0.9453,0.0547	-9910.55
0.8493,0.1507	-9990.30
0.9342,0.0658	-9915.67
0.8642,0.1358	-9972.04
0.8818,0.1182	-9957.89
0.8989,0.1011	-9951.37
0.9414,0.0586	-9910.38
0.8466,0.1534	-10010.84
0.9373,0.0627	-9885.98
0.8938,0.1062	-9951.38
0.8864,0.1136	-9945.44
0.9030,0.0970	-9953.68
0.9499,0.0501	-9896.20
0.8595,0.1405	-9955.96
0.9431,0.0569	-9916.05
0.9074,0.0926	-9963.04
0.8904,0.1096	-9955.65
0.8925,0.1075	-9957.76
0.9512,0.0488	-9887.30
0.8611,0.1389	-9995.89
0.9431,0.0569	-9904.82
0.8992,0.1008	-9914.16
0.8715,0.1285	-9958.45
0.8735,0.1265	-9971.84
0.9442,0.0558	-9941.59
0.8553,0.1447	-9972.52
0.9516,0.0484	-9902.17
0.8901,0.1099	-9970.29
0.8951,0.1049	-9934.22
0.8748,0.1252	-9983.51
0.9393,0.0607	-9904.86
0.8790,0.1210	-9961.97
0.9565,0.0435	-9899.48
0.8691,0.1309	-9983.25
0.8946,0.1054	-9944.96
0.8720,0.1280	-9979.53
0.9355,0.0645	-9921.04
0.8481,0.1519	-9983.43
0.9583,0.0417	-9893.38
0.8799,0.1201	-9971.91
0.8906,0.1094	-9949.35
0.8743,0.1257	-9944.68
0.9584,0.0416	-9893.39
0.8584,0.1416	-9977.73
0.9619,0.0381	-9887.20
0.8797,0.1203	-9969.91
0.8807,0.1193	-9967.93
0.8672,0.1328	-9970.06
0.9608,0.0392	-9887.16
0.8726,0.1274	-9954.53
0.9636,0.0364	-9877.46
0.8607,0.1393	-9977.66
0.8893,0.1107	-9966.08
0.8825,0.1175	-9967.95
0.9655,0.0345	-9867.45
0.8689,0.1311	-9970.01
0.9657,0.0343	-9887.45
0.8651,0.1349	-9957.14
0.8976,0.1024	-9957.87
0.8656,0.1344	-9990.62
0.9729,0.0271	-9874.23
0.8636,0.1364	-9981.29
0.9735,0.0265	-9867.07
0.8527,0.1473	-9992.04
0.8940,0.1060	-9927.92
0.8549,0.1451	-9970.78
0.9769,0.0231	-9859.69
0.8690,0.1310	-9985.14
0.9771,0.0229	-9870.94
0.8774,0.1226	-9967.92
0.8696,0.1304	-9971.88
0.8857,0.1143	-9941.41
0.9787,0.0213	-9863.49
0.8732,0.1268	-9981.49
0.9736,0.0264	-9856.24
0.8994,0.1006	-9951.37
0.8663,0.1337	-9994.39
0.8959,0.1041	-9959.97
0.9781,0.0219	-9855.86
0.8845,0.1155	-9955.77
0.9669,0.0331	-9863.96
0.8977,0.1023	-9964.39
0.8580,0.1420	-9968.75
0.9049,0.0951	-9933.49
0.9774,0.0226	-9859.67
0.8965,0.1035	-9955.68
0.9650,0.0350	-9884.08
0.8834,0.1166	-9957.84
0.8539,0.1461	-9995.58
0.9187,0.0813	-9928.36
0.9717,0.0283	-9909.53
0.9020,0.0980	-9931.45
0.9698,0.0302	-9874.09
0.8911,0.1089	-9972.46
0.8289,0.1711	-10025.95
0.9206,0.0794	-9938.16
0.9753,0.0247	-9859.75
0.9049,0.0951	-9940.25
0.9625,0.0375	-9893.72
0.8895,0.1105	-9957.74
0.8329,0.1671	-10007.01
0.9277,0.0723	-9913.19
0.9774,0.0226	-9855.91
0.9293,0.0707	-9907.97
0.9627,0.0373	-9890.49
0.8761,0.1239	-9954.24
0.8445,0.1555	-9987.01
0.9258,0.0742	-9913.29
0.9793,0.0207	-9863.52
0.9318,0.0682	-9918.28
0.9586,0.0414	-9887.11
0.8528,0.1472	-9990.28
0.8279,0.1721	-9985.04
0.9272,0.0728	-9933.58
0.9837,0.0163	-9835.35
0.9311,0.0689	-9933.90
0.9597,0.0403	-9880.79
0.8851,0.1149	-9951.67
0.8063,0.1937	-10025.15
0.9233,0.0767	-9943.31
0.9840,0.0160	-9851.75
0.9321,0.0679	-9918.29
0.9448,0.0552	-9907.68
0.9056,0.0944	-9924.41
0.8143,0.1857	-10003.05
0.9366,0.0634	-9926.48
0.9848,0.0152	-9843.41
0.9294,0.0706	-9915.70
0.9390,0.0610	-9910.33
0.9265,0.0735	-9928.46
0.8281,0.1719	-10019.60
0.9270,0.0730	-9903.06
0.9874,0.0126	-9843.20
0.9160,0.0840	-9923.63
0.9438,0.0562	-9887.89
0.9061,0.0939	-9940.23
0.8208,0.1792	-10022.41
0.9187,0.0813	-9947.76
0.9881,0.0119	-9874.10
0.8981,0.1019	-9949.19
0.9317,0.0683	-9907.83
0.9124,0.0876	-9963.68
0.8149,0.1851	-10005.97
0.9303,0.0697	-9957.15
0.9897,0.0103	-9856.84
0.8919,0.1081	-9949.31
0.9366,0.0634	-9913.02
0.9225,0.0775	-9915.98
0.8328,0.1672	-10000.59
0.9232,0.0768	-9935.83
0.9901,0.0099	-9833.97
0.9086,0.0914	-9958.59
0.9498,0.0502	-9899.14
0.9232,0.0768	-9948.26
0.8337,0.1663	-9994.12
0.9357,0.0643	-9904.99
0.9898,0.0102	-9861.48
0.9133,0.0867	-9949.68
0.9618,0.0382	-9880.74
0.9274,0.0726	-9920.85
0.8683,0.1317	-9970.03
0.9240,0.0760	-9923.39
0.9871,0.0129	-9851.90
0.9051,0.0949	-9944.75
0.9528,0.0472	-9878.21
0.9362,0.0638	-9926.45
0.8789,0.1211	-9952.06
0.9327,0.0673	-9939.33
0.9845,0.0155	-9855.90
0.9012,0.0988	-9969.08
0.9536,0.0464	-9914.39
0.9369,0.0631	-9918.42
0.8446,0.1554	-9980.23
0.9335,0.0665	-9894.54
0.9830,0.0170	-9863.92
0.8940,0.1060	-9966.31
0.9573,0.0427	-9899.55
0.9428,0.0572	-9873.99
0.8617,0.1383	-9963.00
0.9343,0.0657	-9920.98
0.9858,0.0142	-9839.07
0.8848,0.1152	-9976.15
0.9613,0.0387	-9896.81
0.9533,0.0467	-9866.09
0.8474,0.1526	-9985.18
0.9442,0.0558	-9890.68
0.9872,0.0128	-9847.56
0.8713,0.1287	-9958.47
0.9536,0.0464	-9887.19
0.9569,0.0431	-9871.62
0.8671,0.1329	-9966.31
0.9400,0.0600	-9921.36
0.9869,0.0131	-9843.23
0.8621,0.1379	-9983.13
0.9465,0.0535	-9879.03
0.9625,0.0375	-9887.23
0.8633,0.1367	-9964.71
0.9328,0.0672	-9902.51
0.9836,0.0164	-9851.75
0.8554,0.1446	-9986.74
0.9547,0.0453	-9899.34
0.9585,0.0415	-9887.11
0.8943,0.1057	-9962.05
0.9334,0.0666	-9913.03
0.9838,0.0162	-9847.64
0.8672,0.1328	-9966.31
0.9597,0.0403	-9871.28
0.9536,0.0464	-9893.23
0.9007,0.0993	-9924.93
0.9246,0.0754	-9928.40
0.9839,0.0161	-9843.52
0.8607,0.1393	-9983.12
0.9558,0.0442	-9896.35
0.9571,0.0429	-9896.43
0.8973,0.1027	-9960.03
0.9187,0.0813	-9935.64
0.9845,0.0155	-9847.60
0.8532,0.1468	-9986.76
0.9572,0.0428	-9884.00
0.9431,0.0569	-9918.86
0.8755,0.1245	-9956.24
0.9084,0.0916	-9931.04
0.9867,0.0133	-9864.79
0.8325,0.1675	-10008.61
0.9540,0.0460	-9890.21
0.9499,0.0501	-9884.44
0.8755,0.1245	-9973.79
0.8875,0.1125	-9968.08
0.9855,0.0145	-9864.45
0.8514,0.1486	-9976.32
0.9470,0.0530	-9899.13
0.9459,0.0541	-9893.42
0.8667,0.1333	-9979.44
0.8864,0.1136	-9957.77
0.9836,0.0164	-9868.13
0.8501,0.1499	-9981.61
0.9546,0.0454	-9899.34
0.9361,0.0639	-9896.91
0.8597,0.1403	-9997.63
0.8659,0.1341	-9973.84
0.9786,0.0214	-9848.19
0.8700,0.1300	-9981.38
0.9510,0.0490	-9896.21
0.9325,0.0675	-9913.04
0.8639,0.1361	-9986.84
0.8788,0.1212	-9950.09
0.9792,0.0208	-9851.96
0.8736,0.1264	-9971.84
0.9441,0.0559	-9896.35
0.9422,0.0578	-9882.50
0.8593,0.1407	-9981.32
0.8804,0.1196	-9959.94
0.9766,0.0234	-9848.51
0.8727,0.1273	-9985.32
0.9437,0.0563	-9904.82
0.9444,0.0556	-9919.00
0.8657,0.1343	-9973.85
0.8506,0.1494	-9995.50
0.9716,0.0284	-9877.69
0.8748,0.1252	-9969.89
0.9555,0.0445	-9890.20
0.9482,0.0518	-9896.22
0.8503,0.1497	-9988.55
0.8471,0.1529	-9985.20
0.9798,0.0202	-9859.68
0.8668,0.1332	-9979.44
0.9472,0.0528	-9899.13
0.9442,0.0558	-9910.49
0.8564,0.1436	-10001.02
0.8458,0.1542	-9983.55
0.9679,0.0321	-9874.07
0.8702,0.1298	-9960.46
0.9500,0.0500	-9890.32
0.9384,0.0616	-9921.22
0.8663,0.1337	-9981.31
0.8334,0.1666	-10011.84
0.9718,0.0282	-9881.24
0.8593,0.1407	-9983.13
0.9470,0.0530	-9907.78
0.9403,0.0597	-9907.59
0.8627,0.1373	-9984.97
0.8187,0.1813	-10017.83
0.9749,0.0251	-9859.77
0.8485,0.1515	-9969.64
0.9420,0.0580	-9915.97
0.9220,0.0780	-9930.83
0.8810,0.1190	-9953.92
0.8422,0.1578	-10007.22
0.9708,0.0292	-9874.12
0.8502,0.1498	-9979.87
0.9476,0.0524	-9890.44
0.9180,0.0820	-9921.13
0.8904,0.1096	-9938.89
0.8591,0.1409	-9984.94
0.9750,0.0250	-9867.09
0.8776,0.1224	-9962.01
0.9485,0.0515	-9893.30
0.8829,0.1171	-9959.87
0.8906,0.1094	-9949.36
0.8615,0.1385	-10003.23
0.9674,0.0326	-9897.80
0.8508,0.1492	-9986.80
0.9435,0.0565	-9896.37
0.8934,0.1066	-9979.03
0.8982,0.1018	-9975.31
0.8770,0.1230	-9956.14
0.9715,0.0285	-9870.62
0.8271,0.1729	-10016.43
0.9525,0.0475	-9896.23
0.9031,0.0969	-9962.61
0.8918,0.1082	-9947.20
0.8549,0.1451	-9972.55
0.9723,0.0277	-9877.75
0.8292,0.1708	-9992.80
0.9504,0.0496	-9884.39
0.9089,0.0911	-9924.11
0.8916,0.1084	-9955.64
0.8434,0.1566	-10002.21
0.9729,0.0271	-9870.65
0.8737,0.1263	-9989.25
0.9484,0.0516	-9878.75
0.8967,0.1033	-9947.04
0.9013,0.0987	-9962.46
0.8570,0.1430	-9986.74
0.9671,0.0329	-9874.08
0.8663,0.1337	-9942.06
0.9454,0.0546	-9890.59
0.9088,0.0912	-9940.21
0.9068,0.0932	-9933.40
0.8582,0.1418	-9974.14
0.9599,0.0401	-9861.72
0.8460,0.1540	-9986.95
0.9368,0.0632	-9902.24
0.9022,0.0978	-9966.97
0.8859,0.1141	-9963.93
0.8622,0.1378	-9964.79
0.9723,0.0277	-9881.30
0.8487,0.1513	-9993.75
0.9358,0.0642	-9929.09
0.9045,0.0955	-9931.26
0.8862,0.1138	-9980.36
0.8526,0.1474	-10000.81
0.9755,0.0245	-9845.00
0.8763,0.1237	-9969.89
0.9448,0.0552	-9919.04
0.9035,0.0965	-9955.94
0.9114,0.0886	-9919.25
0.8767,0.1233	-9962.04
0.9805,0.0195	-9847.94
0.8820,0.1180	-9951.85
0.9406,0.0594	-9891.02
0.9113,0.0887	-9951.88
0.9275,0.0725	-9931.04
0.8911,0.1089	-9957.74
0.9788,0.0212	-9852.00
0.8757,0.1243	-9977.70
0.9445,0.0555	-9902.00
0.9142,0.0858	-9919.00
0.9343,0.0657	-9918.33
0.9090,0.0910	-9954.02
0.9795,0.0205	-9859.67
0.8948,0.1052	-9934.25
0.9392,0.0608	-9910.34
0.9240,0.0760	-9935.88
0.9341,0.0659	-9926.28
0.9297,0.0703	-9938.93
0.9775,0.0225	-9848.36
0.9156,0.0844	-9933.19
0.9417,0.0583	-9915.95
0.9204,0.0796	-9923.46
0.9163,0.0837	-9933.19
0.9198,0.0802	-9923.48
0.9756,0.0244	-9856.04
0.9038,0.0962	-9949.23
0.9475,0.0525	-9907.80
0.9248,0.0752	-9913.35
0.9238,0.0762	-9933.37
0.9170,0.0830	-9933.19
0.9768,0.0232	-9863.43
0.9001,0.0999	-9955.78
0.9515,0.0485	-9896.21
0.9164,0.0836	-9923.61
0.9172,0.0828	-9940.41
0.9102,0.0898	-9917.06
0.9761,0.0239	-9870.84
0.9001,0.0999	-9966.77
0.9526,0.0474	-9893.23
0.9142,0.0858	-9930.83
0.9151,0.0849	-9921.30
0.9066,0.0934	-9949.31
0.9799,0.0201	-9859.68
0.8950,0.1050	-9949.23
0.9533,0.0467	-9884.18
0.9161,0.0839	-9940.36
0.9148,0.0852	-9928.44
0.9151,0.0849	-9952.21
0.9760,0.0240	-9863.42
0.9100,0.0900	-9940.22
0.9548,0.0452	-9908.51
0.9019,0.0981	-9946.98
0.9169,0.0831	-9928.39
0.9094,0.0906	-9930.99
0.9743,0.0257	-9856.17
0.8987,0.1013	-9966.65
0.9552,0.0448	-9887.14
0.9007,0.0993	-9966.83
0.9277,0.0723	-9905.54
0.9212,0.0788	-9928.35
0.9778,0.0222	-9852.10
0.8985,0.1015	-9925.20
0.9555,0.0445	-9881.00
0.9140,0.0860	-9933.20
0.9221,0.0779	-9930.83
0.9246,0.0754	-9928.40
0.9811,0.0189	-9843.92
0.8913,0.1087	-9957.75
0.9383,0.0617	-9899.44
0.9211,0.0789	-9943.10
0.9284,0.0716	-9908.03
0.9164,0.0836	-9911.64
0.9772,0.0228	-9855.92
0.8682,0.1318	-9994.54
0.9298,0.0702	-9902.77
0.9131,0.0869	-9930.85
0.9076,0.0924	-9949.36
0.9275,0.0725	-9910.65
0.9790,0.0210	-9859.67
0.8745,0.1255	-10002.91
0.9442,0.0558	-9902.00
0.9183,0.0817	-9923.53
0.9170,0.0830	-9918.78
0.9302,0.0698	-9907.92
0.9707,0.0293	-9881.12
0.8629,0.1371	-9986.81
0.9359,0.0641	-9899.61
0.9184,0.0816	-9938.05
0.9126,0.0874	-9935.56
0.9361,0.0639	-9910.34
0.9723,0.0277	-9867.08
0.8459,0.1541	-9971.62
0.9227,0.0773	-9928.37
0.9307,0.0693	-9900.09
0.8821,0.1179	-9959.89
0.9234,0.0766	-9920.91
0.9763,0.0237	-9863.42
0.8379,0.1621	-10012.01
0.9233,0.0767	-9905.98
0.9311,0.0689	-9913.07
0.8954,0.1046	-9955.66
0.9390,0.0610	-9907.60
0.9745,0.0255	-9867.08
0.8446,0.1554	-9995.47
0.9185,0.0815	-9942.90
0.9307,0.0693	-9923.47
0.9008,0.0992	-9946.98
0.9378,0.0622	-9902.19
0.9783,0.0217	-9874.90
0.8735,0.1265	-9966.04
0.9002,0.0998	-9957.98
0.9328,0.0672	-9905.15
0.8739,0.1261	-9967.97
0.9367,0.0633	-9934.58
0.9793,0.0207	-9867.39
0.8970,0.1030	-9944.87
0.9068,0.0932	-9953.87
0.9313,0.0687	-9923.49
0.8912,0.1088	-9955.64
0.9240,0.0760	-9945.88
0.9800,0.0200	-9855.79
0.9011,0.0989	-9949.19
0.9164,0.0836	-9940.37
0.9236,0.0764	-9923.39
0.8751,0.1249	-9966.00
0.9242,0.0758	-9915.88
0.9769,0.0231	-9863.43
0.8907,0.1093	-9940.96
0.9142,0.0858	-9911.90
0.9427,0.0573	-9902.02
0.8878,0.1122	-9932.93
0.9310,0.0690	-9902.67
0.9792,0.0208	-9851.97
0.8789,0.1211	-9963.95
0.8869,0.1131	-9937.17
0.9510,0.0490	-9899.17
0.9059,0.0941	-9956.08
0.9254,0.0746	-9915.83
0.9809,0.0191	-9855.78
0.8597,0.1403	-9981.32
0.9048,0.0952	-9931.24
0.9512,0.0488	-9905.12
0.8780,0.1220	-9946.22
0.9357,0.0643	-9921.05
0.9826,0.0174	-9880.01
0.8675,0.1325	-9956.90
0.8864,0.1136	-9941.33
0.9335,0.0665	-9905.10
0.8916,0.1084	-9953.53
0.9305,0.0695	-9918.28
0.9840,0.0160	-9872.34
0.8736,0.1264	-9987.30
0.8611,0.1389	-9966.71
0.9370,0.0630	-9907.63
0.9146,0.0854	-9926.08
0.9352,0.0648	-9913.02
0.9862,0.0138	-9839.02
0.8792,0.1208	-9969.90
0.8635,0.1365	-9966.53
0.9385,0.0615	-9913.05
0.9235,0.0765	-9928.38
0.9419,0.0581	-9907.61
0.9821,0.0179	-9859.79
0.8835,0.1165	-9943.66
0.8628,0.1372	-9999.67
0.9533,0.0467	-9887.20
0.9372,0.0628	-9926.55
0.9514,0.0486	-9902.16
0.9851,0.0149	-9839.19
0.8641,0.1359	-9962.79
0.8739,0.1261	-9960.22
0.9539,0.0461	-9896.27
0.9536,0.0464	-9893.23
0.9411,0.0589	-9902.06
0.9853,0.0147	-9843.36
0.8675,0.1325	-9990.72
0.8627,0.1373	-9975.78
0.9504,0.0496	-9890.30
0.9557,0.0443	-9893.27
0.9399,0.0601	-9907.60
0.9842,0.0158	-9851.75
0.8683,0.1317	-9962.48
0.8370,0.1630	-9979.25
0.9585,0.0415	-9899.67
0.9559,0.0441	-9874.82
0.9328,0.0672	-9913.04
0.9836,0.0164	-9851.75
0.8676,0.1324	-9962.53
0.8590,0.1410	-9997.59
0.9590,0.0410	-9899.73
0.9535,0.0465	-9896.25
0.9309,0.0691	-9920.88
0.9816,0.0184	-9867.71
0.8791,0.1209	-9954.03
0.8395,0.1605	-9993.89
0.9617,0.0383	-9906.52
0.9460,0.0540	-9913.46
0.9300,0.0700	-9905.35
0.9831,0.0169	-9851.75
0.8603,0.1397	-9974.03
0.8508,0.1492	-9979.84
0.9734,0.0266	-9888.68
0.9546,0.0454	-9893.25
0.9377,0.0623	-9932.02
0.9845,0.0155	-9835.16
0.8724,0.1276	-9993.00
0.8372,0.1628	-9984.14
0.9777,0.0223	-9874.78
0.9474,0.0526	-9884.67
0.9548,0.0452	-9865.79
0.9860,0.0140	-9839.05
0.8698,0.1302	-9968.08
0.8608,0.1392	-9988.59
0.9762,0.0238	-9852.28
0.9502,0.0498	-9922.73
0.9482,0.0518	-9878.77
0.9828,0.0172	-9871.99
0.8701,0.1299	-9952.85
0.8834,0.1166	-9955.82
0.9655,0.0345	-9874.11
0.9455,0.0545	-9904.85
0.9318,0.0682	-9920.90
0.9820,0.0180	-9843.79
0.8693,0.1307	-9996.52
0.8867,0.1133	-9986.57
0.9719,0.0281	-9856.46
0.9370,0.0630	-9894.13
0.9206,0.0794	-9945.51
0.9807,0.0193	-9847.92
0.8775,0.1225	-9969.89
0.8970,0.1030	-9940.54
0.9734,0.0266	-9863.47
0.9397,0.0603	-9915.83
0.8933,0.1067	-9968.39
0.9787,0.0213	-9848.18
0.8945,0.1055	-9930.00
0.8881,0.1119	-9945.32
0.9816,0.0184	-9871.68
0.9338,0.0662	-9902.43
0.9070,0.0930	-9951.61
0.9731,0.0269	-9856.31
0.9152,0.0848	-9911.78
0.8866,0.1134	-9947.49
0.9833,0.0167	-9839.53
0.9506,0.0494	-9878.46
0.8957,0.1043	-9957.81
0.9742,0.0258	-9867.08
0.9112,0.0888	-9968.18
0.9012,0.0988	-9944.77
0.9870,0.0130	-9864.87
0.9521,0.0479	-9884.26
0.8784,0.1216	-9983.74
0.9756,0.0244	-9859.73
0.9283,0.0717	-9902.92
0.9266,0.0734	-9941.14
0.9859,0.0141	-9839.06
0.9449,0.0551	-9910.52
0.8783,0.1217	-9961.99
0.9812,0.0188	-9855.78
0.9341,0.0659	-9886.51
0.9261,0.0739	-9918.33
0.9860,0.0140	-9847.55
0.9384,0.0616	-9907.61
0.8833,0.1167	-9959.87
0.9854,0.0146	-9860.20
0.9350,0.0650	-9918.35
0.9064,0.0936	-9944.77
0.9858,0.0142	-9851.80
0.9415,0.0585	-9918.72
0.8692,0.1308	-9985.15
0.9771,0.0229	-9878.44
0.9318,0.0682	-9913.05
0.8650,0.1350	-9977.58
0.9868,0.0132	-9838.93
0.9547,0.0453	-9887.15
0.8529,0.1471	-9976.22
0.9747,0.0253	-9867.09
0.9318,0.0682	-9905.21
0.8816,0.1184	-9981.99
0.9826,0.0174	-9839.65
0.9553,0.0447	-9874.89
0.8599,0.1401	-9990.38
0.9722,0.0278	-9895.52
0.9350,0.0650	-9915.68
0.9082,0.0918	-9940.21
0.9840,0.0160	-9855.87
0.9556,0.0444	-9877.93
0.8483,0.1517	-10007.52
0.9737,0.0263	-9870.68
0.9259,0.0741	-9933.49
0.9235,0.0765	-9918.41
0.9821,0.0179	-9867.80
0.9427,0.0573	-9910.42
0.8743,0.1257	-9973.78
0.9694,0.0306	-9856.81
0.9271,0.0729	-9931.02
0.9198,0.0802	-9918.59
0.9845,0.0155	-9839.29
0.9309,0.0691	-9884.46
0.9020,0.0980	-9949.20
0.9688,0.0312	-9870.64
0.9123,0.0877	-9963.67
0.9083,0.0917	-9935.63
0.9761,0.0239	-9848.58
0.9195,0.0805	-9928.36
0.8898,0.1102	-9949.39
0.9690,0.0310	-9874.08
0.9036,0.0964	-9920.14
0.8989,0.1011	-9944.81
0.9740,0.0260	-9856.21
0.9203,0.0797	-9928.35
0.8696,0.1304	-9979.47
0.9651,0.0349	-9864.17
0.9307,0.0693	-9889.70
0.9079,0.0921	-9928.77
0.9729,0.0271	-9870.65
0.9260,0.0740	-9908.23
0.8463,0.1537	-10000.58
0.9648,0.0352	-9880.75
0.9332,0.0668	-9897.21
0.8963,0.1037	-9931.94
0.9712,0.0288	-9856.55
0.9176,0.0824	-9945.25
0.8567,0.1433	-9988.52
0.9627,0.0373	-9887.23
0.9208,0.0792	-9938.17
0.8722,0.1278	-9962.25
0.9714,0.0286	-9870.62
0.9055,0.0945	-9965.09
0.8538,0.1462	-10006.16
0.9696,0.0304	-9881.01
0.9210,0.0790	-9930.81
0.8650,0.1350	-9994.30
0.9623,0.0377	-9890.46
0.9042,0.0958	-9942.51
0.8585,0.1415	-9979.53
0.9692,0.0308	-9877.53
0.9078,0.0922	-9912.76
0.8696,0.1304	-9949.11
0.9666,0.0334	-9863.99
0.8766,0.1234	-9979.69
0.8557,0.1443	-10006.32
0.9708,0.0292	-9877.62
0.8853,0.1147	-9953.70
0.8526,0.1474	-9986.77
0.9660,0.0340	-9897.52
0.8803,0.1197	-9973.91
0.8662,0.1338	-9971.97
0.9714,0.0286	-9870.62
0.8939,0.1061	-9944.99
0.8714,0.1286	-9960.38
0.9546,0.0454	-9932.85
0.8649,0.1351	-9977.58
0.8550,0.1450	-9967.22
0.9748,0.0252	-9874.40
0.9004,0.0996	-9931.57
0.8727,0.1273	-9948.74
0.9455,0.0545	-9904.85
0.8580,0.1420	-9975.94
0.8648,0.1352	-9964.60
0.9694,0.0306	-9874.08
0.9092,0.0908	-9947.12
0.8809,0.1191	-9961.93
0.9480,0.0520	-9910.74
0.8598,0.1402	-9988.57
0.8683,0.1317	-9968.14
0.9648,0.0352	-9887.38
0.9068,0.0932	-9935.67
0.8658,0.1342	-9962.66
0.9549,0.0451	-9884.09
0.8334,0.1666	-9995.75
0.8816,0.1184	-9975.97
0.9684,0.0316	-9874.07
0.9037,0.0963	-9967.14
0.8865,0.1135	-9963.94
0.9616,0.0384	-9887.18
0.8032,0.1968	-10018.14
0.8776,0.1224	-9967.92
0.9627,0.0373	-9877.48
0.8946,0.1054	-9949.23
0.8885,0.1115	-9988.88
0.9536,0.0464	-9902.30
0.7921,0.2079	-10009.45
0.8800,0.1200	-9951.98
0.9621,0.0379	-9913.08
0.8973,0.1027	-9949.19
0.8643,0.1357	-9968.33
0.9509,0.0491	-9884.35
0.7931,0.2069	-10009.33
0.9127,0.0873	-9949.64
0.9605,0.0395	-9880.76
0.9009,0.0991	-9940.36
0.8857,0.1143	-9918.88
0.9422,0.0578	-9913.19
0.8288,0.1712	-9994.40
0.9152,0.0848	-9928.43
0.9618,0.0382	-9887.19
0.8952,0.1048	-9949.22
0.8853,0.1147	-9970.05
0.9289,0.0711	-9920.85
0.8484,0.1516	-9993.75
0.9233,0.0767	-9933.35
0.9563,0.0437	-9880.95
0.9232,0.0768	-9935.83
0.8730,0.1270	-9973.77
0.9334,0.0666	-9920.95
0.8474,0.1526	-9981.75
0.9233,0.0767	-9925.89
0.9589,0.0411	-9861.91
0.9182,0.0818	-9918.70
0.8860,0.1140	-9970.08
0.9276,0.0724	-9933.60
0.8506,0.1494	-9972.89
0.9288,0.0712	-9918.28
0.9619,0.0381	-9880.74
0.9197,0.0803	-9945.42
0.8987,0.1013	-9925.17
0.9366,0.0634	-9910.33
0.8437,0.1563	-10002.22
0.9210,0.0790	-9918.53
0.9611,0.0389	-9874.34
0.9199,0.0801	-9933.24
0.8855,0.1145	-9970.06
0.9371,0.0629	-9923.84
0.8571,0.1429	-9981.36
0.9230,0.0770	-9953.20
0.9566,0.0434	-9877.84
0.9209,0.0791	-9908.71
0.8757,0.1243	-9960.13
0.9380,0.0620	-9891.32
0.8333,0.1667	-9997.36
0.9145,0.0855	-9928.45
0.9599,0.0401	-9890.30
0.9293,0.0707	-9882.21
0.8857,0.1143	-9951.64
0.9449,0.0551	-9933.25
0.8588,0.1412	-9979.52
0.9327,0.0673	-9918.30
0.9600,0.0400	-9877.60
0.9027,0.0973	-9931.39
0.8982,0.1018	-9942.65
0.9365,0.0635	-9913.02
0.8610,0.1390	-9990.42
0.9429,0.0571	-9904.82
0.9622,0.0378	-9871.03
0.9021,0.0979	-9940.32
0.9028,0.0972	-9938.07
0.9352,0.0648	-9880.99
0.8274,0.1726	-9986.66
0.9529,0.0471	-9896.24
0.9628,0.0372	-9861.22
0.8869,0.1131	-10003.08
0.8855,0.1145	-9959.83
0.9282,0.0718	-9902.94
0.8604,0.1396	-9968.58
0.9437,0.0563	-9890.73
0.9652,0.0348	-9884.09
0.9195,0.0805	-9938.10
0.8892,0.1108	-9961.91
0.9201,0.0799	-9950.35
0.8610,0.1390	-9953.94
0.9444,0.0556	-9896.33
0.9642,0.0358	-9893.92
0.8924,0.1076	-9959.87
0.8939,0.1061	-9981.21
0.9079,0.0921	-9940.21
0.8910,0.1090	-9953.54
0.9443,0.0557	-9916.15
0.9712,0.0288	-9856.54
0.8800,0.1200	-9953.97
0.8915,0.1085	-9936.69
0.9146,0.0854	-9935.56
0.8818,0.1182	-9975.98
0.9411,0.0589	-9915.91
0.9707,0.0293	-9853.12
0.8684,0.1316	-9956.81
0.9091,0.0909	-9933.31
0.9054,0.0946	-9965.09
0.8871,0.1129	-9966.01
0.9393,0.0607	-9921.29
0.9683,0.0317	-9867.23
0.8569,0.1431	-9988.53
0.9026,0.0974	-9942.53
0.8904,0.1096	-9953.55
0.8861,0.1139	-9978.29
0.9298,0.0702	-9895.02
0.9705,0.0295	-9867.12
0.8231,0.1769	-10010.20
0.9008,0.0992	-9953.60
0.8702,0.1298	-9969.97
0.8975,0.1025	-9953.53
0.9266,0.0734	-9941.14
0.9632,0.0368	-9880.73
0.7873,0.2127	-10020.52
0.9066,0.0934	-9942.50
0.8783,0.1217	-9971.87
0.8950,0.1050	-9964.23
0.9086,0.0914	-9931.03
0.9697,0.0303	-9867.15
0.8076,0.1924	-10015.10
0.8885,0.1115	-9959.82
0.8649,0.1351	-9962.73
0.8860,0.1140	-9947.53
0.9166,0.0834	-9918.81
0.9696,0.0304	-9877.55
0.8148,0.1852	-10014.87
0.8725,0.1275	-9987.23
0.8327,0.1673	-9992.56
0.8325,0.1675	-9995.78
0.9204,0.0796	-9938.14
0.9667,0.0333	-9863.98
0.8457,0.1543	-10000.57
0.8711,0.1289	-9958.49
0.8648,0.1352	-9973.87
0.8429,0.1571	-9982.04
0.9287,0.0713	-9954.22
0.9652,0.0348	-9880.77
0.8549,0.1451	-9997.39
0.8611,0.1389	-9975.83
0.8441,0.1559	-9981.96
0.8689,0.1311	-9971.90
0.9403,0.0597	-9893.81
0.9741,0.0259	-9867.07
0.8909,0.1091	-9934.65
0.8760,0.1240	-9960.11
0.8779,0.1221	-9967.92
0.8530,0.1470	-9972.70
0.9248,0.0752	-9913.35
0.9753,0.0247	-9874.46
0.9072,0.0928	-9931.10
0.8666,0.1334	-9986.92
0.8783,0.1217	-9952.11
0.8622,0.1378	-9983.13
0.9376,0.0624	-9907.62
0.9769,0.0231	-9863.43
0.9012,0.0988	-9931.51
0.8660,0.1340	-9964.51
0.9136,0.0864	-9944.99
0.8607,0.1393	-9988.59
0.9424,0.0576	-9904.82
0.9730,0.0270	-9870.65
0.9155,0.0845	-9945.10
0.8685,0.1315	-9962.47
0.9343,0.0657	-9905.06
0.8765,0.1235	-9954.21
0.9271,0.0729	-9920.85
0.9742,0.0258	-9877.97
0.8961,0.1039	-9944.90
0.8825,0.1175	-9965.93
0.9310,0.0690	-9915.68
0.8765,0.1235	-9964.01
0.9224,0.0776	-9948.16
0.9756,0.0244	-9863.42
0.8957,0.1043	-9955.66
0.8773,0.1227	-9956.12
0.9263,0.0737	-9920.86
0.8481,0.1519	-9985.15
0.9263,0.0737	-9923.39
0.9717,0.0283	-9874.16
0.8788,0.1212	-9967.92
0.9047,0.0953	-9967.26
0.9312,0.0688	-9931.30
0.8597,0.1403	-9986.75
0.9218,0.0782	-9940.69
0.9741,0.0259	-9870.70
0.9099,0.0901	-9942.53
0.8678,0.1322	-9971.92
0.9324,0.0676	-9897.30
0.8607,0.1393	-9988.59
0.8995,0.1005	-9927.26
0.9694,0.0306	-9874.08
0.9103,0.0897	-9940.22
0.8719,0.1281	-9964.18
0.9225,0.0775	-9913.50
0.8232,0.1768	-9990.20
0.9140,0.0860	-9947.38
0.9697,0.0303	-9867.15
0.9179,0.0821	-9933.20
0.8630,0.1370	-9994.18
0.9263,0.0737	-9930.98
0.8552,0.1448	-10000.95
0.9099,0.0901	-9958.71
0.9727,0.0273	-9884.94
0.9308,0.0692	-9897.49
0.8555,0.1445	-9993.85
0.9334,0.0666	-9905.11
0.8620,0.1380	-9972.14
0.9164,0.0836	-9935.58
0.9651,0.0349	-9887.40
0.9251,0.0749	-9920.87
0.8383,0.1617	-9970.89
0.9387,0.0613	-9883.04
0.8330,0.1670	-9984.51
0.9155,0.0845	-9928.42
0.9601,0.0399	-9883.96
0.8983,0.1017	-9968.79
0.8919,0.1081	-9964.08
0.9340,0.0660	-9936.87
0.8506,0.1494	-9981.59
0.8995,0.1005	-9960.14
0.9637,0.0363	-9893.85
0.8891,0.1109	-9949.42
0.8588,0.1412	-9981.33
0.9220,0.0780	-9938.24
0.8510,0.1490	-10000.74
0.9119,0.0881	-9940.24
0.9599,0.0401	-9877.60
0.8832,0.1168	-9969.98
0.8670,0.1330	-9964.44
0.9273,0.0727	-9938.67
0.8399,0.1601	-10007.14
0.9176,0.0824	-9921.15
0.9655,0.0345	-9884.11
0.8643,0.1357	-9975.74
0.8780,0.1220	-9948.18
0.9323,0.0677	-9918.29
0.8536,0.1464	-9967.36
0.9295,0.0705	-9907.96
0.9562,0.0438	-9868.63
0.8749,0.1251	-9962.12
0.8681,0.1319	-9985.10
0.9406,0.0594	-9915.88
0.8582,0.1418	-9990.34
0.9337,0.0663	-9915.67
0.9689,0.0311	-9874.08
0.8727,0.1273	-9973.77
0.8774,0.1226	-9963.99
0.9417,0.0583	-9915.95
0.8673,0.1327	-9962.55
0.9229,0.0771	-9945.74
0.9773,0.0227	-9852.15
0.8850,0.1150	-9976.16
0.8976,0.1024	-9947.02
0.9405,0.0595	-9932.44
0.8717,0.1283	-9981.43
0.9311,0.0689	-9946.91
0.9843,0.0157	-9843.47
0.8814,0.1186	-9967.93
0.8843,0.1157	-9976.12
0.9406,0.0594	-9904.83
0.8685,0.1315	-9971.91
0.9325,0.0675	-9939.30
0.9856,0.0144	-9843.34
0.8680,0.1320	-9970.03
0.8986,0.1014	-9929.55
0.9286,0.0714	-9900.32
0.8764,0.1236	-9958.13
0.9252,0.0748	-9956.08
0.9865,0.0135	-9843.26
0.8700,0.1300	-9969.98
0.9051,0.0949	-9937.99
0.9169,0.0831	-9921.19
0.8956,0.1044	-9951.36
0.9391,0.0609	-9896.65
0.9879,0.0121	-9878.38
0.8756,0.1244	-9971.84
0.8818,0.1182	-9959.90
0.8934,0.1066	-9972.65
0.9109,0.0891	-9970.45
0.9376,0.0624	-9915.75
0.9882,0.0118	-9838.74
0.8670,0.1330	-9973.82
0.8468,0.1532	-9985.21
0.8871,0.1129	-9941.27
0.9063,0.0937	-9940.23
0.9336,0.0664	-9907.74
0.9904,0.0096	-9838.55
0.8593,0.1407	-9981.32
0.8600,0.1400	-9957.71
0.8510,0.1490	-9971.12
0.8940,0.1060	-9953.51
0.9277,0.0723	-9925.95
0.9883,0.0117	-9860.92
0.8677,0.1323	-9977.57
0.8630,0.1370	-9984.97
0.8472,0.1528	-9985.19
0.8978,0.1022	-9925.29
0.9360,0.0640	-9918.39
0.9900,0.0100	-9833.98
0.8588,0.1412	-9977.72
0.8766,0.1234	-9969.89
0.8423,0.1577	-9998.84
0.8948,0.1052	-9970.63
0.9399,0.0601	-9915.85
0.9877,0.0123	-9865.11
0.8727,0.1273	-9958.37
0.8718,0.1282	-9969.93
0.8419,0.1581	-10008.88
0.8699,0.1301	-9969.98
0.9456,0.0544	-9913.42
0.9885,0.0115	-9843.16
0.8809,0.1191	-9969.93
0.8575,0.1425	-9956.22
0.8755,0.1245	-9993.30
0.8866,0.1134	-9957.77
0.9490,0.0510	-9887.44
0.9916,0.0084	-9843.27
0.8997,0.1003	-9940.41
0.8674,0.1326	-9992.60
0.8585,0.1415	-9997.56
0.8711,0.1289	-9966.13
0.9301,0.0699	-9907.93
0.9903,0.0097	-9833.92
0.8925,0.1075	-9991.62
0.8606,0.1394	-9974.02
0.8839,0.1161	-9965.95
0.8729,0.1271	-9991.11
0.9247,0.0753	-9908.34
0.9906,0.0094	-9838.53
0.9108,0.0892	-9937.90
0.8516,0.1484	-9995.52
0.8911,0.1089	-9964.05
0.8689,0.1311	-9962.44
0.9356,0.0644	-9894.29
0.9894,0.0106	-9852.22
0.9258,0.0742	-9923.38
0.8180,0.1820	-10028.35
0.8962,0.1038	-9957.83
0.8826,0.1174	-9937.69
0.9360,0.0640	-9923.75
0.9910,0.0090	-9843.22
0.9211,0.0789	-9923.44
0.8474,0.1526	-10005.76
0.8973,0.1027	-9964.36
0.8822,0.1178	-9965.93
0.9288,0.0712	-9918.28
0.9889,0.0111	-9852.14
0.9200,0.0800	-9921.03
0.8602,0.1398	-10003.11
0.8829,0.1171	-9937.66
0.8871,0.1129	-9966.01
0.9244,0.0756	-9950.93
0.9890,0.0110	-9852.16
0.9352,0.0648	-9907.68
0.8629,0.1371	-9970.25
0.8766,0.1234	-9952.25
0.8893,0.1107	-9972.33
0.9124,0.0876	-9923.84
0.9882,0.0118	-9838.74
0.9326,0.0674	-9944.56
0.8647,0.1353	-9953.47
0.8721,0.1279	-9981.45
0.9038,0.0962	-9944.75
0.9278,0.0722	-9938.72
0.9861,0.0139	-9856.08
0.9382,0.0618	-9932.09
0.8794,0.1206	-9944.08
0.8955,0.1045	-9947.07
0.9089,0.0911	-9937.91
0.9331,0.0669	-9923.57
0.9847,0.0153	-9847.59
0.9255,0.0745	-9920.87
0.8767,0.1233	-9954.20
0.8866,0.1134	-9951.60
0.9079,0.0921	-9942.50
0.9311,0.0689	-9926.09
0.9801,0.0199	-9848.00
