#isoforms=['ENSG00000211445.SE.0.A.up_ENSG00000211445.SE.0.A.SE1_ENSG00000211445.SE.0.A.dn','ENSG00000211445.SE.0.B.up_ENSG00000211445.SE.0.B.dn']	exon_lens=('ENSG00000211445.SE.0.A.up',136),('ENSG00000211445.SE.0.A.SE1',426),('ENSG00000211445.SE.0.A.dn',154),('ENSG00000211445.SE.0.B.up',179),('ENSG00000211445.SE.0.B.dn',154)	iters=5000	burn_in=500	lag=10	percent_accept=96.77	proposal_type=drift	counts=(0,0):67,(0,1):41,(1,1):35	assigned_counts=0:0,1:76	chrom=chr5	strand=+	mRNA_starts=151020606,151020563	mRNA_ends=151025493,151025493
sampled_psi	log_score
0.0052,0.9948	-420.90
0.0269,0.9731	-423.55
0.0435,0.9565	-432.48
0.0099,0.9901	-421.18
0.0290,0.9710	-427.39
0.0500,0.9500	-427.43
0.0044,0.9956	-415.49
0.0302,0.9698	-420.60
0.0308,0.9692	-424.17
0.0119,0.9881	-416.99
0.0317,0.9683	-420.90
0.0390,0.9610	-425.54
0.0051,0.9949	-420.90
0.0290,0.9710	-420.37
0.0326,0.9674	-421.08
0.0108,0.9892	-416.77
0.0361,0.9639	-425.04
0.0379,0.9621	-428.58
0.0060,0.9940	-415.79
0.0236,0.9764	-419.30
0.0341,0.9659	-428.05
0.0125,0.9875	-417.10
0.0360,0.9640	-425.04
0.0384,0.9616	-428.66
0.0057,0.9943	-415.75
0.0217,0.9783	-422.74
0.0350,0.9650	-431.50
0.0139,0.9861	-421.65
0.0385,0.9615	-425.45
0.0338,0.9662	-421.30
0.0060,0.9940	-415.81
0.0217,0.9783	-422.73
0.0353,0.9647	-421.61
0.0141,0.9859	-421.67
0.0302,0.9698	-420.60
0.0275,0.9725	-423.63
0.0064,0.9936	-415.89
0.0252,0.9748	-419.62
0.0354,0.9646	-424.93
0.0158,0.9842	-421.89
0.0224,0.9776	-426.61
0.0297,0.9703	-420.50
0.0080,0.9920	-416.21
0.0192,0.9808	-418.44
0.0368,0.9632	-425.16
0.0161,0.9839	-417.81
0.0191,0.9809	-418.42
0.0299,0.9701	-424.02
0.0067,0.9933	-420.95
0.0219,0.9781	-426.56
0.0378,0.9622	-428.57
0.0162,0.9838	-417.83
0.0202,0.9798	-418.63
0.0268,0.9732	-419.93
0.0073,0.9927	-420.98
0.0266,0.9734	-423.50
0.0335,0.9665	-427.97
0.0184,0.9816	-418.27
0.0205,0.9795	-426.42
0.0212,0.9788	-418.82
0.0076,0.9924	-421.00
0.0305,0.9695	-431.04
0.0380,0.9620	-431.83
0.0199,0.9801	-418.57
0.0293,0.9707	-420.43
0.0198,0.9802	-426.36
0.0056,0.9944	-415.73
0.0288,0.9712	-420.33
0.0404,0.9596	-425.77
0.0212,0.9788	-426.49
0.0334,0.9666	-421.23
0.0224,0.9776	-422.84
0.0061,0.9939	-415.83
0.0266,0.9734	-423.49
0.0434,0.9566	-423.20
0.0191,0.9809	-418.42
0.0288,0.9712	-420.33
0.0189,0.9811	-418.38
0.0069,0.9931	-420.95
0.0318,0.9682	-420.92
0.0463,0.9537	-426.78
0.0180,0.9820	-422.19
0.0272,0.9728	-420.01
0.0189,0.9811	-422.32
0.0066,0.9934	-415.92
0.0318,0.9682	-434.58
0.0394,0.9606	-431.99
0.0176,0.9824	-418.11
0.0264,0.9736	-419.85
0.0187,0.9813	-418.33
0.0046,0.9954	-420.90
0.0338,0.9662	-428.02
0.0350,0.9650	-424.86
0.0195,0.9805	-422.41
0.0285,0.9715	-420.26
0.0152,0.9848	-421.81
0.0050,0.9950	-415.60
0.0391,0.9609	-425.55
0.0432,0.9568	-426.25
0.0182,0.9818	-426.21
0.0254,0.9746	-423.31
0.0126,0.9874	-417.11
0.0044,0.9956	-415.48
0.0360,0.9640	-421.74
0.0468,0.9532	-426.88
0.0158,0.9842	-417.75
0.0199,0.9801	-418.58
0.0153,0.9847	-421.83
0.0044,0.9956	-415.49
0.0285,0.9715	-423.80
0.0472,0.9528	-429.94
0.0148,0.9852	-425.95
0.0162,0.9838	-417.83
0.0159,0.9841	-421.90
0.0055,0.9945	-415.71
0.0252,0.9748	-419.62
0.0434,0.9566	-426.29
0.0097,0.9903	-421.17
0.0171,0.9829	-418.02
0.0164,0.9836	-417.87
0.0041,0.9959	-415.43
0.0239,0.9761	-419.36
0.0437,0.9563	-432.51
0.0101,0.9899	-416.62
0.0171,0.9829	-418.00
0.0150,0.9850	-425.96
0.0044,0.9956	-415.49
0.0333,0.9667	-427.95
0.0443,0.9557	-423.36
0.0094,0.9906	-416.48
0.0189,0.9811	-418.37
0.0116,0.9884	-416.91
0.0034,0.9966	-415.28
0.0292,0.9708	-423.91
0.0446,0.9554	-426.49
0.0088,0.9912	-416.37
0.0245,0.9755	-423.17
0.0078,0.9922	-416.17
0.0041,0.9959	-420.92
0.0304,0.9696	-424.10
0.0502,0.9498	-433.34
0.0096,0.9904	-416.53
0.0204,0.9796	-422.53
0.0088,0.9912	-416.37
0.0040,0.9960	-415.41
0.0321,0.9679	-424.38
0.0472,0.9528	-435.95
0.0081,0.9919	-421.03
0.0165,0.9835	-417.89
0.0102,0.9898	-416.64
0.0045,0.9955	-415.51
0.0307,0.9693	-427.61
0.0477,0.9523	-430.02
0.0097,0.9903	-421.17
0.0173,0.9827	-430.17
0.0086,0.9914	-416.32
0.0035,0.9965	-415.31
0.0377,0.9623	-425.31
0.0446,0.9554	-426.48
0.0080,0.9920	-416.21
0.0177,0.9823	-418.13
0.0068,0.9932	-415.96
0.0043,0.9957	-415.46
0.0439,0.9561	-429.45
0.0505,0.9495	-430.44
0.0094,0.9906	-416.48
0.0190,0.9810	-422.33
0.0061,0.9939	-415.82
0.0051,0.9949	-415.62
0.0378,0.9622	-422.09
0.0486,0.9514	-430.15
0.0075,0.9925	-416.10
0.0187,0.9813	-422.30
0.0056,0.9944	-420.90
0.0041,0.9959	-415.43
0.0357,0.9643	-421.68
0.0564,0.9436	-434.18
0.0088,0.9912	-416.37
0.0210,0.9790	-422.63
0.0045,0.9955	-415.51
0.0047,0.9953	-415.54
0.0284,0.9716	-427.32
0.0562,0.9438	-428.51
0.0098,0.9902	-416.56
0.0212,0.9788	-422.66
0.0036,0.9964	-415.33
0.0047,0.9953	-415.55
0.0222,0.9778	-426.60
0.0533,0.9467	-439.51
0.0097,0.9903	-416.54
0.0172,0.9828	-418.04
0.0030,0.9970	-415.20
0.0045,0.9955	-420.90
0.0229,0.9771	-419.16
0.0550,0.9450	-428.29
0.0113,0.9887	-416.85
0.0158,0.9842	-417.76
0.0031,0.9969	-415.23
0.0045,0.9955	-420.90
0.0260,0.9740	-419.78
0.0538,0.9462	-428.10
0.0117,0.9883	-416.95
0.0182,0.9818	-418.23
0.0025,0.9975	-415.11
0.0054,0.9946	-415.69
0.0231,0.9769	-422.95
0.0495,0.9505	-427.34
0.0138,0.9862	-417.36
0.0166,0.9834	-417.92
0.0030,0.9970	-415.20
0.0065,0.9935	-415.90
0.0203,0.9797	-422.52
0.0498,0.9502	-430.34
0.0158,0.9842	-421.89
0.0165,0.9835	-417.89
0.0033,0.9967	-415.27
0.0046,0.9954	-415.53
0.0223,0.9777	-419.04
0.0574,0.9426	-437.11
0.0161,0.9839	-417.82
0.0135,0.9865	-425.88
0.0030,0.9970	-415.21
0.0041,0.9959	-415.43
0.0225,0.9775	-422.85
0.0458,0.9542	-432.77
0.0156,0.9844	-417.71
0.0136,0.9864	-417.33
0.0028,0.9972	-415.16
0.0045,0.9955	-415.51
0.0254,0.9746	-423.30
0.0417,0.9583	-426.00
0.0129,0.9871	-425.85
0.0096,0.9904	-416.52
0.0029,0.9971	-415.18
0.0037,0.9963	-415.34
0.0258,0.9742	-419.72
0.0465,0.9535	-426.81
0.0128,0.9872	-417.15
0.0094,0.9906	-416.47
0.0028,0.9972	-415.16
0.0047,0.9953	-420.90
0.0234,0.9766	-419.26
0.0653,0.9347	-432.78
0.0126,0.9874	-421.48
0.0092,0.9908	-425.80
0.0022,0.9978	-415.05
0.0047,0.9953	-415.55
0.0209,0.9791	-422.62
0.0591,0.9409	-434.56
0.0108,0.9892	-416.76
0.0078,0.9922	-416.16
0.0023,0.9977	-415.06
0.0036,0.9964	-415.33
0.0145,0.9855	-417.49
0.0592,0.9408	-434.57
0.0123,0.9877	-430.22
0.0077,0.9923	-416.13
0.0020,0.9980	-415.01
0.0040,0.9960	-415.41
0.0144,0.9856	-421.71
0.0552,0.9448	-431.18
0.0139,0.9861	-417.38
0.0091,0.9909	-416.42
0.0016,0.9984	-414.92
0.0063,0.9937	-415.86
0.0153,0.9847	-417.66
0.0592,0.9408	-431.80
0.0139,0.9861	-417.38
0.0103,0.9897	-416.66
0.0018,0.9982	-414.96
0.0073,0.9927	-416.07
0.0149,0.9851	-417.58
0.0510,0.9490	-424.67
0.0139,0.9861	-417.37
0.0082,0.9918	-421.04
0.0021,0.9979	-415.02
0.0069,0.9931	-420.96
0.0160,0.9840	-421.92
0.0454,0.9546	-432.72
0.0142,0.9858	-417.44
0.0070,0.9930	-416.01
0.0022,0.9978	-415.05
0.0067,0.9933	-415.93
0.0191,0.9809	-426.28
0.0415,0.9585	-425.96
0.0128,0.9872	-417.16
0.0061,0.9939	-415.83
0.0018,0.9982	-414.97
0.0065,0.9935	-415.90
0.0236,0.9764	-419.30
0.0360,0.9640	-431.61
0.0127,0.9873	-421.49
0.0066,0.9934	-415.92
0.0020,0.9980	-415.01
0.0055,0.9945	-420.90
0.0277,0.9723	-420.11
0.0395,0.9605	-422.43
0.0131,0.9869	-425.86
0.0103,0.9897	-416.67
0.0022,0.9978	-415.04
0.0057,0.9943	-415.75
0.0226,0.9774	-419.09
0.0394,0.9606	-425.60
0.0146,0.9854	-425.94
0.0122,0.9878	-425.83
0.0024,0.9976	-415.09
0.0051,0.9949	-415.62
0.0185,0.9815	-418.29
0.0366,0.9634	-425.12
0.0183,0.9817	-422.24
0.0137,0.9863	-417.34
0.0027,0.9973	-415.15
0.0042,0.9958	-415.44
0.0247,0.9753	-419.52
0.0352,0.9648	-431.52
0.0248,0.9752	-419.54
0.0177,0.9823	-418.14
0.0024,0.9976	-415.08
0.0045,0.9955	-415.51
0.0191,0.9809	-418.41
0.0330,0.9670	-421.15
0.0234,0.9766	-422.99
0.0140,0.9860	-430.16
0.0024,0.9976	-415.09
0.0044,0.9956	-415.49
0.0163,0.9837	-421.95
0.0336,0.9664	-421.27
0.0268,0.9732	-423.52
0.0138,0.9862	-417.36
0.0024,0.9976	-415.09
0.0054,0.9946	-415.68
0.0119,0.9881	-416.98
0.0322,0.9678	-421.00
0.0228,0.9772	-426.66
0.0123,0.9877	-417.06
0.0026,0.9974	-415.12
0.0058,0.9942	-415.77
0.0155,0.9845	-421.85
0.0289,0.9711	-423.86
0.0207,0.9793	-422.58
0.0120,0.9880	-417.01
0.0034,0.9966	-415.28
0.0079,0.9921	-416.19
0.0124,0.9876	-417.07
0.0224,0.9776	-419.06
0.0227,0.9773	-426.65
0.0086,0.9914	-421.07
0.0034,0.9966	-415.29
0.0084,0.9916	-416.28
0.0090,0.9910	-421.11
0.0247,0.9753	-423.19
0.0210,0.9790	-422.62
0.0086,0.9914	-416.32
0.0033,0.9967	-415.27
0.0083,0.9917	-416.26
0.0075,0.9925	-420.99
0.0233,0.9767	-422.98
0.0205,0.9795	-418.70
0.0065,0.9935	-415.91
0.0037,0.9963	-420.94
0.0078,0.9922	-416.16
0.0085,0.9915	-416.30
0.0285,0.9715	-423.79
0.0190,0.9810	-422.33
0.0059,0.9941	-415.79
0.0036,0.9964	-415.32
0.0072,0.9928	-416.04
0.0072,0.9928	-416.05
0.0289,0.9711	-423.86
0.0173,0.9827	-418.05
0.0069,0.9931	-415.99
0.0033,0.9967	-415.27
0.0057,0.9943	-415.74
0.0060,0.9940	-415.81
0.0287,0.9713	-423.83
0.0190,0.9810	-418.39
0.0067,0.9933	-415.95
0.0042,0.9958	-415.45
0.0060,0.9940	-415.81
0.0070,0.9930	-416.00
0.0320,0.9680	-420.95
0.0169,0.9831	-417.98
0.0082,0.9918	-416.25
0.0049,0.9951	-415.59
0.0056,0.9944	-415.73
0.0077,0.9923	-421.01
0.0268,0.9732	-427.11
0.0148,0.9852	-421.75
0.0079,0.9921	-416.18
0.0048,0.9952	-415.57
0.0061,0.9939	-415.82
0.0073,0.9927	-420.98
0.0277,0.9723	-423.67
0.0150,0.9850	-417.60
0.0077,0.9923	-416.15
0.0043,0.9957	-415.47
0.0055,0.9945	-415.70
0.0087,0.9913	-416.35
0.0324,0.9676	-421.03
0.0144,0.9856	-421.71
0.0068,0.9932	-420.95
0.0041,0.9959	-415.42
0.0066,0.9934	-415.92
0.0086,0.9914	-416.32
0.0338,0.9662	-428.02
0.0090,0.9910	-421.10
0.0066,0.9934	-415.93
0.0048,0.9952	-420.90
0.0076,0.9924	-416.12
0.0097,0.9903	-416.55
0.0325,0.9675	-427.84
0.0110,0.9890	-421.30
0.0075,0.9925	-416.10
0.0045,0.9955	-415.50
0.0096,0.9904	-416.52
0.0098,0.9902	-416.57
0.0301,0.9699	-431.00
0.0132,0.9868	-417.24
0.0067,0.9933	-415.94
0.0042,0.9958	-415.44
0.0095,0.9905	-416.51
0.0134,0.9866	-417.28
0.0348,0.9652	-421.51
0.0137,0.9863	-417.34
0.0055,0.9945	-415.70
0.0051,0.9949	-415.62
0.0109,0.9891	-421.29
0.0122,0.9878	-417.04
0.0393,0.9607	-422.38
0.0133,0.9867	-417.26
0.0043,0.9957	-420.91
0.0048,0.9952	-415.56
0.0087,0.9913	-416.34
0.0130,0.9870	-417.20
0.0339,0.9661	-431.38
0.0184,0.9816	-418.27
0.0043,0.9957	-415.47
0.0044,0.9956	-415.48
0.0092,0.9908	-416.43
0.0104,0.9896	-416.67
0.0280,0.9720	-420.17
0.0217,0.9783	-418.92
0.0048,0.9952	-415.57
0.0052,0.9948	-415.65
0.0081,0.9919	-416.21
0.0074,0.9926	-416.09
0.0295,0.9705	-420.47
0.0175,0.9825	-418.09
0.0052,0.9948	-420.90
0.0052,0.9948	-415.64
0.0078,0.9922	-416.16
0.0086,0.9914	-416.33
0.0308,0.9692	-420.72
0.0177,0.9823	-418.14
0.0047,0.9953	-415.54
0.0074,0.9926	-416.08
0.0081,0.9919	-416.22
0.0086,0.9914	-416.33
0.0279,0.9721	-423.69
0.0167,0.9833	-417.94
0.0044,0.9956	-415.48
0.0070,0.9930	-416.00
0.0072,0.9928	-416.04
0.0093,0.9907	-416.46
0.0338,0.9662	-431.37
0.0174,0.9826	-418.07
0.0036,0.9964	-420.95
0.0076,0.9924	-416.13
0.0069,0.9931	-415.98
0.0099,0.9901	-416.59
0.0350,0.9650	-421.54
0.0154,0.9846	-417.67
0.0036,0.9964	-415.33
0.0100,0.9900	-416.60
0.0057,0.9943	-415.74
0.0120,0.9880	-417.00
0.0325,0.9675	-424.45
0.0132,0.9868	-421.55
0.0040,0.9960	-415.41
0.0091,0.9909	-416.43
0.0061,0.9939	-420.92
0.0098,0.9902	-416.57
0.0259,0.9741	-419.76
0.0123,0.9877	-417.06
0.0043,0.9957	-420.91
0.0113,0.9887	-421.33
0.0050,0.9950	-415.60
0.0088,0.9912	-416.35
0.0333,0.9667	-431.31
0.0130,0.9870	-417.20
0.0041,0.9959	-415.43
0.0109,0.9891	-416.79
0.0051,0.9949	-415.62
0.0067,0.9933	-420.94
0.0348,0.9652	-424.82
0.0139,0.9861	-421.64
0.0044,0.9956	-415.49
0.0127,0.9873	-417.13
0.0067,0.9933	-415.93
0.0051,0.9949	-420.90
0.0305,0.9695	-424.11
0.0133,0.9867	-417.25
0.0046,0.9954	-415.53
0.0121,0.9879	-425.83
0.0065,0.9935	-415.91
0.0061,0.9939	-420.92
0.0314,0.9686	-424.27
0.0140,0.9860	-421.65
0.0054,0.9946	-415.68
0.0131,0.9869	-417.21
0.0070,0.9930	-425.91
0.0063,0.9937	-415.86
0.0286,0.9714	-420.28
0.0144,0.9856	-421.71
0.0053,0.9947	-415.67
0.0110,0.9890	-416.80
0.0078,0.9922	-416.17
0.0066,0.9934	-415.92
0.0307,0.9693	-424.16
0.0143,0.9857	-417.45
0.0066,0.9934	-415.92
0.0097,0.9903	-416.54
0.0111,0.9889	-425.80
0.0077,0.9923	-416.14
0.0268,0.9732	-427.12
0.0156,0.9844	-417.72
0.0066,0.9934	-415.92
0.0097,0.9903	-416.54
0.0117,0.9883	-416.95
0.0060,0.9940	-415.81
0.0251,0.9749	-419.60
0.0148,0.9852	-417.57
0.0090,0.9910	-416.40
0.0122,0.9878	-421.43
0.0134,0.9866	-417.28
0.0074,0.9926	-416.09
0.0190,0.9810	-418.40
0.0128,0.9872	-425.85
0.0089,0.9911	-416.39
0.0122,0.9878	-417.03
0.0134,0.9866	-417.27
0.0077,0.9923	-416.15
0.0182,0.9818	-426.21
0.0109,0.9891	-416.79
0.0096,0.9904	-416.52
0.0115,0.9885	-416.91
0.0119,0.9881	-416.99
0.0082,0.9918	-416.25
0.0195,0.9805	-422.41
0.0101,0.9899	-416.62
0.0107,0.9893	-421.27
0.0115,0.9885	-421.35
0.0085,0.9915	-416.30
0.0090,0.9910	-416.40
0.0184,0.9816	-422.25
0.0090,0.9910	-416.41
0.0099,0.9901	-416.59
0.0100,0.9900	-416.61
0.0100,0.9900	-421.19
0.0072,0.9928	-416.05
0.0148,0.9852	-417.56
0.0093,0.9907	-416.47
0.0072,0.9928	-416.04
0.0094,0.9906	-421.14
0.0081,0.9919	-416.22
0.0083,0.9917	-416.26
0.0101,0.9899	-416.63
0.0096,0.9904	-416.51
0.0068,0.9932	-415.97
0.0102,0.9898	-416.63
0.0084,0.9916	-416.28
0.0086,0.9914	-416.33
0.0100,0.9900	-421.20
0.0102,0.9898	-416.64
0.0073,0.9927	-416.06
0.0093,0.9907	-416.46
0.0085,0.9915	-421.06
0.0049,0.9951	-415.59
0.0091,0.9909	-421.11
0.0098,0.9902	-416.56
0.0058,0.9942	-415.76
0.0102,0.9898	-416.64
0.0087,0.9913	-416.34
0.0054,0.9946	-420.90
0.0111,0.9889	-421.31
0.0100,0.9900	-421.20
0.0051,0.9949	-415.62
0.0093,0.9907	-416.47
0.0096,0.9904	-416.52
0.0049,0.9951	-420.90
0.0107,0.9893	-416.75
0.0065,0.9935	-415.91
0.0057,0.9943	-426.07
0.0088,0.9912	-416.37
0.0090,0.9910	-416.41
0.0043,0.9957	-415.46
0.0110,0.9890	-421.30
0.0076,0.9924	-416.13
0.0071,0.9929	-420.96
0.0074,0.9926	-416.08
0.0086,0.9914	-416.32
0.0042,0.9958	-415.45
0.0107,0.9893	-421.26
0.0061,0.9939	-415.83
0.0069,0.9931	-415.97
0.0094,0.9906	-416.48
0.0095,0.9905	-421.15
0.0040,0.9960	-420.92
0.0128,0.9872	-421.50
0.0072,0.9928	-416.05
0.0078,0.9922	-416.17
0.0096,0.9904	-416.53
0.0087,0.9913	-416.35
0.0033,0.9967	-415.27
0.0124,0.9876	-417.08
0.0072,0.9928	-416.05
0.0086,0.9914	-416.33
0.0094,0.9906	-421.14
0.0083,0.9917	-416.26
0.0031,0.9969	-421.00
0.0144,0.9856	-425.93
0.0059,0.9941	-420.91
0.0105,0.9895	-421.25
0.0083,0.9917	-416.26
0.0080,0.9920	-416.19
0.0029,0.9971	-415.19
0.0169,0.9831	-417.98
0.0059,0.9941	-415.78
0.0115,0.9885	-416.91
0.0071,0.9929	-420.96
0.0076,0.9924	-416.12
0.0038,0.9962	-415.37
0.0160,0.9840	-426.03
0.0057,0.9943	-415.75
0.0109,0.9891	-416.78
0.0087,0.9913	-416.34
0.0062,0.9938	-415.84
0.0033,0.9967	-415.27
0.0142,0.9858	-421.68
0.0060,0.9940	-415.80
0.0107,0.9893	-416.73
0.0094,0.9906	-430.46
0.0057,0.9943	-415.75
0.0034,0.9966	-415.29
0.0152,0.9848	-417.64
0.0038,0.9962	-415.37
0.0081,0.9919	-416.23
0.0082,0.9918	-416.25
0.0047,0.9953	-415.54
0.0038,0.9962	-415.37
0.0144,0.9856	-417.47
0.0038,0.9962	-415.37
0.0095,0.9905	-421.15
0.0084,0.9916	-416.28
0.0044,0.9956	-415.49
0.0042,0.9958	-420.91
0.0136,0.9864	-430.17
0.0038,0.9962	-415.37
0.0080,0.9920	-416.20
0.0099,0.9901	-421.19
0.0043,0.9957	-420.91
0.0042,0.9958	-420.91
0.0126,0.9874	-417.12
0.0037,0.9963	-420.94
0.0082,0.9918	-416.23
0.0099,0.9901	-416.58
0.0049,0.9951	-415.59
0.0036,0.9964	-420.95
0.0132,0.9868	-421.56
0.0043,0.9957	-415.46
0.0087,0.9913	-416.33
0.0118,0.9882	-421.38
0.0044,0.9956	-415.48
0.0031,0.9969	-415.22
0.0122,0.9878	-421.43
0.0043,0.9957	-420.91
0.0105,0.9895	-416.70
0.0108,0.9892	-421.28
0.0050,0.9950	-415.61
0.0033,0.9967	-415.27
0.0106,0.9894	-425.79
0.0048,0.9952	-415.57
0.0110,0.9890	-416.81
0.0116,0.9884	-416.92
0.0057,0.9943	-420.91
0.0034,0.9966	-415.29
0.0115,0.9885	-416.89
0.0045,0.9955	-420.90
0.0110,0.9890	-421.30
0.0161,0.9839	-417.81
0.0060,0.9940	-415.80
0.0034,0.9966	-420.97
0.0104,0.9896	-421.24
0.0055,0.9945	-415.71
0.0118,0.9882	-421.39
0.0149,0.9851	-417.58
0.0067,0.9933	-415.94
0.0039,0.9961	-415.38
0.0104,0.9896	-416.67
0.0060,0.9940	-415.81
0.0117,0.9883	-416.94
0.0147,0.9853	-417.55
0.0072,0.9928	-416.04
0.0039,0.9961	-415.39
0.0085,0.9915	-416.30
0.0050,0.9950	-415.60
0.0106,0.9894	-416.72
0.0129,0.9871	-417.18
0.0090,0.9910	-416.40
0.0034,0.9966	-415.28
0.0105,0.9895	-421.25
0.0048,0.9952	-415.55
0.0128,0.9872	-421.50
0.0104,0.9896	-416.68
0.0086,0.9914	-416.33
0.0029,0.9971	-415.18
0.0108,0.9892	-421.28
0.0057,0.9943	-415.74
0.0116,0.9884	-421.37
0.0115,0.9885	-416.91
0.0077,0.9923	-416.14
0.0023,0.9977	-421.13
0.0121,0.9879	-425.82
0.0056,0.9944	-415.72
0.0111,0.9889	-416.81
0.0112,0.9888	-421.32
0.0088,0.9912	-416.36
0.0024,0.9976	-415.09
0.0101,0.9899	-416.62
0.0050,0.9950	-415.60
0.0124,0.9876	-425.83
0.0107,0.9893	-416.75
0.0102,0.9898	-421.22
0.0025,0.9975	-415.10
0.0111,0.9889	-421.31
0.0060,0.9940	-415.81
0.0146,0.9854	-417.51
0.0100,0.9900	-421.20
0.0107,0.9893	-425.80
0.0032,0.9968	-415.25
0.0104,0.9896	-421.23
0.0072,0.9928	-420.97
0.0120,0.9880	-417.00
0.0128,0.9872	-417.16
0.0090,0.9910	-416.39
0.0028,0.9972	-415.16
0.0093,0.9907	-416.46
0.0086,0.9914	-416.32
0.0105,0.9895	-416.71
0.0136,0.9864	-421.61
0.0078,0.9922	-416.16
0.0029,0.9971	-415.18
0.0122,0.9878	-421.43
0.0094,0.9906	-416.49
0.0104,0.9896	-416.68
0.0134,0.9866	-417.27
0.0087,0.9913	-416.35
0.0029,0.9971	-415.18
0.0138,0.9862	-417.37
0.0084,0.9916	-416.29
0.0109,0.9891	-416.79
0.0140,0.9860	-417.39
0.0074,0.9926	-420.98
0.0024,0.9976	-415.09
0.0145,0.9855	-421.72
0.0067,0.9933	-415.94
0.0118,0.9882	-416.96
0.0156,0.9844	-417.72
0.0064,0.9936	-415.88
0.0024,0.9976	-421.11
0.0122,0.9878	-417.04
0.0065,0.9935	-415.91
0.0129,0.9871	-430.19
0.0157,0.9843	-417.73
0.0062,0.9938	-415.85
0.0029,0.9971	-415.19
0.0089,0.9911	-416.38
0.0054,0.9946	-415.68
0.0127,0.9873	-421.50
0.0146,0.9854	-421.73
0.0085,0.9915	-416.31
0.0035,0.9965	-415.30
0.0081,0.9919	-416.23
0.0066,0.9934	-420.94
0.0136,0.9864	-421.60
0.0117,0.9883	-416.94
0.0081,0.9919	-416.22
0.0038,0.9962	-420.93
0.0075,0.9925	-416.11
0.0066,0.9934	-415.92
0.0118,0.9882	-421.38
0.0129,0.9871	-417.19
0.0078,0.9922	-416.15
0.0034,0.9966	-415.29
0.0073,0.9927	-416.07
0.0057,0.9943	-415.75
0.0107,0.9893	-416.73
0.0132,0.9868	-421.55
0.0090,0.9910	-421.10
0.0038,0.9962	-415.37
0.0057,0.9943	-415.74
0.0060,0.9940	-420.92
0.0107,0.9893	-416.74
0.0141,0.9859	-421.66
0.0085,0.9915	-416.30
0.0043,0.9957	-415.46
0.0051,0.9949	-415.63
0.0059,0.9941	-415.79
0.0100,0.9900	-416.60
0.0148,0.9852	-417.56
0.0114,0.9886	-416.89
0.0038,0.9962	-415.36
0.0046,0.9954	-415.53
0.0059,0.9941	-415.79
0.0112,0.9888	-416.83
0.0169,0.9831	-426.10
0.0122,0.9878	-425.83
0.0046,0.9954	-415.53
0.0055,0.9945	-415.71
0.0062,0.9938	-415.85
0.0089,0.9911	-421.09
0.0146,0.9854	-421.73
0.0169,0.9831	-417.97
0.0049,0.9951	-415.58
0.0064,0.9936	-415.89
0.0053,0.9947	-415.67
0.0094,0.9906	-416.48
0.0136,0.9864	-417.31
0.0163,0.9837	-417.85
0.0042,0.9958	-420.91
0.0076,0.9924	-416.12
0.0050,0.9950	-415.60
0.0100,0.9900	-421.20
0.0142,0.9858	-417.43
0.0189,0.9811	-418.38
0.0036,0.9964	-415.32
0.0068,0.9932	-415.97
0.0054,0.9946	-415.69
0.0110,0.9890	-416.80
0.0117,0.9883	-421.38
0.0191,0.9809	-418.41
0.0036,0.9964	-415.32
0.0074,0.9926	-416.09
0.0062,0.9938	-415.85
0.0123,0.9877	-417.05
0.0112,0.9888	-416.84
0.0245,0.9755	-423.16
0.0034,0.9966	-415.29
0.0076,0.9924	-416.13
0.0051,0.9949	-426.18
0.0147,0.9853	-421.75
0.0112,0.9888	-416.85
0.0248,0.9752	-423.20
0.0039,0.9961	-415.38
0.0068,0.9932	-415.96
0.0049,0.9951	-415.59
0.0174,0.9826	-418.07
0.0119,0.9881	-416.98
0.0222,0.9778	-419.03
0.0038,0.9962	-415.37
0.0060,0.9940	-415.80
0.0041,0.9959	-415.43
0.0131,0.9869	-417.22
0.0126,0.9874	-417.12
0.0191,0.9809	-426.29
0.0041,0.9959	-415.42
0.0059,0.9941	-415.78
0.0050,0.9950	-415.60
0.0155,0.9845	-417.70
0.0107,0.9893	-421.27
0.0219,0.9781	-422.77
0.0037,0.9963	-415.34
0.0055,0.9945	-415.70
0.0044,0.9956	-415.48
0.0213,0.9787	-418.85
0.0115,0.9885	-416.89
0.0219,0.9781	-418.97
0.0049,0.9951	-415.59
0.0081,0.9919	-421.03
0.0048,0.9952	-415.57
0.0210,0.9790	-418.79
0.0153,0.9847	-421.81
0.0237,0.9763	-423.03
0.0043,0.9957	-415.47
0.0080,0.9920	-416.20
0.0045,0.9955	-415.51
0.0216,0.9784	-430.34
0.0122,0.9878	-417.04
0.0237,0.9763	-419.32
0.0047,0.9953	-415.55
0.0080,0.9920	-416.20
0.0047,0.9953	-415.54
0.0198,0.9802	-418.55
0.0116,0.9884	-421.36
0.0250,0.9750	-430.56
0.0059,0.9941	-415.77
0.0085,0.9915	-416.30
0.0050,0.9950	-415.61
0.0176,0.9824	-418.11
0.0089,0.9911	-421.09
0.0176,0.9824	-422.14
0.0060,0.9940	-415.81
0.0073,0.9927	-416.07
0.0060,0.9940	-420.92
0.0160,0.9840	-417.80
0.0089,0.9911	-416.38
0.0188,0.9812	-418.36
0.0057,0.9943	-415.75
0.0072,0.9928	-416.05
0.0060,0.9940	-415.81
0.0148,0.9852	-417.55
0.0070,0.9930	-416.00
0.0180,0.9820	-426.19
0.0076,0.9924	-416.13
0.0064,0.9936	-415.89
0.0069,0.9931	-415.98
0.0105,0.9895	-416.70
0.0072,0.9928	-416.04
0.0159,0.9841	-417.78
0.0068,0.9932	-415.97
0.0061,0.9939	-415.83
0.0062,0.9938	-415.85
0.0103,0.9897	-421.23
0.0097,0.9903	-416.54
0.0167,0.9833	-422.01
0.0066,0.9934	-425.95
0.0055,0.9945	-420.90
0.0068,0.9932	-415.97
0.0103,0.9897	-421.23
0.0121,0.9879	-417.01
0.0147,0.9853	-417.53
0.0072,0.9928	-416.05
0.0050,0.9950	-426.19
0.0068,0.9932	-420.95
0.0107,0.9893	-416.73
0.0118,0.9882	-421.39
0.0115,0.9885	-421.36
0.0069,0.9931	-420.95
0.0052,0.9948	-415.64
0.0077,0.9923	-416.13
0.0123,0.9877	-421.44
0.0105,0.9895	-421.24
0.0114,0.9886	-416.87
0.0073,0.9927	-416.06
0.0049,0.9951	-415.59
0.0067,0.9933	-415.95
0.0132,0.9868	-421.55
0.0091,0.9909	-416.43
0.0118,0.9882	-416.96
0.0088,0.9912	-416.37
0.0064,0.9936	-415.89
0.0087,0.9913	-416.34
0.0133,0.9867	-417.26
0.0056,0.9944	-415.72
0.0127,0.9873	-417.14
0.0070,0.9930	-416.00
0.0073,0.9927	-416.06
0.0084,0.9916	-416.28
0.0095,0.9905	-421.15
0.0057,0.9943	-415.75
0.0134,0.9866	-421.58
0.0054,0.9946	-415.68
0.0058,0.9942	-415.77
0.0077,0.9923	-416.15
0.0106,0.9894	-421.26
0.0052,0.9948	-420.90
0.0161,0.9839	-421.93
0.0061,0.9939	-415.82
0.0049,0.9951	-415.58
0.0088,0.9912	-416.35
0.0095,0.9905	-421.15
0.0055,0.9945	-415.70
0.0153,0.9847	-421.82
0.0058,0.9942	-415.76
0.0044,0.9956	-415.49
0.0100,0.9900	-416.61
0.0142,0.9858	-417.44
0.0066,0.9934	-415.93
0.0142,0.9858	-417.44
0.0057,0.9943	-420.91
0.0053,0.9947	-420.90
0.0109,0.9891	-416.78
0.0152,0.9848	-421.81
0.0062,0.9938	-415.85
0.0131,0.9869	-417.23
0.0055,0.9945	-415.71
0.0048,0.9952	-420.90
0.0122,0.9878	-417.03
0.0168,0.9832	-417.95
0.0052,0.9948	-420.90
0.0111,0.9889	-421.31
0.0050,0.9950	-415.60
0.0056,0.9944	-415.73
0.0121,0.9879	-421.43
0.0152,0.9848	-417.63
0.0055,0.9945	-420.90
0.0108,0.9892	-430.32
0.0060,0.9940	-420.92
0.0064,0.9936	-415.88
0.0103,0.9897	-421.23
0.0131,0.9869	-417.23
0.0063,0.9937	-415.87
0.0109,0.9891	-416.79
0.0073,0.9927	-420.98
0.0054,0.9946	-415.68
0.0111,0.9889	-416.81
0.0146,0.9854	-417.51
0.0051,0.9949	-426.16
0.0092,0.9908	-421.12
0.0065,0.9935	-415.91
0.0055,0.9945	-420.90
0.0165,0.9835	-417.90
0.0108,0.9892	-421.28
0.0048,0.9952	-415.56
0.0085,0.9915	-416.31
0.0085,0.9915	-421.06
0.0043,0.9957	-415.46
0.0165,0.9835	-417.89
0.0120,0.9880	-417.01
0.0043,0.9957	-415.47
0.0082,0.9918	-416.24
0.0090,0.9910	-416.40
0.0042,0.9958	-420.91
0.0165,0.9835	-417.89
0.0118,0.9882	-416.96
0.0044,0.9956	-415.49
0.0076,0.9924	-416.12
0.0071,0.9929	-425.91
0.0040,0.9960	-415.41
0.0149,0.9851	-421.77
0.0110,0.9890	-421.30
0.0034,0.9966	-415.29
0.0087,0.9913	-416.34
0.0065,0.9935	-415.91
0.0035,0.9965	-415.31
0.0176,0.9824	-422.13
0.0080,0.9920	-416.20
0.0039,0.9961	-415.39
0.0085,0.9915	-416.31
0.0058,0.9942	-420.91
0.0026,0.9974	-415.12
0.0141,0.9859	-421.66
0.0102,0.9898	-416.64
0.0033,0.9967	-415.26
0.0066,0.9934	-415.93
0.0064,0.9936	-415.89
0.0028,0.9972	-415.16
0.0132,0.9868	-421.55
0.0118,0.9882	-421.38
0.0030,0.9970	-415.21
0.0084,0.9916	-416.28
0.0053,0.9947	-420.90
0.0041,0.9959	-415.42
0.0145,0.9855	-421.72
0.0115,0.9885	-416.90
0.0026,0.9974	-415.12
0.0091,0.9909	-416.43
0.0065,0.9935	-415.91
0.0051,0.9949	-420.90
0.0137,0.9863	-417.33
0.0104,0.9896	-421.24
0.0036,0.9964	-415.32
0.0089,0.9911	-421.10
0.0071,0.9929	-416.02
0.0042,0.9958	-415.44
0.0164,0.9836	-426.06
0.0080,0.9920	-416.19
0.0034,0.9966	-415.29
0.0067,0.9933	-415.94
0.0084,0.9916	-416.28
0.0037,0.9963	-415.35
0.0148,0.9852	-421.76
0.0064,0.9936	-415.89
0.0032,0.9968	-415.24
0.0074,0.9926	-416.08
0.0094,0.9906	-416.49
0.0040,0.9960	-415.41
0.0141,0.9859	-430.16
0.0068,0.9932	-415.96
0.0037,0.9963	-415.35
0.0073,0.9927	-416.07
0.0082,0.9918	-416.24
0.0034,0.9966	-415.29
0.0176,0.9824	-430.18
0.0058,0.9942	-415.76
0.0036,0.9964	-420.95
0.0063,0.9937	-420.93
0.0086,0.9914	-421.07
0.0037,0.9963	-415.35
0.0216,0.9784	-430.34
0.0048,0.9952	-415.56
0.0042,0.9958	-415.44
0.0063,0.9937	-420.93
0.0077,0.9923	-416.14
0.0036,0.9964	-415.33
0.0204,0.9796	-418.67
0.0047,0.9953	-415.54
0.0046,0.9954	-415.53
0.0065,0.9935	-415.91
0.0093,0.9907	-416.47
0.0035,0.9965	-415.30
0.0257,0.9743	-426.99
0.0046,0.9954	-415.52
0.0050,0.9950	-420.90
0.0062,0.9938	-420.92
0.0106,0.9894	-416.72
0.0036,0.9964	-415.33
0.0230,0.9770	-419.18
0.0044,0.9956	-415.49
0.0045,0.9955	-415.51
0.0058,0.9942	-415.76
0.0101,0.9899	-421.21
0.0032,0.9968	-415.25
0.0255,0.9745	-430.60
0.0061,0.9939	-420.92
0.0031,0.9969	-415.23
0.0050,0.9950	-415.61
0.0111,0.9889	-416.82
0.0030,0.9970	-421.01
0.0216,0.9784	-418.91
0.0072,0.9928	-416.05
0.0034,0.9966	-415.28
0.0038,0.9962	-415.36
0.0103,0.9897	-421.23
0.0037,0.9963	-415.35
0.0227,0.9773	-419.13
0.0065,0.9935	-415.91
0.0038,0.9962	-415.36
0.0032,0.9968	-415.25
0.0101,0.9899	-416.63
0.0039,0.9961	-415.38
0.0266,0.9734	-423.50
0.0064,0.9936	-415.88
0.0037,0.9963	-415.34
0.0030,0.9970	-415.21
0.0072,0.9928	-416.05
0.0041,0.9959	-415.42
0.0210,0.9790	-422.62
0.0067,0.9933	-415.94
0.0041,0.9959	-415.42
0.0028,0.9972	-415.16
0.0067,0.9933	-415.94
0.0046,0.9954	-415.53
0.0187,0.9813	-418.33
0.0053,0.9947	-420.90
0.0050,0.9950	-415.60
0.0033,0.9967	-415.27
0.0084,0.9916	-416.28
0.0048,0.9952	-415.57
0.0161,0.9839	-417.81
0.0046,0.9954	-415.52
0.0050,0.9950	-415.60
0.0035,0.9965	-415.31
0.0080,0.9920	-416.20
0.0049,0.9951	-415.59
0.0171,0.9829	-418.01
0.0048,0.9952	-415.57
0.0042,0.9958	-415.45
0.0032,0.9968	-415.25
0.0073,0.9927	-416.06
0.0057,0.9943	-415.74
0.0176,0.9824	-418.11
0.0064,0.9936	-415.88
0.0050,0.9950	-415.61
0.0034,0.9966	-420.96
0.0084,0.9916	-416.29
0.0045,0.9955	-415.50
0.0248,0.9752	-419.53
0.0062,0.9938	-420.92
0.0058,0.9942	-415.77
0.0036,0.9964	-415.32
0.0108,0.9892	-416.76
0.0046,0.9954	-415.53
0.0235,0.9765	-423.01
0.0064,0.9936	-420.93
0.0071,0.9929	-416.02
0.0040,0.9960	-415.40
0.0111,0.9889	-416.82
0.0054,0.9946	-415.68
0.0247,0.9753	-419.52
0.0061,0.9939	-415.82
0.0090,0.9910	-416.40
0.0054,0.9946	-415.69
0.0102,0.9898	-416.64
0.0055,0.9945	-415.70
0.0228,0.9772	-422.90
0.0063,0.9937	-415.86
0.0098,0.9902	-416.55
0.0051,0.9949	-415.62
0.0100,0.9900	-416.60
0.0055,0.9945	-420.90
0.0238,0.9762	-430.48
0.0075,0.9925	-416.10
0.0115,0.9885	-421.36
0.0044,0.9956	-415.48
0.0097,0.9903	-416.53
0.0055,0.9945	-420.90
0.0223,0.9777	-426.60
0.0063,0.9937	-415.87
0.0107,0.9893	-421.27
0.0038,0.9962	-415.36
0.0093,0.9907	-416.47
0.0053,0.9947	-415.66
0.0161,0.9839	-421.93
0.0057,0.9943	-415.75
0.0107,0.9893	-421.27
0.0035,0.9965	-415.30
0.0087,0.9913	-416.34
0.0056,0.9944	-415.73
0.0154,0.9846	-425.99
0.0054,0.9946	-415.69
0.0120,0.9880	-421.41
0.0034,0.9966	-420.97
0.0078,0.9922	-416.17
0.0088,0.9912	-421.09
0.0135,0.9865	-425.88
0.0056,0.9944	-420.90
0.0088,0.9912	-421.09
0.0028,0.9972	-415.17
0.0090,0.9910	-416.40
0.0074,0.9926	-416.08
0.0156,0.9844	-417.72
0.0061,0.9939	-415.83
0.0099,0.9901	-421.18
0.0031,0.9969	-415.23
0.0101,0.9899	-421.21
0.0066,0.9934	-420.94
0.0140,0.9860	-417.40
0.0059,0.9941	-415.79
0.0089,0.9911	-416.38
0.0027,0.9973	-421.05
0.0072,0.9928	-416.04
0.0080,0.9920	-416.21
0.0123,0.9877	-425.83
0.0072,0.9928	-416.04
0.0106,0.9894	-416.72
0.0026,0.9974	-415.12
0.0068,0.9932	-415.96
0.0075,0.9925	-420.99
0.0108,0.9892	-416.76
0.0082,0.9918	-416.24
0.0126,0.9874	-417.11
0.0027,0.9973	-415.15
0.0069,0.9931	-420.95
0.0062,0.9938	-415.85
0.0125,0.9875	-417.10
0.0079,0.9921	-416.18
0.0105,0.9895	-416.71
0.0024,0.9976	-415.09
0.0063,0.9937	-415.86
0.0064,0.9936	-415.88
0.0093,0.9907	-416.46
0.0082,0.9918	-425.84
0.0083,0.9917	-421.05
0.0021,0.9979	-415.03
0.0065,0.9935	-415.91
0.0049,0.9951	-415.59
0.0079,0.9921	-416.19
0.0081,0.9919	-421.03
0.0080,0.9920	-416.21
0.0018,0.9982	-414.96
0.0061,0.9939	-415.83
0.0052,0.9948	-415.65
0.0095,0.9905	-416.50
0.0084,0.9916	-416.28
0.0066,0.9934	-415.92
0.0019,0.9981	-414.98
0.0076,0.9924	-416.12
0.0052,0.9948	-420.90
0.0073,0.9927	-420.98
0.0061,0.9939	-420.92
0.0080,0.9920	-416.20
0.0020,0.9980	-415.00
0.0065,0.9935	-415.90
0.0043,0.9957	-415.46
0.0083,0.9917	-416.26
0.0051,0.9949	-415.63
0.0082,0.9918	-416.24
0.0021,0.9979	-415.03
0.0072,0.9928	-416.04
0.0040,0.9960	-415.41
0.0069,0.9931	-415.99
0.0049,0.9951	-415.59
0.0074,0.9926	-416.09
0.0019,0.9981	-414.99
0.0071,0.9929	-420.96
0.0041,0.9959	-415.42
0.0074,0.9926	-416.08
0.0046,0.9954	-415.52
0.0077,0.9923	-421.00
0.0018,0.9982	-414.97
0.0062,0.9938	-415.85
0.0049,0.9951	-415.59
0.0059,0.9941	-415.78
0.0055,0.9945	-415.70
0.0071,0.9929	-416.02
0.0018,0.9982	-414.97
0.0055,0.9945	-426.10
0.0054,0.9946	-415.68
0.0056,0.9944	-415.72
0.0045,0.9955	-420.90
0.0054,0.9946	-415.69
0.0019,0.9981	-414.99
0.0066,0.9934	-415.93
0.0067,0.9933	-415.95
0.0055,0.9945	-415.70
0.0045,0.9955	-415.50
0.0042,0.9958	-415.45
0.0019,0.9981	-414.99
0.0061,0.9939	-415.82
0.0054,0.9946	-415.69
0.0061,0.9939	-415.83
0.0044,0.9956	-415.48
0.0059,0.9941	-415.79
0.0016,0.9984	-414.93
0.0063,0.9937	-415.86
0.0067,0.9933	-415.93
0.0077,0.9923	-416.14
0.0037,0.9963	-415.35
0.0041,0.9959	-415.43
0.0020,0.9980	-415.01
0.0079,0.9921	-416.19
0.0056,0.9944	-415.72
0.0091,0.9909	-421.11
0.0050,0.9950	-415.61
0.0044,0.9956	-415.48
0.0017,0.9983	-414.95
0.0079,0.9921	-416.19
0.0045,0.9955	-415.51
0.0085,0.9915	-425.82
0.0044,0.9956	-415.48
0.0039,0.9961	-420.93
0.0024,0.9976	-415.08
0.0089,0.9911	-416.39
0.0047,0.9953	-420.90
0.0085,0.9915	-421.06
0.0043,0.9957	-415.46
0.0040,0.9960	-415.40
0.0027,0.9973	-415.14
0.0139,0.9861	-421.64
0.0046,0.9954	-415.52
0.0079,0.9921	-416.17
0.0040,0.9960	-415.41
0.0037,0.9963	-415.34
0.0025,0.9975	-415.11
0.0119,0.9881	-416.99
0.0050,0.9950	-415.60
0.0053,0.9947	-415.65
0.0047,0.9953	-426.27
0.0028,0.9972	-415.16
0.0019,0.9981	-414.99
0.0160,0.9840	-417.79
0.0044,0.9956	-415.48
0.0041,0.9959	-420.92
0.0056,0.9944	-415.73
0.0031,0.9969	-415.22
0.0018,0.9982	-414.96
0.0160,0.9840	-421.92
0.0038,0.9962	-415.37
0.0042,0.9958	-415.44
0.0059,0.9941	-415.78
0.0033,0.9967	-415.27
0.0020,0.9980	-415.01
0.0137,0.9863	-421.61
0.0044,0.9956	-415.48
0.0031,0.9969	-415.22
0.0061,0.9939	-415.82
0.0042,0.9958	-420.91
0.0027,0.9973	-415.15
0.0151,0.9849	-417.61
0.0033,0.9967	-415.27
0.0028,0.9972	-421.05
0.0069,0.9931	-415.99
0.0046,0.9954	-415.52
0.0026,0.9974	-415.12
0.0168,0.9832	-422.02
0.0036,0.9964	-415.32
0.0024,0.9976	-421.12
0.0105,0.9895	-416.70
0.0045,0.9955	-415.51
0.0030,0.9970	-415.21
0.0161,0.9839	-417.81
0.0028,0.9972	-415.16
0.0027,0.9973	-415.14
0.0099,0.9901	-416.58
0.0040,0.9960	-415.41
0.0040,0.9960	-415.41
0.0205,0.9795	-418.70
0.0028,0.9972	-415.16
0.0029,0.9971	-415.18
0.0097,0.9903	-416.54
0.0039,0.9961	-415.38
0.0043,0.9957	-415.47
0.0182,0.9818	-418.23
0.0020,0.9980	-415.00
0.0030,0.9970	-415.21
0.0086,0.9914	-421.07
0.0034,0.9966	-420.97
0.0040,0.9960	-415.40
0.0155,0.9845	-417.69
0.0023,0.9977	-415.07
0.0029,0.9971	-415.19
0.0080,0.9920	-416.20
0.0033,0.9967	-415.27
0.0044,0.9956	-415.48
0.0165,0.9835	-417.89
0.0033,0.9967	-415.26
0.0032,0.9968	-415.25
0.0089,0.9911	-416.37
0.0028,0.9972	-415.17
0.0042,0.9958	-415.45
0.0146,0.9854	-421.73
0.0033,0.9967	-415.27
0.0032,0.9968	-415.24
0.0076,0.9924	-416.12
0.0025,0.9975	-415.11
0.0036,0.9964	-415.33
0.0176,0.9824	-422.14
0.0037,0.9963	-415.35
0.0031,0.9969	-415.23
0.0078,0.9922	-416.16
0.0028,0.9972	-415.16
0.0039,0.9961	-420.93
0.0151,0.9849	-417.61
0.0035,0.9965	-415.30
0.0028,0.9972	-415.17
0.0068,0.9932	-420.95
0.0028,0.9972	-415.17
0.0041,0.9959	-415.42
0.0143,0.9857	-421.69
0.0032,0.9968	-415.24
0.0034,0.9966	-420.97
0.0070,0.9930	-416.01
0.0026,0.9974	-415.12
0.0045,0.9955	-415.51
0.0178,0.9822	-418.16
0.0041,0.9959	-415.42
0.0031,0.9969	-415.22
0.0050,0.9950	-415.60
0.0022,0.9978	-415.04
0.0064,0.9936	-420.93
0.0201,0.9799	-418.60
0.0039,0.9961	-415.39
0.0030,0.9970	-415.20
0.0058,0.9942	-415.76
0.0022,0.9978	-415.05
0.0062,0.9938	-420.92
0.0142,0.9858	-417.44
0.0042,0.9958	-415.45
0.0021,0.9979	-421.18
0.0052,0.9948	-415.65
0.0025,0.9975	-415.11
0.0054,0.9946	-415.68
0.0113,0.9887	-416.86
0.0047,0.9953	-415.55
0.0026,0.9974	-415.13
0.0070,0.9930	-420.96
0.0026,0.9974	-415.12
0.0054,0.9946	-415.68
0.0096,0.9904	-416.52
0.0052,0.9948	-415.64
0.0029,0.9971	-415.19
0.0063,0.9937	-415.86
0.0025,0.9975	-415.11
0.0050,0.9950	-420.90
0.0093,0.9907	-416.45
0.0041,0.9959	-415.42
0.0033,0.9967	-415.26
0.0058,0.9942	-415.76
0.0026,0.9974	-415.12
0.0046,0.9954	-415.53
0.0085,0.9915	-416.31
0.0036,0.9964	-420.95
0.0029,0.9971	-415.19
0.0047,0.9953	-415.55
0.0022,0.9978	-415.05
0.0037,0.9963	-415.35
0.0095,0.9905	-416.50
0.0044,0.9956	-415.49
0.0022,0.9978	-415.05
0.0060,0.9940	-415.80
0.0020,0.9980	-415.01
0.0027,0.9973	-415.14
0.0102,0.9898	-421.22
0.0056,0.9944	-420.90
0.0028,0.9972	-415.16
0.0065,0.9935	-420.94
0.0025,0.9975	-415.11
0.0032,0.9968	-415.24
0.0116,0.9884	-416.91
0.0048,0.9952	-415.57
0.0030,0.9970	-415.21
0.0074,0.9926	-416.08
0.0027,0.9973	-415.15
0.0028,0.9972	-415.17
0.0131,0.9869	-430.18
0.0058,0.9942	-415.76
0.0029,0.9971	-415.19
0.0059,0.9941	-415.79
0.0031,0.9969	-415.23
0.0026,0.9974	-415.13
0.0131,0.9869	-417.21
0.0052,0.9948	-415.64
0.0035,0.9965	-415.30
0.0061,0.9939	-415.82
0.0039,0.9961	-415.38
0.0024,0.9976	-415.08
0.0122,0.9878	-421.44
0.0079,0.9921	-416.19
0.0025,0.9975	-415.11
0.0058,0.9942	-415.77
0.0038,0.9962	-415.36
0.0028,0.9972	-415.16
0.0134,0.9866	-425.88
0.0080,0.9920	-416.20
0.0025,0.9975	-415.11
0.0054,0.9946	-415.69
0.0039,0.9961	-415.39
0.0025,0.9975	-415.10
0.0135,0.9865	-417.30
0.0091,0.9909	-416.42
0.0025,0.9975	-415.10
0.0043,0.9957	-415.47
0.0039,0.9961	-415.38
0.0021,0.9979	-415.03
0.0140,0.9860	-417.40
0.0105,0.9895	-416.70
0.0026,0.9974	-415.12
0.0041,0.9959	-415.42
0.0045,0.9955	-420.90
0.0026,0.9974	-415.13
0.0135,0.9865	-421.58
0.0123,0.9877	-417.07
0.0027,0.9973	-415.14
0.0045,0.9955	-415.50
0.0047,0.9953	-415.54
0.0031,0.9969	-415.22
0.0149,0.9851	-417.57
0.0100,0.9900	-416.60
0.0027,0.9973	-415.15
0.0042,0.9958	-415.45
0.0033,0.9967	-415.27
0.0040,0.9960	-415.41
0.0138,0.9862	-421.63
0.0100,0.9900	-416.60
0.0027,0.9973	-415.14
0.0041,0.9959	-415.42
0.0029,0.9971	-415.18
0.0038,0.9962	-415.37
0.0098,0.9902	-421.18
0.0125,0.9875	-417.10
0.0025,0.9975	-415.10
0.0041,0.9959	-415.42
0.0030,0.9970	-415.20
0.0037,0.9963	-415.35
0.0069,0.9931	-415.99
0.0096,0.9904	-416.52
0.0021,0.9979	-415.02
0.0045,0.9955	-415.50
0.0034,0.9966	-415.28
0.0028,0.9972	-415.16
0.0068,0.9932	-415.96
0.0086,0.9914	-425.82
0.0031,0.9969	-421.00
0.0040,0.9960	-415.40
0.0034,0.9966	-415.28
0.0023,0.9977	-415.07
0.0073,0.9927	-420.98
0.0097,0.9903	-421.17
0.0027,0.9973	-415.14
0.0044,0.9956	-420.91
0.0037,0.9963	-415.34
0.0026,0.9974	-415.12
0.0072,0.9928	-416.05
0.0100,0.9900	-421.20
0.0025,0.9975	-415.10
0.0044,0.9956	-420.91
0.0029,0.9971	-421.02
0.0030,0.9970	-415.21
0.0059,0.9941	-415.79
0.0081,0.9919	-416.23
0.0022,0.9978	-415.05
0.0037,0.9963	-420.94
0.0035,0.9965	-415.30
0.0033,0.9967	-415.26
0.0073,0.9927	-416.06
0.0089,0.9911	-416.39
0.0025,0.9975	-415.10
0.0030,0.9970	-415.20
0.0035,0.9965	-415.31
0.0031,0.9969	-415.23
0.0068,0.9932	-415.96
0.0093,0.9907	-421.14
0.0034,0.9966	-415.29
0.0034,0.9966	-415.29
0.0037,0.9963	-415.34
0.0028,0.9972	-415.17
0.0061,0.9939	-415.82
0.0103,0.9897	-416.67
0.0036,0.9964	-415.32
0.0041,0.9959	-420.92
0.0049,0.9951	-415.59
0.0029,0.9971	-415.19
0.0071,0.9929	-416.02
0.0069,0.9931	-415.98
0.0044,0.9956	-415.49
0.0030,0.9970	-415.21
0.0059,0.9941	-415.78
0.0027,0.9973	-415.14
0.0055,0.9945	-420.90
0.0078,0.9922	-416.16
0.0049,0.9951	-415.58
0.0034,0.9966	-415.29
0.0050,0.9950	-415.60
0.0021,0.9979	-415.03
0.0054,0.9946	-415.69
0.0075,0.9925	-416.11
0.0034,0.9966	-415.29
0.0036,0.9964	-415.32
0.0050,0.9950	-415.61
0.0021,0.9979	-415.03
0.0058,0.9942	-415.76
0.0066,0.9934	-415.93
0.0033,0.9967	-415.26
0.0033,0.9967	-415.27
0.0042,0.9958	-415.45
0.0019,0.9981	-414.99
0.0059,0.9941	-420.91
0.0067,0.9933	-420.94
0.0027,0.9973	-421.06
0.0033,0.9967	-415.27
0.0046,0.9954	-415.52
0.0021,0.9979	-415.02
0.0059,0.9941	-415.77
0.0065,0.9935	-415.90
0.0032,0.9968	-415.24
0.0027,0.9973	-415.14
0.0050,0.9950	-415.61
0.0025,0.9975	-415.10
0.0063,0.9937	-420.92
0.0063,0.9937	-415.87
0.0033,0.9967	-415.27
0.0023,0.9977	-415.07
0.0052,0.9948	-415.65
0.0021,0.9979	-421.20
0.0059,0.9941	-415.79
0.0066,0.9934	-415.93
0.0036,0.9964	-415.32
0.0021,0.9979	-415.02
0.0056,0.9944	-415.72
0.0019,0.9981	-414.98
0.0052,0.9948	-415.65
0.0072,0.9928	-420.97
0.0039,0.9961	-415.39
0.0019,0.9981	-414.99
0.0061,0.9939	-415.82
0.0016,0.9984	-414.92
0.0052,0.9948	-415.65
0.0064,0.9936	-415.89
0.0041,0.9959	-415.42
0.0019,0.9981	-414.99
0.0081,0.9919	-416.22
0.0019,0.9981	-414.99
0.0049,0.9951	-415.58
0.0061,0.9939	-420.92
0.0037,0.9963	-415.34
0.0016,0.9984	-414.93
0.0096,0.9904	-416.53
0.0018,0.9982	-414.97
0.0050,0.9950	-415.60
0.0068,0.9932	-415.97
0.0036,0.9964	-415.33
0.0022,0.9978	-415.05
0.0120,0.9880	-417.01
0.0016,0.9984	-414.92
0.0043,0.9957	-415.46
0.0084,0.9916	-421.05
0.0035,0.9965	-415.30
0.0018,0.9982	-414.96
0.0111,0.9889	-425.80
0.0013,0.9987	-414.86
0.0050,0.9950	-415.60
0.0077,0.9923	-416.14
0.0018,0.9982	-414.96
0.0023,0.9977	-415.06
0.0128,0.9872	-421.50
0.0013,0.9987	-414.87
0.0051,0.9949	-415.62
0.0062,0.9938	-415.85
0.0018,0.9982	-414.96
0.0025,0.9975	-415.11
0.0131,0.9869	-417.22
0.0013,0.9987	-414.86
0.0047,0.9953	-415.55
0.0064,0.9936	-415.88
0.0023,0.9977	-415.06
0.0035,0.9965	-415.31
0.0153,0.9847	-417.65
0.0014,0.9986	-414.88
0.0044,0.9956	-420.91
0.0062,0.9938	-415.84
0.0022,0.9978	-415.05
0.0032,0.9968	-415.25
0.0126,0.9874	-421.49
0.0014,0.9986	-414.88
0.0043,0.9957	-415.46
0.0059,0.9941	-415.78
0.0027,0.9973	-415.15
0.0034,0.9966	-415.29
0.0103,0.9897	-416.65
0.0014,0.9986	-414.88
0.0045,0.9955	-415.50
0.0057,0.9943	-415.74
0.0031,0.9969	-415.22
0.0033,0.9967	-415.26
0.0130,0.9870	-417.21
0.0016,0.9984	-414.92
0.0045,0.9955	-415.50
0.0051,0.9949	-415.62
0.0033,0.9967	-415.26
0.0028,0.9972	-415.16
0.0108,0.9892	-416.77
0.0018,0.9982	-414.96
0.0030,0.9970	-415.20
0.0058,0.9942	-415.76
0.0038,0.9962	-415.36
0.0024,0.9976	-415.08
0.0099,0.9901	-416.59
0.0020,0.9980	-415.00
0.0034,0.9966	-415.28
0.0048,0.9952	-415.57
0.0030,0.9970	-415.20
0.0025,0.9975	-415.11
0.0104,0.9896	-416.67
0.0017,0.9983	-414.94
0.0036,0.9964	-432.18
0.0043,0.9957	-415.47
0.0036,0.9964	-415.32
0.0036,0.9964	-415.33
0.0109,0.9891	-416.77
0.0016,0.9984	-414.92
0.0046,0.9954	-415.52
0.0037,0.9963	-415.34
0.0034,0.9966	-415.29
0.0039,0.9961	-415.38
0.0084,0.9916	-416.29
0.0013,0.9987	-414.87
0.0046,0.9954	-415.52
0.0034,0.9966	-415.29
0.0032,0.9968	-415.24
0.0042,0.9958	-420.91
0.0071,0.9929	-416.03
0.0012,0.9988	-414.85
0.0041,0.9959	-415.42
0.0036,0.9964	-415.32
0.0033,0.9967	-415.27
0.0044,0.9956	-415.49
0.0062,0.9938	-415.84
0.0012,0.9988	-414.85
0.0046,0.9954	-415.52
0.0040,0.9960	-415.41
0.0037,0.9963	-415.35
0.0042,0.9958	-415.44
0.0069,0.9931	-415.97
0.0013,0.9987	-414.87
0.0040,0.9960	-420.92
0.0032,0.9968	-415.25
0.0041,0.9959	-415.42
0.0043,0.9957	-415.47
0.0072,0.9928	-416.04
0.0015,0.9985	-414.91
0.0031,0.9969	-415.22
0.0030,0.9970	-421.02
0.0037,0.9963	-415.35
0.0042,0.9958	-415.45
0.0102,0.9898	-416.64
0.0014,0.9986	-414.89
0.0025,0.9975	-415.10
0.0024,0.9976	-415.09
0.0033,0.9967	-415.27
0.0040,0.9960	-415.39
0.0092,0.9908	-416.44
0.0012,0.9988	-414.84
0.0031,0.9969	-415.22
0.0025,0.9975	-415.11
0.0035,0.9965	-415.30
0.0032,0.9968	-415.24
0.0096,0.9904	-416.52
0.0013,0.9987	-414.86
0.0040,0.9960	-415.40
0.0025,0.9975	-415.10
0.0039,0.9961	-420.93
0.0031,0.9969	-415.23
0.0118,0.9882	-421.39
0.0013,0.9987	-414.87
0.0042,0.9958	-415.45
0.0028,0.9972	-415.16
0.0039,0.9961	-415.39
0.0038,0.9962	-415.37
0.0128,0.9872	-417.16
0.0014,0.9986	-414.89
0.0036,0.9964	-415.33
0.0027,0.9973	-415.14
0.0035,0.9965	-415.30
0.0045,0.9955	-415.51
0.0134,0.9866	-417.28
0.0016,0.9984	-414.92
0.0040,0.9960	-415.40
0.0031,0.9969	-415.22
0.0050,0.9950	-415.61
0.0052,0.9948	-420.90
0.0149,0.9851	-421.77
0.0016,0.9984	-414.92
0.0037,0.9963	-415.35
0.0023,0.9977	-415.07
0.0060,0.9940	-415.80
0.0058,0.9942	-420.91
0.0169,0.9831	-417.97
0.0018,0.9982	-414.96
0.0044,0.9956	-415.49
0.0024,0.9976	-415.09
0.0049,0.9951	-420.90
0.0070,0.9930	-416.00
0.0137,0.9863	-417.34
0.0015,0.9985	-414.91
0.0048,0.9952	-420.90
0.0022,0.9978	-415.04
0.0047,0.9953	-415.55
0.0059,0.9941	-415.78
0.0162,0.9838	-417.84
0.0014,0.9986	-414.88
0.0044,0.9956	-420.91
0.0016,0.9984	-414.93
0.0042,0.9958	-415.44
0.0051,0.9949	-415.63
0.0173,0.9827	-418.06
0.0013,0.9987	-414.86
0.0044,0.9956	-415.48
0.0014,0.9986	-414.88
0.0044,0.9956	-415.48
0.0043,0.9957	-415.47
0.0140,0.9860	-421.65
0.0013,0.9987	-414.86
0.0042,0.9958	-415.45
0.0011,0.9989	-414.82
0.0042,0.9958	-415.45
0.0040,0.9960	-415.41
0.0118,0.9882	-416.97
0.0013,0.9987	-414.86
0.0044,0.9956	-415.49
0.0010,0.9990	-414.81
0.0042,0.9958	-415.45
0.0047,0.9953	-415.55
0.0141,0.9859	-421.67
0.0014,0.9986	-414.89
0.0042,0.9958	-415.44
0.0013,0.9987	-414.86
0.0039,0.9961	-415.39
0.0043,0.9957	-420.91
0.0122,0.9878	-417.05
0.0014,0.9986	-414.88
0.0047,0.9953	-415.55
0.0013,0.9987	-414.86
0.0038,0.9962	-415.36
0.0055,0.9945	-415.70
0.0144,0.9856	-417.48
0.0017,0.9983	-414.94
0.0052,0.9948	-415.65
0.0016,0.9984	-414.92
0.0032,0.9968	-415.25
0.0059,0.9941	-415.78
0.0133,0.9867	-417.26
0.0014,0.9986	-421.47
0.0055,0.9945	-415.71
0.0013,0.9987	-414.86
0.0029,0.9971	-415.18
0.0052,0.9948	-415.64
0.0101,0.9899	-421.21
0.0012,0.9988	-414.85
0.0058,0.9942	-415.77
0.0014,0.9986	-414.89
0.0030,0.9970	-415.20
0.0041,0.9959	-415.43
0.0077,0.9923	-416.14
0.0012,0.9988	-414.84
0.0057,0.9943	-415.74
0.0011,0.9989	-414.83
0.0026,0.9974	-415.13
0.0030,0.9970	-415.20
0.0077,0.9923	-416.15
0.0013,0.9987	-414.87
0.0056,0.9944	-415.72
0.0016,0.9984	-414.92
0.0024,0.9976	-415.08
0.0026,0.9974	-415.13
0.0076,0.9924	-416.13
0.0013,0.9987	-414.86
0.0056,0.9944	-415.73
0.0018,0.9982	-414.97
0.0025,0.9975	-415.10
0.0024,0.9976	-415.08
0.0076,0.9924	-425.87
0.0012,0.9988	-414.84
0.0052,0.9948	-415.65
0.0016,0.9984	-414.93
0.0024,0.9976	-415.08
0.0024,0.9976	-415.08
0.0068,0.9932	-415.96
0.0012,0.9988	-414.85
0.0053,0.9947	-415.66
0.0015,0.9985	-414.91
0.0030,0.9970	-415.21
0.0021,0.9979	-415.02
0.0067,0.9933	-415.94
0.0011,0.9989	-414.83
0.0059,0.9941	-415.78
0.0019,0.9981	-414.99
0.0025,0.9975	-415.11
0.0025,0.9975	-415.11
0.0070,0.9930	-416.00
0.0010,0.9990	-414.81
0.0058,0.9942	-415.76
0.0020,0.9980	-415.00
0.0021,0.9979	-415.02
0.0032,0.9968	-415.24
0.0063,0.9937	-415.86
0.0013,0.9987	-414.86
0.0042,0.9958	-420.92
0.0019,0.9981	-414.98
0.0021,0.9979	-415.02
0.0030,0.9970	-415.21
0.0063,0.9937	-415.86
0.0012,0.9988	-414.85
0.0039,0.9961	-415.38
0.0017,0.9983	-414.95
0.0027,0.9973	-421.06
0.0031,0.9969	-415.22
0.0068,0.9932	-415.95
0.0011,0.9989	-414.83
0.0042,0.9958	-415.45
0.0018,0.9982	-414.96
0.0034,0.9966	-415.29
0.0034,0.9966	-415.28
0.0065,0.9935	-415.91
0.0012,0.9988	-414.85
0.0041,0.9959	-415.42
0.0018,0.9982	-414.97
0.0040,0.9960	-415.41
0.0027,0.9973	-415.15
0.0058,0.9942	-415.77
0.0016,0.9984	-414.92
0.0037,0.9963	-415.35
0.0014,0.9986	-414.89
0.0037,0.9963	-415.35
0.0029,0.9971	-415.19
0.0045,0.9955	-415.51
0.0015,0.9985	-414.89
0.0032,0.9968	-415.24
0.0013,0.9987	-414.87
0.0031,0.9969	-415.22
0.0026,0.9974	-415.12
0.0048,0.9952	-415.56
0.0017,0.9983	-414.94
0.0033,0.9967	-415.26
0.0012,0.9988	-414.85
0.0037,0.9963	-415.34
0.0026,0.9974	-415.13
0.0047,0.9953	-420.90
0.0022,0.9978	-415.05
0.0033,0.9967	-415.27
0.0013,0.9987	-421.52
0.0035,0.9965	-415.31
0.0026,0.9974	-415.12
0.0052,0.9948	-420.90
0.0021,0.9979	-415.03
0.0027,0.9973	-415.15
0.0012,0.9988	-414.84
0.0036,0.9964	-415.32
0.0024,0.9976	-415.08
0.0059,0.9941	-415.79
0.0019,0.9981	-414.98
0.0024,0.9976	-415.09
0.0012,0.9988	-414.85
0.0044,0.9956	-415.48
0.0024,0.9976	-421.12
0.0071,0.9929	-416.02
0.0022,0.9978	-415.04
0.0023,0.9977	-415.06
0.0012,0.9988	-414.84
0.0047,0.9953	-415.55
0.0029,0.9971	-415.18
0.0068,0.9932	-415.96
0.0018,0.9982	-414.97
0.0020,0.9980	-415.00
0.0015,0.9985	-414.91
0.0037,0.9963	-415.35
0.0027,0.9973	-415.14
0.0067,0.9933	-415.94
0.0020,0.9980	-415.00
0.0015,0.9985	-414.91
0.0017,0.9983	-414.94
0.0042,0.9958	-415.45
0.0027,0.9973	-415.14
0.0059,0.9941	-420.91
0.0019,0.9981	-414.98
0.0017,0.9983	-414.94
0.0016,0.9984	-414.93
0.0040,0.9960	-420.92
0.0030,0.9970	-415.21
0.0056,0.9944	-415.73
0.0019,0.9981	-414.98
0.0016,0.9984	-414.92
0.0017,0.9983	-414.94
0.0042,0.9958	-415.45
0.0030,0.9970	-415.21
0.0065,0.9935	-415.90
0.0019,0.9981	-414.98
0.0017,0.9983	-414.95
0.0015,0.9985	-414.90
0.0044,0.9956	-420.91
0.0043,0.9957	-415.47
0.0041,0.9959	-415.42
0.0022,0.9978	-415.04
0.0019,0.9981	-414.98
0.0015,0.9985	-414.91
0.0059,0.9941	-415.79
0.0045,0.9955	-415.51
0.0041,0.9959	-415.43
0.0027,0.9973	-415.15
0.0019,0.9981	-414.99
0.0017,0.9983	-414.95
0.0062,0.9938	-415.84
0.0056,0.9944	-415.73
0.0047,0.9953	-415.55
0.0030,0.9970	-415.20
0.0022,0.9978	-421.17
0.0016,0.9984	-414.93
0.0064,0.9936	-420.93
0.0052,0.9948	-415.65
0.0048,0.9952	-420.90
0.0034,0.9966	-415.29
0.0022,0.9978	-415.04
0.0019,0.9981	-414.98
0.0069,0.9931	-415.99
0.0042,0.9958	-415.45
0.0066,0.9934	-415.93
0.0036,0.9964	-420.95
0.0024,0.9976	-415.09
0.0019,0.9981	-414.98
0.0070,0.9930	-425.92
0.0058,0.9942	-415.76
0.0075,0.9925	-416.10
0.0025,0.9975	-415.11
0.0024,0.9976	-415.09
0.0017,0.9983	-421.32
0.0070,0.9930	-415.99
0.0063,0.9937	-425.98
0.0097,0.9903	-421.17
0.0018,0.9982	-414.97
0.0021,0.9979	-415.03
0.0014,0.9986	-414.89
0.0068,0.9932	-420.95
0.0063,0.9937	-415.87
0.0112,0.9888	-421.32
0.0021,0.9979	-415.02
0.0022,0.9978	-415.05
0.0015,0.9985	-414.91
0.0067,0.9933	-415.94
0.0060,0.9940	-415.81
0.0119,0.9881	-416.99
0.0023,0.9977	-415.06
0.0024,0.9976	-415.09
0.0020,0.9980	-415.00
0.0063,0.9937	-415.87
0.0057,0.9943	-420.91
0.0128,0.9872	-417.17
0.0022,0.9978	-415.05
0.0022,0.9978	-415.04
0.0021,0.9979	-415.03
0.0072,0.9928	-416.05
0.0049,0.9951	-420.90
0.0127,0.9873	-421.49
0.0022,0.9978	-415.05
0.0020,0.9980	-415.00
0.0019,0.9981	-414.98
0.0059,0.9941	-415.79
0.0056,0.9944	-415.73
0.0132,0.9868	-417.24
0.0023,0.9977	-415.07
0.0026,0.9974	-415.13
0.0021,0.9979	-415.02
0.0068,0.9932	-415.95
0.0060,0.9940	-415.81
0.0148,0.9852	-421.76
0.0027,0.9973	-415.14
0.0025,0.9975	-415.10
0.0019,0.9981	-414.99
0.0043,0.9957	-415.46
0.0051,0.9949	-420.90
0.0143,0.9857	-417.45
0.0025,0.9975	-415.11
0.0018,0.9982	-414.97
0.0015,0.9985	-414.91
0.0044,0.9956	-415.49
0.0043,0.9957	-415.46
0.0137,0.9863	-425.89
0.0023,0.9977	-415.07
0.0020,0.9980	-415.01
0.0015,0.9985	-414.91
0.0034,0.9966	-415.28
0.0041,0.9959	-415.43
0.0120,0.9880	-416.99
0.0029,0.9971	-421.03
0.0019,0.9981	-421.25
0.0014,0.9986	-414.88
0.0030,0.9970	-415.21
0.0035,0.9965	-415.30
0.0131,0.9869	-421.54
0.0031,0.9969	-420.99
0.0015,0.9985	-414.91
0.0014,0.9986	-414.89
0.0034,0.9966	-415.28
0.0034,0.9966	-415.28
0.0115,0.9885	-416.90
0.0024,0.9976	-415.09
0.0014,0.9986	-414.88
0.0015,0.9985	-414.90
0.0039,0.9961	-420.93
0.0035,0.9965	-415.31
0.0115,0.9885	-416.91
0.0022,0.9978	-415.05
0.0017,0.9983	-414.95
0.0021,0.9979	-421.18
0.0042,0.9958	-415.45
0.0049,0.9951	-415.59
0.0134,0.9866	-417.29
0.0019,0.9981	-421.24
0.0013,0.9987	-414.86
0.0018,0.9982	-414.96
0.0052,0.9948	-415.65
0.0052,0.9948	-415.64
0.0158,0.9842	-421.89
0.0023,0.9977	-415.06
0.0015,0.9985	-414.90
0.0018,0.9982	-414.96
0.0064,0.9936	-415.88
0.0050,0.9950	-415.60
0.0136,0.9864	-417.32
0.0025,0.9975	-415.10
0.0014,0.9986	-414.89
0.0026,0.9974	-415.12
0.0059,0.9941	-415.78
0.0062,0.9938	-420.92
0.0169,0.9831	-417.98
0.0023,0.9977	-415.07
0.0018,0.9982	-414.97
0.0028,0.9972	-415.17
0.0078,0.9922	-416.16
0.0059,0.9941	-415.79
0.0169,0.9831	-417.97
0.0020,0.9980	-415.01
0.0017,0.9983	-414.94
0.0038,0.9962	-420.93
0.0079,0.9921	-425.85
0.0052,0.9948	-415.65
0.0171,0.9829	-418.02
0.0022,0.9978	-415.05
0.0017,0.9983	-414.94
0.0039,0.9961	-415.38
0.0064,0.9936	-415.89
0.0041,0.9959	-415.42
0.0174,0.9826	-422.11
0.0023,0.9977	-415.07
0.0018,0.9982	-414.97
0.0047,0.9953	-415.55
0.0047,0.9953	-415.54
0.0040,0.9960	-415.40
0.0194,0.9806	-422.39
0.0020,0.9980	-415.01
0.0020,0.9980	-415.01
0.0046,0.9954	-415.53
0.0035,0.9965	-415.30
0.0036,0.9964	-415.32
0.0196,0.9804	-418.51
0.0027,0.9973	-421.07
0.0021,0.9979	-415.02
0.0056,0.9944	-415.72
0.0044,0.9956	-415.49
0.0038,0.9962	-415.37
0.0194,0.9806	-418.47
0.0029,0.9971	-415.18
0.0021,0.9979	-421.18
0.0039,0.9961	-415.39
0.0051,0.9949	-415.62
0.0035,0.9965	-420.96
0.0191,0.9809	-422.36
0.0029,0.9971	-415.18
0.0024,0.9976	-427.17
0.0033,0.9967	-415.26
0.0053,0.9947	-415.66
0.0038,0.9962	-415.37
0.0182,0.9818	-422.21
0.0025,0.9975	-415.10
0.0026,0.9974	-415.12
0.0026,0.9974	-415.13
0.0049,0.9951	-415.59
0.0042,0.9958	-415.45
0.0183,0.9817	-418.25
0.0023,0.9977	-415.06
0.0024,0.9976	-415.09
0.0034,0.9966	-415.28
0.0035,0.9965	-415.31
0.0042,0.9958	-415.44
0.0159,0.9841	-417.78
0.0022,0.9978	-415.04
0.0022,0.9978	-415.05
0.0036,0.9964	-415.32
0.0030,0.9970	-415.21
0.0043,0.9957	-420.91
0.0197,0.9803	-418.53
0.0021,0.9979	-415.02
0.0025,0.9975	-415.10
0.0029,0.9971	-415.19
0.0024,0.9976	-415.08
0.0037,0.9963	-415.35
0.0214,0.9786	-422.70
0.0021,0.9979	-415.02
0.0018,0.9982	-414.96
0.0032,0.9968	-415.24
0.0021,0.9979	-415.02
0.0031,0.9969	-415.22
0.0161,0.9839	-417.81
0.0020,0.9980	-421.22
0.0018,0.9982	-414.97
0.0033,0.9967	-415.27
0.0022,0.9978	-415.04
0.0025,0.9975	-415.11
0.0157,0.9843	-417.74
0.0017,0.9983	-414.95
0.0020,0.9980	-415.00
0.0026,0.9974	-415.12
0.0018,0.9982	-414.96
0.0024,0.9976	-415.08
0.0109,0.9891	-416.77
0.0016,0.9984	-414.93
0.0016,0.9984	-414.92
0.0026,0.9974	-415.13
0.0021,0.9979	-415.03
0.0023,0.9977	-415.06
0.0120,0.9880	-417.00
0.0015,0.9985	-414.91
0.0015,0.9985	-414.91
0.0024,0.9976	-415.09
0.0019,0.9981	-414.99
0.0024,0.9976	-415.09
0.0131,0.9869	-417.23
0.0012,0.9988	-414.84
0.0018,0.9982	-414.97
0.0020,0.9980	-415.01
0.0016,0.9984	-414.93
0.0025,0.9975	-415.11
0.0132,0.9868	-417.24
0.0008,0.9992	-414.77
0.0018,0.9982	-414.96
0.0016,0.9984	-414.92
0.0014,0.9986	-414.89
0.0022,0.9978	-415.05
0.0164,0.9836	-417.87
0.0009,0.9991	-414.78
0.0016,0.9984	-414.93
0.0017,0.9983	-414.95
0.0015,0.9985	-421.43
0.0023,0.9977	-415.07
0.0145,0.9855	-417.50
0.0010,0.9990	-414.81
0.0022,0.9978	-415.05
0.0019,0.9981	-414.99
0.0017,0.9983	-414.94
0.0018,0.9982	-414.96
0.0130,0.9870	-417.20
0.0010,0.9990	-414.80
0.0021,0.9979	-415.03
0.0021,0.9979	-415.03
0.0016,0.9984	-414.93
0.0023,0.9977	-415.07
0.0131,0.9869	-417.21
0.0009,0.9991	-414.78
0.0025,0.9975	-415.10
0.0016,0.9984	-414.92
0.0017,0.9983	-414.94
0.0024,0.9976	-415.09
0.0135,0.9865	-417.30
0.0009,0.9991	-414.79
0.0022,0.9978	-415.05
0.0014,0.9986	-414.89
0.0019,0.9981	-414.99
0.0027,0.9973	-415.15
0.0118,0.9882	-425.81
0.0010,0.9990	-414.80
0.0017,0.9983	-414.95
0.0015,0.9985	-414.90
0.0022,0.9978	-415.04
0.0026,0.9974	-415.13
0.0128,0.9872	-417.15
0.0010,0.9990	-414.81
0.0022,0.9978	-415.04
0.0016,0.9984	-414.93
0.0022,0.9978	-415.05
0.0034,0.9966	-415.28
0.0126,0.9874	-425.84
0.0010,0.9990	-414.80
0.0022,0.9978	-421.17
0.0014,0.9986	-414.89
0.0022,0.9978	-415.04
0.0036,0.9964	-415.32
0.0109,0.9891	-421.29
0.0008,0.9992	-414.76
0.0017,0.9983	-414.94
0.0018,0.9982	-414.97
0.0022,0.9978	-415.05
0.0028,0.9972	-415.16
0.0106,0.9894	-416.72
0.0007,0.9993	-414.75
0.0019,0.9981	-414.99
0.0019,0.9981	-414.99
0.0019,0.9981	-414.99
0.0035,0.9965	-415.31
0.0101,0.9899	-416.63
0.0008,0.9992	-414.75
0.0022,0.9978	-415.05
0.0016,0.9984	-414.93
0.0017,0.9983	-414.95
0.0039,0.9961	-415.39
0.0098,0.9902	-421.18
0.0008,0.9992	-414.77
0.0031,0.9969	-415.22
0.0018,0.9982	-414.96
0.0018,0.9982	-414.96
0.0037,0.9963	-415.35
0.0122,0.9878	-417.03
0.0008,0.9992	-414.76
0.0024,0.9976	-415.09
0.0018,0.9982	-414.96
0.0017,0.9983	-414.95
0.0040,0.9960	-420.92
0.0106,0.9894	-416.72
0.0008,0.9992	-414.76
0.0033,0.9967	-420.97
0.0013,0.9987	-414.87
0.0017,0.9983	-414.95
0.0037,0.9963	-415.34
0.0092,0.9908	-421.13
0.0008,0.9992	-414.77
0.0037,0.9963	-415.34
0.0011,0.9989	-414.83
0.0018,0.9982	-414.96
0.0034,0.9966	-415.29
0.0140,0.9860	-417.39
0.0009,0.9991	-414.78
0.0040,0.9960	-415.41
0.0012,0.9988	-421.57
0.0014,0.9986	-414.89
0.0032,0.9968	-415.25
0.0145,0.9855	-417.50
0.0007,0.9993	-414.75
0.0041,0.9959	-415.42
0.0014,0.9986	-414.89
0.0014,0.9986	-414.88
0.0026,0.9974	-415.13
0.0116,0.9884	-416.91
0.0006,0.9994	-414.72
0.0035,0.9965	-415.31
0.0015,0.9985	-414.90
0.0013,0.9987	-414.87
0.0026,0.9974	-415.13
0.0138,0.9862	-417.35
0.0008,0.9992	-414.76
0.0031,0.9969	-415.22
0.0016,0.9984	-414.93
0.0012,0.9988	-414.85
0.0026,0.9974	-415.13
0.0115,0.9885	-416.90
0.0006,0.9994	-414.72
0.0027,0.9973	-415.15
0.0014,0.9986	-414.88
0.0010,0.9990	-414.81
0.0024,0.9976	-415.09
0.0095,0.9905	-416.50
0.0005,0.9995	-414.71
0.0023,0.9977	-421.14
0.0016,0.9984	-414.93
0.0012,0.9988	-414.84
0.0024,0.9976	-415.09
0.0096,0.9904	-421.16
0.0006,0.9994	-414.72
0.0024,0.9976	-415.08
0.0016,0.9984	-414.93
0.0011,0.9989	-414.83
0.0025,0.9975	-415.11
0.0097,0.9903	-416.54
0.0005,0.9995	-414.71
0.0027,0.9973	-415.14
0.0016,0.9984	-414.92
0.0015,0.9985	-414.90
0.0025,0.9975	-415.11
0.0071,0.9929	-416.02
0.0004,0.9996	-414.68
0.0027,0.9973	-415.14
0.0015,0.9985	-414.90
0.0017,0.9983	-414.94
0.0028,0.9972	-415.17
0.0077,0.9923	-416.14
0.0003,0.9997	-414.67
0.0028,0.9972	-415.17
0.0015,0.9985	-414.90
0.0018,0.9982	-414.96
0.0025,0.9975	-415.11
0.0083,0.9917	-416.26
0.0003,0.9997	-414.66
0.0021,0.9979	-415.02
0.0016,0.9984	-414.92
0.0023,0.9977	-415.06
0.0028,0.9972	-415.17
0.0099,0.9901	-416.59
0.0002,0.9998	-414.65
0.0017,0.9983	-414.94
0.0015,0.9985	-414.90
0.0032,0.9968	-415.25
0.0032,0.9968	-420.99
0.0082,0.9918	-416.25
0.0002,0.9998	-414.65
0.0021,0.9979	-415.03
0.0014,0.9986	-414.88
0.0039,0.9961	-420.93
0.0032,0.9968	-415.25
0.0103,0.9897	-416.65
0.0002,0.9998	-414.65
0.0021,0.9979	-415.03
0.0018,0.9982	-414.97
0.0043,0.9957	-415.47
0.0036,0.9964	-415.33
0.0090,0.9910	-416.41
0.0002,0.9998	-414.64
0.0023,0.9977	-415.06
0.0016,0.9984	-414.92
0.0034,0.9966	-415.29
0.0034,0.9966	-415.28
0.0080,0.9920	-421.02
0.0002,0.9998	-414.65
0.0020,0.9980	-415.01
0.0017,0.9983	-414.94
0.0030,0.9970	-415.21
0.0036,0.9964	-415.32
0.0076,0.9924	-416.11
0.0002,0.9998	-414.64
0.0022,0.9978	-415.05
0.0020,0.9980	-421.21
0.0043,0.9957	-415.47
0.0036,0.9964	-415.32
0.0079,0.9921	-416.18
0.0002,0.9998	-414.64
0.0018,0.9982	-414.97
0.0021,0.9979	-415.03
0.0056,0.9944	-415.72
0.0041,0.9959	-415.42
0.0061,0.9939	-415.82
0.0001,0.9999	-414.63
0.0015,0.9985	-414.90
0.0017,0.9983	-414.95
0.0040,0.9960	-415.40
0.0047,0.9953	-415.55
0.0046,0.9954	-415.53
0.0002,0.9998	-414.64
0.0014,0.9986	-421.47
0.0018,0.9982	-414.96
0.0042,0.9958	-415.44
0.0045,0.9955	-415.51
0.0045,0.9955	-415.51
0.0002,0.9998	-414.64
0.0016,0.9984	-414.92
0.0017,0.9983	-414.94
0.0051,0.9949	-415.63
0.0055,0.9945	-415.70
0.0049,0.9951	-415.58
0.0002,0.9998	-414.64
0.0014,0.9986	-414.89
0.0022,0.9978	-415.04
0.0045,0.9955	-415.51
0.0059,0.9941	-420.91
0.0052,0.9948	-415.64
0.0002,0.9998	-414.64
0.0011,0.9989	-414.83
0.0019,0.9981	-414.98
0.0039,0.9961	-415.39
0.0063,0.9937	-415.86
0.0057,0.9943	-415.75
0.0001,0.9999	-414.63
0.0012,0.9988	-414.84
0.0019,0.9981	-414.98
0.0035,0.9965	-415.31
0.0064,0.9936	-420.93
0.0048,0.9952	-415.56
0.0002,0.9998	-414.64
0.0011,0.9989	-414.82
0.0018,0.9982	-414.96
0.0033,0.9967	-415.27
0.0055,0.9945	-420.90
0.0048,0.9952	-415.56
0.0002,0.9998	-414.64
0.0013,0.9987	-414.87
0.0017,0.9983	-414.95
0.0037,0.9963	-415.35
0.0058,0.9942	-415.76
0.0041,0.9959	-415.43
0.0002,0.9998	-414.63
0.0010,0.9990	-414.81
0.0019,0.9981	-414.99
0.0041,0.9959	-420.92
0.0084,0.9916	-416.28
0.0035,0.9965	-415.30
0.0001,0.9999	-414.63
0.0011,0.9989	-414.82
0.0012,0.9988	-414.85
0.0046,0.9954	-415.52
0.0071,0.9929	-416.02
0.0033,0.9967	-415.27
0.0002,0.9998	-414.64
0.0012,0.9988	-414.84
0.0013,0.9987	-414.87
0.0042,0.9958	-415.45
0.0069,0.9931	-415.99
0.0035,0.9965	-415.30
0.0002,0.9998	-414.64
0.0010,0.9990	-414.81
0.0015,0.9985	-414.90
0.0034,0.9966	-415.28
0.0070,0.9930	-420.96
0.0031,0.9969	-415.22
0.0002,0.9998	-414.64
0.0012,0.9988	-414.84
0.0013,0.9987	-414.87
0.0033,0.9967	-415.26
0.0083,0.9917	-421.04
0.0028,0.9972	-415.17
0.0002,0.9998	-414.64
0.0012,0.9988	-414.85
0.0014,0.9986	-414.89
0.0032,0.9968	-415.25
0.0069,0.9931	-415.98
0.0025,0.9975	-415.10
0.0002,0.9998	-414.65
0.0013,0.9987	-414.87
0.0014,0.9986	-414.89
0.0031,0.9969	-415.23
0.0087,0.9913	-416.34
0.0018,0.9982	-414.97
0.0002,0.9998	-414.65
0.0016,0.9984	-414.92
0.0022,0.9978	-415.05
0.0033,0.9967	-415.27
0.0077,0.9923	-416.15
0.0018,0.9982	-414.97
0.0003,0.9997	-414.66
0.0014,0.9986	-414.89
0.0019,0.9981	-414.99
0.0033,0.9967	-415.27
0.0079,0.9921	-416.19
0.0018,0.9982	-414.97
0.0003,0.9997	-414.66
0.0013,0.9987	-414.87
0.0019,0.9981	-414.98
0.0030,0.9970	-421.02
0.0075,0.9925	-416.10
0.0017,0.9983	-414.94
0.0003,0.9997	-414.66
0.0013,0.9987	-414.86
0.0018,0.9982	-414.96
0.0027,0.9973	-415.15
0.0099,0.9901	-416.58
0.0015,0.9985	-414.91
0.0003,0.9997	-414.66
0.0013,0.9987	-414.87
0.0018,0.9982	-414.96
0.0027,0.9973	-415.15
0.0095,0.9905	-421.15
0.0014,0.9986	-414.88
0.0002,0.9998	-414.65
0.0011,0.9989	-414.83
0.0016,0.9984	-414.91
0.0025,0.9975	-415.11
0.0127,0.9873	-417.13
0.0016,0.9984	-414.93
0.0003,0.9997	-414.66
0.0013,0.9987	-414.87
0.0016,0.9984	-414.93
0.0025,0.9975	-415.11
0.0123,0.9877	-417.06
0.0014,0.9986	-414.88
0.0002,0.9998	-414.65
0.0013,0.9987	-414.86
0.0021,0.9979	-415.02
0.0031,0.9969	-415.23
0.0118,0.9882	-416.97
0.0016,0.9984	-414.92
0.0002,0.9998	-414.65
0.0010,0.9990	-414.81
0.0021,0.9979	-421.18
0.0027,0.9973	-415.15
0.0113,0.9887	-416.87
0.0019,0.9981	-414.98
0.0002,0.9998	-414.65
0.0010,0.9990	-414.80
0.0020,0.9980	-415.01
0.0026,0.9974	-415.12
0.0122,0.9878	-417.04
0.0016,0.9984	-414.92
0.0002,0.9998	-414.64
0.0009,0.9991	-414.79
0.0020,0.9980	-415.00
0.0021,0.9979	-415.02
0.0127,0.9873	-417.14
0.0015,0.9985	-414.90
0.0002,0.9998	-414.65
0.0009,0.9991	-414.79
0.0018,0.9982	-414.96
0.0025,0.9975	-421.08
0.0137,0.9863	-417.34
0.0018,0.9982	-414.96
0.0002,0.9998	-414.65
0.0007,0.9993	-414.75
0.0020,0.9980	-415.00
0.0028,0.9972	-421.04
0.0179,0.9821	-422.17
0.0019,0.9981	-414.98
0.0002,0.9998	-414.65
0.0007,0.9993	-414.74
0.0026,0.9974	-415.13
0.0027,0.9973	-415.15
0.0233,0.9767	-426.71
0.0019,0.9981	-414.99
0.0002,0.9998	-414.65
0.0008,0.9992	-414.76
0.0028,0.9972	-415.16
0.0025,0.9975	-415.11
0.0200,0.9800	-418.58
0.0020,0.9980	-415.00
0.0002,0.9998	-414.65
0.0007,0.9993	-414.75
0.0033,0.9967	-415.26
0.0027,0.9973	-415.14
0.0215,0.9785	-422.70
0.0022,0.9978	-415.05
0.0002,0.9998	-414.65
0.0006,0.9994	-414.73
0.0034,0.9966	-415.29
0.0032,0.9968	-415.24
0.0240,0.9760	-419.38
0.0022,0.9978	-415.04
0.0003,0.9997	-414.66
0.0007,0.9993	-414.74
0.0034,0.9966	-415.29
0.0032,0.9968	-415.24
0.0242,0.9758	-423.12
0.0029,0.9971	-415.18
0.0003,0.9997	-414.67
0.0008,0.9992	-414.76
0.0035,0.9965	-420.96
0.0035,0.9965	-415.30
0.0196,0.9804	-430.25
0.0026,0.9974	-415.13
0.0003,0.9997	-414.67
0.0009,0.9991	-414.79
0.0025,0.9975	-415.11
0.0035,0.9965	-415.31
0.0186,0.9814	-422.28
0.0028,0.9972	-421.05
0.0003,0.9997	-414.67
0.0010,0.9990	-414.80
0.0028,0.9972	-415.16
0.0027,0.9973	-421.06
0.0193,0.9807	-430.23
0.0031,0.9969	-415.23
0.0003,0.9997	-414.66
0.0009,0.9991	-414.78
0.0035,0.9965	-415.30
0.0028,0.9972	-421.03
0.0243,0.9757	-419.44
0.0043,0.9957	-420.91
0.0003,0.9997	-414.66
0.0010,0.9990	-414.81
0.0033,0.9967	-415.27
0.0024,0.9976	-415.09
0.0235,0.9765	-426.74
0.0038,0.9962	-415.37
0.0003,0.9997	-414.66
0.0008,0.9992	-414.77
0.0039,0.9961	-415.39
0.0031,0.9969	-415.22
0.0174,0.9826	-418.07
0.0044,0.9956	-415.49
